# ================= DQRFIT RESULTS ================
# INPUT FILE: series/AB42.rad
# OUTPUT: LDETRENDED
# FILTER FUNCTION: f(t)
# f(t)=+line(t)+annual(t)
# line(t)=+P 1+P 2*t
# annual(t)=+P 3*sin(2*pi*t+P 4)
# heav(t)=(t<0?0:1)
# TOTAL OBSERVATIONS MTOT= 4047
# INITIAL TIME INTERVAL= 2019.7262 - 2006.5791 = 13.1472
# TOTAL OBSERVATIONS AFTER PREFILTER M= 3969
# TIME-SPAN= 2019.7262 - 2006.5791 = 13.1472
# OBSERVATIONS: USED M=  3969 REJECTED MTOT-M=    78 %USED=   98.0726
# N=  4 PARAMETERS
# MAXSIG= 175.00000
# MAXRES= 253.31839
# SCALE FACTOR FOR LENGTHS: SCL=  10.00000
# SCALE FACTOR FOR SIGMAS: SCLSIG=   1.00000
# CHI^2=   7869.673 DOF=  3965 CHI^2/DOF=   1.98479
# RMS=     12.513 SDEV=     12.497 MEAN=    0.66029
#  P #       PARAMETER +-    SIGMA %error PARAMETER NAME
# P 1 =    -46778.86321 +-   78.211   0.17 YZERO                              
# P 2 =        23.22810 +-    0.039   0.17 SLOPE                              
# P 3 =        10.46623 +-    0.187   1.79 ANNUAL AMPLITUDE                   
# P 4 =         2.65368 +-    0.022   0.84 ANNUAL PHASE                       
#       T            LDETRENDED       SIG_OBS
     2006.57905        24.77300         8.08947
     2006.58179        32.54641        10.03505
     2006.58453        33.78981        21.66631
     2006.58726        20.91422         9.23062
     2006.59000        41.87762        20.31524
     2006.59274        14.32303        18.32317
     2006.59548        36.18943        18.21891
     2006.59822        35.27884        43.48617
     2006.60095        39.51524        51.34882
     2006.70222       229.93000       168.24881
     2006.70499       260.82963      6066.11493
     2006.70773       121.89903       118.78500
     2006.71047       204.26144       102.49477
     2006.71321       118.71284        85.35783
     2006.71594       -86.87775        86.97939
     2006.71868       -49.45135       114.93891
     2006.72142       -10.75794        97.13560
     2006.72416        -6.74954        89.21942
     2006.72689        99.78687       107.95255
     2006.72963        87.19727        90.31548
     2006.73237       206.82268        83.53481
     2006.73511        32.18308        82.87267
     2006.73785        52.83749       102.83993
     2006.74058        30.38089        47.15757
     2006.74332        50.27330        46.40666
     2006.74606        44.53970        41.53636
     2006.74880        31.56611        42.74231
     2006.75154        20.06951        47.27732
     2006.75427         6.76292        47.74364
     2006.75701        45.79832        49.67655
     2006.75975        27.62773        45.50643
     2006.76249        13.08613        45.67689
     2006.76522        20.46554        44.77384
     2006.76796        15.68394        47.10826
     2006.77070        27.08135        46.41934
     2006.77344        51.31275        48.45932
     2006.77618        31.51016        42.30276
     2006.77891        34.56856        42.96350
     2006.78165        43.11497        41.88152
     2006.78439        23.86937        35.72919
     2006.78713        28.30978        41.72232
     2006.78987        72.11518        38.47639
     2006.79260        30.98459        36.77031
     2006.79534        25.93099        35.05859
     2006.79808        27.67240        39.82323
     2006.80082         4.34280        37.57756
     2006.80355        11.35121        38.07629
     2006.80629        22.86061        35.93488
     2006.80903        40.14502        38.01712
     2006.81177        25.10042        38.27352
     2006.81451        35.47983        35.67565
     2006.81645        19.51878        58.14921
     2007.77121        29.97333        33.08482
     2007.77275        28.84956         9.05451
     2007.77549        33.96696         8.99957
     2007.77823        27.41637         8.79670
     2007.78097        30.64677         8.83755
     2007.78371        27.07118         8.85587
     2007.78644        25.71458         9.08410
     2007.78918        31.97699         8.75725
     2007.79192        27.10339         8.88827
     2007.79466        37.04180         8.96717
     2007.79739        29.44020         9.46166
     2007.80013        31.98561         9.69975
     2007.80287        34.20501         9.57155
     2007.80561        34.19442         9.66876
     2007.80835        23.58982         9.94207
     2007.81108        24.07423        10.09141
     2007.81382        21.15463         9.76174
     2007.81656        17.34604         9.83500
     2007.81930        22.83744         9.57719
     2007.82203        21.39585        10.93529
     2007.82477        22.91025       156.27803
     2007.82751        19.55866         9.87586
     2007.83025        25.11206        10.02378
     2007.83299        33.04047        10.07591
     2007.83572        22.06787        10.09422
     2007.83846        21.68628         9.86318
     2007.84120        22.19468         9.38418
     2007.84394        18.77008         9.40531
     2007.84668        16.62649         9.15454
     2007.84941        17.84389         9.50393
     2007.85215        19.70330         9.76879
     2007.85489        23.89870         9.90262
     2007.85763        30.68111        10.06746
     2007.86036        28.47851         9.47716
     2007.86310        32.74092         8.68258
     2007.86584        20.05932         9.39545
     2007.86858        24.32073        10.08718
     2007.87132        24.28813         9.51238
     2007.87405        27.59954        10.15621
     2007.87679        24.46694         9.94771
     2007.87953        19.00535         9.16722
     2007.88227        13.49475         9.52647
     2007.88501        16.65216        10.05337
     2007.88774        16.03056        10.06323
     2007.89048        12.71297        10.29428
     2007.89322        12.76837        10.61972
     2007.89596        18.26178        10.11536
     2007.89869        17.06118         9.06860
     2007.90143        23.12659         9.58282
     2007.90417        21.36899         9.22780
     2007.90691        19.52440         9.58705
     2007.90965         8.53080         9.35177
     2007.91238        16.11121         9.78992
     2007.91512        12.04261         9.14045
     2007.91786        10.65202         9.16722
     2007.92060         8.77542         9.27711
     2007.92334        15.50383         9.24048
     2007.92607        18.18323         9.32501
     2007.92881        10.91264         8.64595
     2007.93155         9.41404         8.75866
     2007.93429         9.86845         9.02352
     2007.93702        14.05985         8.87277
     2007.93976        30.22626         9.38699
     2007.94250        36.40166         9.78992
     2007.94524        24.98907         9.50534
     2007.94798        33.24847         9.73779
     2007.95071        44.24188        10.12240
     2007.95345        45.72328        10.07732
     2007.95619        41.14869         9.47434
     2007.95893        47.00109         9.95616
     2007.96440        39.59490         9.50815
     2007.96608        44.84504        21.26197
     2007.97429        41.94514        21.49161
     2007.98467        47.40012        24.83898
     2007.98555        41.71970        17.05522
     2007.99575        27.41487        30.92932
     2008.00932        30.77466        19.59252
     2008.01095        31.05279        10.73383
     2008.01368        26.59319        17.24119
     2008.01748        12.21498       195.73215
     2008.02579        13.08709        20.69985
     2008.02613        11.99914        45.21198
     2008.03400        18.97320        23.03709
     2008.03555        24.25020        29.44020
     2008.05039         3.03662        22.64262
     2008.05201        -0.01314         9.52506
     2008.05475        -1.83173         9.05733
     2008.05749         0.27467         9.56873
     2008.06023         6.88508         9.45603
     2008.06297         8.74548        14.57569
     2008.06570        12.64588         9.21653
     2008.06844        16.81029        18.08930
     2008.07118        12.69258        19.30230
     2008.07392        18.45410        10.06746
     2008.07666        15.92750        11.13675
     2008.07939        12.05891        11.88625
     2008.08213        16.09631         9.06578
     2008.08487        10.85272         9.25316
     2008.08761         7.57112        11.46501
     2008.09034        11.77053        31.66755
     2008.09308        12.53593        14.70953
     2008.09582         9.31634        17.39616
     2008.09856        14.27774         9.17285
     2008.10130         5.10615         9.61945
     2008.10403        11.83155         9.41658
     2008.10677        10.08296         9.09396
     2008.10951        12.10836         9.72511
     2008.11225        18.23077         9.00943
     2008.11498        15.32617         8.96998
     2008.11772        -0.58142         9.13904
     2008.12046        18.42598         9.42503
     2008.12275        33.41688        12.19760
     2008.13806         8.47925        37.21972
     2008.13963         7.26582         9.13904
     2008.14236         5.35522        10.06323
     2008.14510         0.38263        10.09845
     2008.14784        -0.60697         9.66876
     2008.15058         2.72044         9.29401
     2008.15331         3.03984         9.76033
     2008.15605         0.97325         9.39545
     2008.15879         4.56365         9.31937
     2008.16153        -2.34694         9.17426
     2008.16427         0.01146         9.11087
     2008.16700         3.32187         9.12073
     2008.16974         2.16427         9.24329
     2008.17248        -9.08032         9.25597
     2008.17522       -10.74392         9.97307
     2008.17796         0.53249         8.90095
     2008.18069        -5.43611         9.38699
     2008.18343        -2.53070         9.05029
     2008.18617        -1.63630        10.05478
     2008.18891        -4.77389         9.35318
     2008.19164        -4.82949        10.42530
     2008.19438        -8.98408        10.08154
     2008.19712        -2.82268         9.56028
     2008.19986        -0.73027         9.54619
     2008.20260        -3.51887         9.65890
     2008.20533         1.82554        10.08154
     2008.20807         0.75894         9.88572
     2008.21081        -1.34365         9.91249
     2008.21355        -2.82325        10.01251
     2008.21629         0.56116         9.58705
     2008.21902        -2.93144         9.82937
     2008.22176        -6.15003         9.16722
     2008.22450        -5.37963         9.18553
     2008.22724        -0.33922        10.19143
     2008.22997        -8.48182        10.28864
     2008.23271        -2.70441         9.88854
     2008.23545         1.11599        10.41121
     2008.23819         0.26040        10.13226
     2008.24093        -2.22420         9.86881
     2008.24366        -2.09579         9.95052
     2008.24640        -3.37439        10.31823
     2008.24914         1.57702         9.36023
     2008.25188        -2.96858         9.40390
     2008.25462         6.18083         9.04183
     2008.25735         2.12323         9.33769
     2008.26009         1.80364         9.61804
     2008.26283       -10.06296         9.45462
     2008.26557        -0.77255         9.78287
     2008.26830         1.62485        10.27174
     2008.27104         1.38526        10.52673
     2008.27378        -8.29534         9.82091
     2008.27652        -3.15593         9.61663
     2008.27926         2.06247         9.74624
     2008.28199         2.90799         9.29683
     2008.28473         4.07628         9.61100
     2008.28747         0.85469         9.60818
     2008.29021         0.52009         9.32078
     2008.29295         5.61950         9.44898
     2008.29568        -6.81110         9.32923
     2008.29842       -11.93069        10.03646
     2008.30116        -8.50329         9.80823
     2008.30390        -7.58389         9.65890
     2008.30663        -2.81448        10.23370
     2008.30937        -3.42108        10.99587
     2008.31211        -4.18467        10.85076
     2008.31485        -1.38927         9.85472
     2008.31757        -4.91053         9.92517
     2008.32032       -11.46446        12.85693
     2008.32306        -0.67505         9.53633
     2008.32580        -5.13065         9.75470
     2008.32854        -0.38724         9.61382
     2008.33128         1.57816        10.00829
     2008.33401        -1.02643         9.85895
     2008.33675        -1.19303         9.68426
     2008.33949        -2.99062         9.33487
     2008.34223        -3.29822        10.26047
     2008.34496        -5.34081         9.42222
     2008.34770        -5.26441         9.35600
     2008.35044        -8.29600         9.87727
     2008.35318        -4.91060        10.29428
     2008.35592        -7.92119         9.93784
     2008.35865         2.31321         9.59832
     2008.36139         0.43162         9.50815
     2008.36413        -0.99198        10.12522
     2008.36687        -0.70957        10.27174
     2008.36961        -7.91417        10.40135
     2008.37234       -10.52476         9.91671
     2008.37508        -5.62636         9.78428
     2008.37782        -4.27995        10.10831
     2008.38056         0.44745         9.50815
     2008.38329        -1.95014         9.45744
     2008.38603         1.07626         9.33769
     2008.38877        -5.71933         9.74624
     2008.39151        -2.62193         9.65185
     2008.39425        -0.28152         9.13763
     2008.39698        -8.77312         9.38277
     2008.39972         2.82829         9.59127
     2008.40246         2.53769         9.26865
     2008.40520         4.72210         9.52929
     2008.40794         4.09350         9.32360
     2008.41067         3.07791         9.14468
     2008.41341         0.80731        10.08718
     2008.41615         1.29672         9.56592
     2008.41889         4.18512         9.61663
     2008.42162        -1.09947         9.73920
     2008.42436         0.83493         9.81809
     2008.42710         3.32734         9.82514
     2008.42984         0.43474        10.15339
     2008.43258         4.77915         9.83500
     2008.43531        -4.17045        10.07168
     2008.43805         2.50796        10.34922
     2008.44079        -0.25864         9.59127
     2008.44353        -9.00623         9.76456
     2008.44626         1.59017         9.55042
     2008.44900        -2.49442         9.83641
     2008.45174        -2.22602         9.96602
     2008.45448         0.49639         9.77865
     2008.45722        -1.55821         9.46871
     2008.45995        -0.33780         9.32923
     2008.46269        -0.45840         9.48843
     2008.46543         2.98701         9.59550
     2008.46817         6.82441         9.73216
     2008.47091        -3.68418         9.42644
     2008.47364        -5.34978         9.44194
     2008.47638         1.90963         9.51238
     2008.47912         4.28303         9.10382
     2008.48186        -3.06256         9.39545
     2008.48459         3.49684         9.93784
     2008.48733         2.33125         9.33205
     2008.49007         3.53965         9.45180
     2008.49281         3.94506         9.62790
     2008.49555         9.16646         9.44617
     2008.49828        -0.27813         9.15736
     2008.50102         8.08527         9.25457
     2008.50376         5.57468         9.07846
     2008.50650         1.94008         9.69975
     2008.50924         4.23449         9.21371
     2008.51197         1.12889         9.40390
     2008.51471         2.35530         9.38136
     2008.51745         7.59070         9.56169
     2008.52019         4.55610         9.78851
     2008.52292         4.19551         9.92376
     2008.52566         4.18791         9.79414
     2008.52840         3.69132         9.20667
     2008.53114         7.18872         9.46025
     2008.53388         5.47113         9.52788
     2008.53661         0.80453         9.47293
     2008.53935         6.12294         9.44617
     2008.54209         5.68434         9.33487
     2008.54483         9.07775         9.98011
     2008.54757        12.06115        10.15480
     2008.55030         8.43056         9.34332
     2008.55304         9.58896         9.27852
     2008.55578         7.89137         9.33205
     2008.55852         4.19277         9.35741
     2008.56125         7.47318         9.75892
     2008.56399         9.01658         9.40390
     2008.56673        14.96399         9.40249
     2008.56947        12.24539         9.47152
     2008.57221        10.33380         9.81105
     2008.57494        13.61220         9.44757
     2008.57768        10.67161         9.60254
     2008.58042         6.62901         9.21512
     2008.58316        14.99342         9.10523
     2008.58590        16.83382         9.34473
     2008.58863         9.58923         9.89840
     2008.59137         8.50463         9.43349
     2008.59411        12.36704         9.60959
     2008.59685        13.20144         9.57014
     2008.59958         5.82585         9.88290
     2008.60232        11.23225        10.04632
     2008.60506        15.84366         9.90403
     2008.60780         4.35506         9.72934
     2008.61054        10.54047         9.27570
     2008.61327        11.80587         9.68426
     2008.61601        14.70328         9.42222
     2008.61875         5.45268         9.30528
     2008.62149        10.06209         9.60677
     2008.62423         9.44149         9.48984
     2008.62696        13.23490         9.33628
     2008.62970        15.58330         9.78287
     2008.63244        11.54271         9.49125
     2008.63518        15.06811         9.39263
     2008.63791        14.00752         9.79274
     2008.64065        17.29992         9.51942
     2008.64339        12.89433         9.43489
     2008.64613        20.59373         9.48420
     2008.64887        13.05614         9.41376
     2008.65160        13.39654         9.41094
     2008.65434        12.56295        10.13649
     2008.65708        18.43135         9.79555
     2008.65982        18.13676         9.62931
     2008.66256        19.13916         9.71243
     2008.66529         8.09957         9.91530
     2008.66803        11.24197         9.70680
     2008.67077        11.67738         9.53210
     2008.67351        12.77978         9.70398
     2008.67624         8.53319        10.88739
     2008.67898        17.00659         9.58987
     2008.68172        13.18100         9.84345
     2008.68446         9.76440         9.70821
     2008.68720        16.15881         9.52788
     2008.68993        18.76421         9.43630
     2008.69267        17.28762        10.19989
     2008.69541        22.35902         9.76738
     2008.69815        19.27143         9.59973
     2008.70089        21.11383         9.71525
     2008.70362        14.82624         9.88290
     2008.70636        17.92164        10.10127
     2008.70910        11.28605        10.12663
     2008.71184        12.94945        10.26187
     2008.71457        14.71786         9.56169
     2008.71731        16.68826         9.61100
     2008.72005        23.64867         9.80119
     2008.72279        13.03007        10.30837
     2008.72553        17.91248        10.99728
     2008.72826        14.04788        10.72820
     2008.73100        13.97629        10.23933
     2008.73374        19.96369        10.45207
     2008.73648        16.89110         9.66453
     2008.73921        18.74750        10.67043
     2008.74469        22.65231         9.63072
     2008.74743        20.65372         9.58423
     2008.75017        22.62912         9.83077
     2008.75290        20.01053         9.56592
     2008.75564        20.23593         9.63072
     2008.75838        17.56433        10.98178
     2008.76112        18.45674        11.15930
