# ================= DQRFIT RESULTS ================
# INPUT FILE: series/AB53.rad
# OUTPUT: LDETRENDED
# FILTER FUNCTION: f(t)
# f(t)=+line(t)+annual(t)+jumps(t)
# line(t)=+P 1+P 2*t
# annual(t)=+P 3*sin(2*pi*t+P 4)
# jumps(t)=+P 5*heav(t-2011.8333  )+P 6*heav(t-2012.2297  )+P 7*heav(t-2013.0137  )
# heav(t)=(t<0?0:1)
# TOTAL OBSERVATIONS MTOT= 3624
# INITIAL TIME INTERVAL= 2021.6619 - 2011.5729 = 10.0890
# TOTAL OBSERVATIONS AFTER PREFILTER M= 3540
# TIME-SPAN= 2021.6619 - 2011.5729 = 10.0890
# OBSERVATIONS: USED M=  3540 REJECTED MTOT-M=    84 %USED=   97.6821
# N=  7 PARAMETERS
# MAXSIG= 175.00000
# MAXRES=  68.71123
# SCALE FACTOR FOR LENGTHS: SCL=  10.00000
# SCALE FACTOR FOR SIGMAS: SCLSIG=   1.00000
# CHI^2=  20533.298 DOF=  3533 CHI^2/DOF=   5.81186
# RMS=     14.387 SDEV=     14.377 MEAN=    0.57586
#  P #       PARAMETER +-    SIGMA %error PARAMETER NAME
# P 1 =    -27922.72313 +-  199.497   0.71 YZERO                              
# P 2 =        13.87235 +-    0.099   0.71 SLOPE                              
# P 3 =        11.92892 +-    0.326   2.73 ANNUAL AMPLITUDE                   
# P 4 =         1.62810 +-    0.002   0.14 ANNUAL PHASE                       
# P 5 =        42.38045 +-    2.009   4.74 OFFSET 2011.8333                   
# P 6 =       -51.63763 +-    1.595   3.09 OFFSET 2012.2297                   
# P 7 =        -5.07623 +-    0.979  19.28 OFFSET 2013.0137                   
#       T            LDETRENDED       SIG_OBS
     2011.57289       -22.53764        13.44492
     2011.57563        -5.85062        13.60403
     2011.57837        -6.79160        13.50037
     2011.58110       -12.33958        13.66912
     2011.58384        -3.73756        14.40923
     2011.58658        -1.83354        13.59439
     2011.59030       -22.15017        26.71867
     2011.59206        -4.97250        13.31474
     2011.59479        -3.06748        13.84029
     2011.59753        -6.25847        13.27375
     2011.60027         0.30255        13.36777
     2011.60400        -7.27614        27.83486
     2011.60574        -7.02841        13.40394
     2011.60848        -2.67139        13.56305
     2011.61122        -1.97437        13.77520
     2011.61396        -1.65335        13.37018
     2011.61670        -2.79233        13.40152
     2011.61943        -5.41531        13.26170
     2011.62217        -0.23029        13.82823
     2011.62491        -5.42127        13.24723
     2011.62765        -7.69025        13.13875
     2011.63039         1.28777        13.22313
     2011.63312         3.08779        13.39188
     2011.63586         2.61281        13.26170
     2011.63860        -4.00617        13.16527
     2011.64223       -13.72755        25.33488
     2011.64407        -8.92013        13.41840
     2011.64681        -3.57811        13.19179
     2011.64955        -2.47209        13.76073
     2011.65229        -4.33707        13.41117
     2011.65503        -7.30005        13.63537
     2011.65776        -3.68403        13.30750
     2011.66050        -3.57602        13.90538
     2011.66324        -0.67000        13.46179
     2011.66598         2.99102        13.54135
     2011.66872        -4.18396        13.62814
     2011.67145        -0.90894        13.29304
     2011.67419        -4.41792        13.35090
     2011.67693         0.41510        13.11946
     2011.68056       -23.90527        25.54462
     2011.68240        -8.32386        13.42081
     2011.68514       -12.24484        13.31715
     2011.68788        -4.26782        13.66430
     2011.69062        -5.45780        13.93913
     2011.69336        -3.09478        13.32920
     2011.69609        -2.80976        13.31715
     2011.69973        -0.91114        25.94240
     2011.70185        -3.87168        15.00951
     2011.70431        -7.66870        13.19420
     2011.70731        -4.11737        15.14934
     2011.70978        -3.14266        13.72457
     2011.71262         0.43397        13.78002
     2011.71526        -6.36662        13.39188
     2011.71800        -1.10060        14.16574
     2011.72073        -4.59658        13.54135
     2011.72347        -6.19357        13.43528
     2011.72625        -5.78214        13.62573
     2011.72894        -4.65639        13.31715
     2011.73169         3.10949        13.25929
     2011.73442        -0.56549        13.66671
     2011.73716        -0.20747        13.42563
     2011.73990        -4.11745        13.31956
     2011.74264        -0.05743        13.20625
     2011.74538        -6.20741        13.82100
     2011.74924       -11.15008        34.80202
     2011.75085        -5.16237        13.84270
     2011.75359        -5.27635        13.83305
     2011.75633        -6.01733        14.00422
     2011.75906       -10.52331        13.67635
     2011.76180       -12.81529        13.37260
     2011.76454        -9.73527        13.67876
     2011.76728        -3.19625        13.53171
     2011.77002        -7.18723        13.65948
     2011.77275         1.92579        13.38947
     2011.77649        -9.37004        28.49783
     2011.77823        -6.00117        13.57992
     2011.78097        -7.16315        13.44733
     2011.78371        -5.45713        13.54135
     2011.78644        -0.56511        13.17732
     2011.78918        11.92590        13.47385
     2011.79192        -3.80808        13.22554
     2011.79466        -8.79406        13.76073
     2011.79739        -2.58104        13.39911
     2011.80013        -0.75302        13.30268
     2011.80287         3.24200        13.37983
     2011.80561         3.36502        13.36295
     2011.80835        -0.86296        13.47385
     2011.81108        -5.72494        13.40876
     2011.81382       -13.08292        15.60016
     2011.81656         8.67010        13.49072
     2011.81930        19.45612        13.36054
     2011.82203        22.97214        13.56064
     2011.82477        26.79216        13.85234
     2011.82751        22.99618        13.91743
     2011.83025        17.64020        13.77278
     2011.83388        19.47382        25.02148
     2011.83634         7.28467        19.17775
     2011.83846        20.78926        13.78002
     2011.84120        17.38928        13.87163
     2011.84394        11.59630        13.53894
     2011.84729        -7.58019        19.46946
     2011.84941        -7.16466        13.68359
     2011.85274         2.37324        18.80890
     2011.85489        13.36437        13.89815
     2011.85763        16.98539        13.81618
     2011.86036        22.68741        13.83546
     2011.86310        40.85543        14.06449
     2011.86584        47.71645        14.05967
     2011.86858        44.37147        14.23807
     2011.87405        46.95951        14.07413
     2011.87953        40.70755        14.26699
     2011.88227        42.30757        13.80412
     2011.88583        31.92412        23.08804
     2011.89322        36.77565        14.28146
     2011.89960        52.86709        24.30307
     2011.90143        54.29371        13.80412
     2011.90417        62.12073        13.86198
     2011.90691        58.82175        13.85234
     2011.90965        60.21277        13.93190
     2011.91238        47.99779        14.42852
     2011.91512        44.40681        14.06449
     2011.91786        37.18482        14.22842
     2011.92060        34.59484        13.67876
     2011.92334        45.95886        14.56593
     2011.92607        37.92388        14.19226
     2011.92969        32.95270        27.11886
     2011.93155        29.01492        14.82630
     2011.93429        16.88794        14.60209
     2011.93702        24.79696        14.39477
     2011.94084        32.48608        31.87292
     2011.94250        20.95800        14.71781
     2011.94626        12.37878        27.92888
     2011.94798         9.68304        15.05291
     2011.95071         9.49406        14.32003
     2011.95346        11.42501        14.69370
     2011.95619        17.88210        14.52977
     2011.95893        24.26112        14.05244
     2011.96167        23.41314        13.91020
     2011.96440        46.47616        14.49120
     2011.96714        49.58618        14.00181
     2011.96988        43.58920        13.73662
     2011.97262        52.89922        14.36343
     2011.97535        38.01824        15.10112
     2011.97809        18.21426        14.55870
     2011.98083        34.83527        14.43816
     2011.98357        21.07129        15.01916
     2011.98631        29.43531        15.54230
     2011.98904        57.81733        15.12764
     2011.99178        44.35635        15.08666
     2011.99452        57.02437        15.00951
     2011.99726        45.19339        15.19756
     2012.00273        35.14943        15.82677
     2012.00547        44.86245        15.78096
     2012.00821        79.35547        14.93719
     2012.01095        41.79649        15.52542
     2012.01368        48.80451        15.11559
     2012.01642        68.25453        15.45551
     2012.01916        71.83455        14.91308
     2012.02190        64.78757        15.93043
     2012.02464        49.03259        16.54277
     2012.02737        66.60761        16.34027
     2012.03011        56.63363        16.31857
     2012.03285        63.50365        15.69418
     2012.03559        71.85767        15.00951
     2012.03833        61.77769        15.93525
     2012.04106        72.78171        15.37595
     2012.04380        58.15173        16.24383
     2012.04654        68.69774        15.34461
     2012.04928        69.40676        15.46756
     2012.05201        61.08378        15.30122
     2012.05475        86.49180        15.13729
     2012.05749        80.66982        15.72793
     2012.06122        68.71413        31.24129
     2012.06297        94.12186        15.53265
     2012.06570        83.63788        15.54712
     2012.06844        63.40390        15.41211
     2012.07118        68.39792        15.30122
     2012.07392        73.94494        15.80025
     2012.07666        70.50696        15.50372
     2012.07939        70.85298        15.55435
     2012.08213        82.71100        16.64643
     2012.08487        86.27802        15.80989
     2012.08761       104.03304        16.57652
     2012.09034       106.82606        16.06061
     2012.09308        82.01908        15.97624
     2012.09582        73.64210        15.48926
     2012.09940        75.69038        26.83439
     2012.10130        65.78014        15.94731
     2012.10403        75.44616        15.33256
     2012.10677        67.20518        15.06014
     2012.10951        51.36519        14.94201
     2012.11225        32.72521        15.07943
     2012.11772        30.05625        14.83353
     2012.12046        27.09327        15.31327
     2012.13141        24.19635        14.75638
     2012.13415        46.87437        15.06737
     2012.13689        69.69739        15.14934
     2012.13963        73.54141        15.62667
     2012.14290        86.20704        19.90340
     2012.14510        63.16345        15.04809
     2012.14784        61.40847        14.87451
     2012.15058        65.38949        14.94925
     2012.15331        66.97851        14.85281
     2012.15605        51.90453        15.24336
     2012.15879        58.58555        15.25300
     2012.16153        68.18257        14.87210
     2012.16427        52.86159        15.87016
     2012.16700        51.00961        15.45310
     2012.16974        38.17263        14.94683
     2012.17248        33.75265        14.83594
     2012.17522        40.06166        14.87451
     2012.17796        47.29768        15.05773
     2012.18069        58.35970        16.99118
     2012.18343        41.82772        15.16622
     2012.18617        73.46974        18.63292
     2012.18891        78.99376        14.87692
     2012.19164        93.83778        15.07461
     2012.19540       107.74362        32.63231
     2012.19813        97.32684        35.36855
     2012.19986       103.20484        15.05532
     2012.20260        90.95886        15.12282
     2012.20533        78.72288        14.64308
     2012.20807        76.55090        14.95648
     2012.21081        71.43092        14.92996
     2012.21355        72.91994        14.69852
     2012.21629        78.09796        15.39765
     2012.21902        76.09798        14.73710
     2012.22176        72.96900        15.12041
     2012.22450        52.71802        15.16863
     2012.22724        59.34604        15.16622
     2012.24188         8.38788        27.21770
     2012.24640        10.44917        14.58040
     2012.24914        21.01919        14.47673
     2012.25188        16.32721        14.40200
     2012.26557        18.92031        14.84799
     2012.26830        16.44733        14.27423
     2012.27104        -5.35565        14.30798
     2012.27378       -15.09863        13.95600
     2012.27652       -39.24361        13.37983
     2012.28019       -31.33258        23.36528
     2012.28199       -39.21957        13.00375
     2012.28473       -29.89155        12.96999
     2012.28747       -25.45553        12.87839
     2012.29059       -23.66985        14.86487
     2012.29295       -20.90249        13.10018
     2012.29568       -29.37247        13.14598
     2012.29842       -26.71345        12.93865
     2012.30116       -24.98443        12.91214
     2012.30390       -12.22842        12.97482
     2012.30663       -33.86440        12.84222
     2012.30937       -29.23038        13.04232
     2012.31211       -28.27436        14.26458
     2012.31485       -24.94734        13.33402
     2012.31759       -28.99932        12.72651
     2012.32032       -25.21230        13.21107
     2012.32306       -24.16128        12.76508
     2012.32580       -16.30826        12.78436
     2012.32854        -4.06424        13.03750
     2012.33128       -26.28022        13.03750
     2012.33483       -22.69254        19.57071
     2012.33675       -25.87118        12.77231
     2012.33949       -25.75816        12.84946
     2012.34223       -22.86014        12.81088
     2012.34529       -17.45867        14.38030
     2012.34770       -24.69610        13.07125
     2012.35044       -20.73408        13.15563
     2012.35318        -6.03906        12.87597
     2012.35592       -25.14804        12.89526
     2012.35865        -9.27202        12.89044
     2012.36139         2.03400        13.38224
     2012.36413        -2.10698        14.24530
     2012.36687         0.00903        14.29592
     2012.36961       -27.25895        13.18214
     2012.37234       -29.61893        12.91455
     2012.37629       -40.58065        37.59611
     2012.37782       -31.04389        12.91455
     2012.38056       -29.72087        13.15321
     2012.38329       -29.02485        13.16045
     2012.38603       -26.12483        13.08812
     2012.38877       -24.20681        13.35572
     2012.39151       -27.84979        13.04473
     2012.39425       -30.48877        13.07607
     2012.39698       -29.93675        13.12911
     2012.39972       -23.66273        12.94107
     2012.40246       -25.98871        12.66865
     2012.40520       -26.12969        12.64454
     2012.40794       -25.40167        12.94348
     2012.41067       -24.86265        12.73374
     2012.41341       -27.30363        12.86392
     2012.41615       -24.27361        12.72168
     2012.41928       -23.38107        14.79496
     2012.42162       -28.53957        12.77954
     2012.42456       -26.28726        13.68841
     2012.42710       -29.99553        12.98928
     2012.42984       -23.73352        12.83740
     2012.43258       -29.17350        12.89285
     2012.43531       -32.11848        12.72651
     2012.43805       -29.46146        12.95794
     2012.44079       -33.57344        12.81812
     2012.44353       -30.08442        13.01098
     2012.44626       -27.11440        12.99651
     2012.44900       -26.81038        12.87839
     2012.45174       -28.54936        12.73374
     2012.45448       -30.16634        12.91937
     2012.45722       -22.12432        13.00134
     2012.45995       -27.88530        13.79207
     2012.46269       -26.19728        12.86392
     2012.46543       -31.14826        13.14357
     2012.46817       -28.05224        12.78678
     2012.47091       -29.18122        12.76749
     2012.47364       -24.78120        12.79642
     2012.47638       -28.99618        12.85187
     2012.47912       -22.21016        12.68793
     2012.48186       -27.16514        12.74820
     2012.48459       -22.79312        12.97482
     2012.48733       -30.30010        12.94107
     2012.49007       -21.86008        12.85187
     2012.49281       -25.63606        12.83017
     2012.49555       -28.22405        12.86151
     2012.49830       -30.50322        12.81088
     2012.50102       -23.81501        12.87597
     2012.50376       -25.88599        13.47385
     2012.50650       -24.50997        12.73615
     2012.51032       -32.96005        32.35990
     2012.51197       -21.22793        13.38947
     2012.51471       -25.97991        12.77472
     2012.51745       -25.33589        12.90249
     2012.52019       -23.92987        13.18455
     2012.52292       -29.06185        12.83981
     2012.52566       -26.39383        12.75302
     2012.52840       -23.31681        12.94830
     2012.53114       -24.81479        12.86633
     2012.53388       -25.68477        13.01098
     2012.53661       -25.72575        16.17633
     2012.53935       -20.18973        13.71493
     2012.54209       -18.70171        13.21831
     2012.54483       -16.63069        12.82294
     2012.54757       -20.87767        12.93142
     2012.55030       -19.08265        12.91696
     2012.55304       -18.19063        12.85187
     2012.55578       -19.66861        12.77231
     2012.55852       -19.42360        13.14598
     2012.56125       -14.29358        12.77713
     2012.56399       -19.39956        12.91214
     2012.56673       -17.25654        12.96035
     2012.56947       -13.78852        12.83258
     2012.57266       -16.78883        15.80507
     2012.57494       -16.47648        12.84946
     2012.57768       -16.29846        12.95312
     2012.58042       -15.45044        12.91937
     2012.58316       -19.29442        12.84463
     2012.58590       -15.69640        12.87356
     2012.58863       -10.93038        12.80365
     2012.59137       -15.58936        13.18697
     2012.59411       -13.52134        12.83981
     2012.59685       -10.33332        13.07125
     2012.60049       -16.73383        23.94386
     2012.60232       -12.03728        13.40152
     2012.60506       -23.68126        12.79401
     2012.60780       -19.42824        12.85428
     2012.61054       -14.48222        12.81329
     2012.61327       -15.88020        12.79160
     2012.61729       -15.25586        60.94933
     2012.61875       -15.44216        12.99651
     2012.62237       -10.73834        23.02054
     2012.62515       -15.76092        30.91584
     2012.62696       -13.15011        13.17732
     2012.62970       -17.80809        13.35090
     2012.63244       -12.40607        13.04714
     2012.63518       -17.76105        12.84705
     2012.63791        -9.42703        12.85910
     2012.64065       -10.34001        12.86874
     2012.64339        -9.74799        12.80365
     2012.64613       -12.80397        12.80847
     2012.64887       -13.50195        12.96999
     2012.65160       -11.60893        12.89044
     2012.65434       -10.90091        12.92419
     2012.65708       -11.89489        13.32438
     2012.65982       -13.54787        13.21589
     2012.66256       -14.09585        12.76990
     2012.66529       -11.44783        12.72410
     2012.66803       -13.80081        13.05678
     2012.67077        -7.96479        13.08330
     2012.67392       -18.78644        17.86388
     2012.67624       -15.15175        13.05196
