# ================= DQRFIT RESULTS ================
# INPUT FILE: series/AIS6.rad
# OUTPUT: LDETRENDED
# FILTER FUNCTION: f(t)
# f(t)=+line(t)+annual(t)+jumps(t)
# line(t)=+P 1+P 2*t
# annual(t)=+P 3*sin(2*pi*t+P 4)
# jumps(t)=+P 5*heav(t-2012.8438  )
# heav(t)=(t<0?0:1)
# TOTAL OBSERVATIONS MTOT= 3873
# INITIAL TIME INTERVAL= 2020.4952 - 2008.1156 = 12.3795
# TOTAL OBSERVATIONS AFTER PREFILTER M= 3780
# TIME-SPAN= 2020.4952 - 2008.1156 = 12.3795
# OBSERVATIONS: USED M=  3780 REJECTED MTOT-M=    93 %USED=   97.5988
# N=  5 PARAMETERS
# MAXSIG= 175.00000
# MAXRES=  77.05425
# SCALE FACTOR FOR LENGTHS: SCL=  10.00000
# SCALE FACTOR FOR SIGMAS: SCLSIG=   1.00000
# CHI^2=   2995.451 DOF=  3775 CHI^2/DOF=   0.79350
# RMS=      6.370 SDEV=      6.371 MEAN=    0.06028
#  P #       PARAMETER +-    SIGMA %error PARAMETER NAME
# P 1 =     -1867.00566 +-   83.107   4.45 YZERO                              
# P 2 =         0.92919 +-    0.041   4.45 SLOPE                              
# P 3 =         4.23640 +-    0.116   2.74 ANNUAL AMPLITUDE                   
# P 4 =         2.97335 +-    0.038   1.28 ANNUAL PHASE                       
# P 5 =        -2.56617 +-    0.294  11.45 OFFSET 2012.8438                   
#       T            LDETRENDED       SIG_OBS
     2008.11563        -0.49148         9.58395
     2008.30984         3.34906        11.49914
     2008.32969         4.06762        13.38671
     2008.33065        -6.49027         6.96683
     2008.37056        -6.20936         8.95238
     2008.37178       -12.73049         6.72631
     2008.46940        -6.46820        16.16061
     2008.47091        -4.70560         5.10063
     2008.47364        -5.99114         5.04897
     2008.47594        -5.11828         6.27290
     2008.69057        13.87329        15.11928
     2008.81040         5.53195         5.02313
     2008.81587         4.82786         4.99017
     2008.81861         6.84231         4.95365
     2008.82135         2.96277         5.00799
     2008.82409        -2.72077         5.62976
     2008.82677         2.66174         5.18971
     2008.82956         5.61814         4.98750
     2008.83230         0.48259         5.51039
     2008.83504        13.63205         5.05342
     2008.83778         9.69851         5.03560
     2008.84052         5.72996         5.07925
     2008.84325        11.98242         5.17635
     2008.84599         6.35187         5.06856
     2008.84873         4.06833         5.02135
     2008.85147         2.22779         5.15675
     2008.85420         6.74424         5.01155
     2008.85694         6.09670         5.07480
     2008.85968        11.88915         4.99107
     2008.86242         2.00361         5.25028
     2008.86516         8.57607         5.07213
     2008.88980         1.27317         5.22089
     2008.89253         9.37863         5.09529
     2008.89527         6.30608         5.19773
     2008.89801        11.45654         5.13092
     2008.90075        -1.72101         5.07035
     2008.90896         3.00736         5.18437
     2008.91170         6.05282         5.05253
     2008.91444         6.66928         5.24138
     2008.91718        -2.10927         5.09885
     2008.92117         0.38802        18.52386
     2008.92265        -1.76536         5.22534
     2008.92539       -13.69490         5.43646
     2008.92781         6.90985         5.96202
     2008.93724         6.23508        12.13605
     2008.96646        -6.08906         5.00532
     2008.96919        -6.28360         4.88595
     2008.97193         1.63385         4.85656
     2008.97467        -5.01469         4.93049
     2008.97741        -4.89924         4.90644
     2008.98015         2.72622         4.93851
     2008.98288        -0.65832         4.99908
     2008.98562        -1.60887         4.99730
     2008.98836        -0.03641         4.97414
     2008.99110        -5.52496         5.16210
     2008.99384        -7.24950         5.19327
     2008.99657       -16.25404         5.53979
     2008.99846        -0.06679         8.61210
     2009.00609         4.45611        28.70375
     2009.00752        -9.13722         5.01957
     2009.01026        -1.44276         5.09796
     2009.01403        -7.94726         9.84228
     2009.01574        -1.68485         5.10687
     2009.01848        -4.44140         5.04808
     2009.02121        -6.50394         4.99107
     2009.02669        -9.96403         4.99463
     2009.02943       -12.15957         5.02759
     2009.03216        -8.56512         5.10954
     2009.03490        -9.96466         5.23603
     2009.03764        -6.81620         5.05431
     2009.04038        -4.14875         5.20307
     2009.04312       -10.64329         5.14606
     2009.04585        -5.02884         5.06678
     2009.04859        -7.61238         5.00621
     2009.05133       -13.57192         5.00977
     2009.05407        -8.72147         4.99552
     2009.05681        -5.88201         5.02759
     2009.05954        -9.10856         4.94474
     2009.06228       -11.38110         4.95900
     2009.06502       -12.79964         4.96078
     2009.06776       -13.10919         4.94385
     2009.07049       -14.90573         5.02402
     2009.07323        -6.59028         5.17991
     2009.07597        -2.98282         5.05787
     2009.07871        -6.56136         5.18882
     2009.08145         0.08009         5.23781
     2009.08418        -5.67145         5.05342
     2009.08692        -7.85600         5.13804
     2009.08966        -8.68754         5.14250
     2009.09245        -1.83914         6.42968
     2009.09519       -13.08068         6.25153
     2009.09787        -3.35917         5.14517
     2009.10061        -6.55072         5.10152
     2009.10341        -8.36931         6.20164
     2009.10609        -2.74380         5.11399
     2009.10882        -7.78335         4.98038
     2009.11156       -13.55589         5.03917
     2009.11430        -6.31944         5.07391
     2009.11704        -8.07898         5.01423
     2009.11978        -4.10252         4.99730
     2009.12251        -0.79707         4.96167
     2009.12525        -9.04561         4.94564
     2009.12799        -8.24616         4.94742
     2009.13073        -9.38270         5.02135
     2009.13347       -13.47524         5.00265
     2009.13620       -15.07979         5.00532
     2009.13894       -12.54933         5.01066
     2009.14168       -11.00687         5.09440
     2009.14442       -12.88342         4.98305
     2009.14715       -11.23396         5.07124
     2009.14989       -11.98151         5.08905
     2009.15263       -13.49905         4.94920
     2009.15537        -8.40659         5.00354
     2009.15811        -9.99714         5.04718
     2009.16084       -13.17468         4.96880
     2009.16358        -6.98723         5.02581
     2009.16632       -13.73377         5.10687
     2009.16906       -14.05931         5.25117
     2009.17180       -14.28986         5.02313
     2009.17453       -17.82640         5.04273
     2009.17727        -8.58395         5.18169
     2009.18001       -14.64949         5.04718
     2009.18275       -13.06103         4.91446
     2009.18548       -17.99258         5.61461
     2009.18822       -15.40412         4.95187
     2009.19096       -20.00267         5.11043
     2009.19370       -12.05121         4.98305
     2009.19644        -1.41975         5.01512
     2009.19917        -3.71230         4.97414
     2009.20191        -6.55584         5.03471
     2009.20465       -12.38739         5.02848
     2009.20739       -15.23193         5.09083
     2009.21013       -13.18147         5.13359
     2009.21286       -13.14002         4.98216
     2009.21560       -11.43656         5.07747
     2009.21834       -14.66611         5.02313
     2009.22108        -6.59265         5.05609
     2009.22381       -11.31219         5.03382
     2009.22659       -10.20277         5.07658
     2009.22929        -9.19428         4.98483
     2009.23203       -11.99783         5.00888
     2009.23477        -8.87937         5.08193
     2009.23750        -8.00491         4.95009
     2009.24024        -8.62846         5.03828
     2009.24298        -5.70400         5.01779
     2009.24572        -4.90955         4.96078
     2009.24846        -9.09809         5.03471
     2009.25119        -4.33463         5.08282
     2009.25393        -4.93118         5.08638
     2009.25667        -8.50272         5.00977
     2009.25941        -5.76327         5.08994
     2009.26214       -11.12281         5.02224
     2009.26488       -11.45435         5.14072
     2009.26762        -5.46790         5.05966
     2009.27036        -5.47044         4.99819
     2009.27310       -13.06299         4.96880
     2009.27583        -8.91853         5.07925
     2009.27857        -9.68207         5.15230
     2009.28131        -6.88562         5.02313
     2009.28405        -7.32716         5.02848
     2009.28679       -11.54071         5.03739
     2009.28952       -12.69325         5.09796
     2009.29226        -9.44379         5.21109
     2009.29500       -11.76034         5.21465
     2009.29774       -10.63488         5.09351
     2009.30047       -12.10843         5.23603
     2009.30321        -7.74097         5.12023
     2009.30595        -5.24051         5.07925
     2009.30869        -7.43406         5.10152
     2009.31143        -9.73460         5.13537
     2009.31416        -9.42215         5.09172
     2009.31690        -9.55369         5.09618
     2009.31964       -11.03723         5.06055
     2009.32238       -10.80678         5.07124
     2009.32466        -9.97490         7.05234
     2009.32785        -7.91687         5.20753
     2009.33059       -11.14641         5.03471
     2009.33333        -9.47295         5.04718
     2009.33607        -8.37950         5.07213
     2009.33880        -5.48104         5.08727
     2009.34154        -6.21859         4.99641
     2009.34428        -5.78313         5.11399
     2009.34702        -1.80867         5.08371
     2009.34976       -10.61122         5.06322
     2009.35249        -6.79076         5.02670
     2009.35523        -5.99931         5.04095
     2009.35797       -11.48885         5.30640
     2009.36071        -3.26939         5.17189
     2009.36344        -8.91894         5.05876
     2009.36618        -2.00648         5.06055
     2009.36892        -3.09203         5.06589
     2009.37166         0.46843         5.12201
     2009.37440        -9.73511         5.17902
     2009.37713        -7.32166         5.03828
     2009.37987        -7.40420         6.22569
     2009.38261        -5.22574         5.12646
     2009.38535        -3.14829         5.08994
     2009.38809        -3.80483         5.02046
     2009.39082       -10.19238         5.06233
     2009.39356        -9.98992         5.12646
     2009.39630        -7.61946         5.14072
     2009.39904        -2.63901         5.15230
     2009.40175        -2.58353         6.01458
     2009.40451        -2.09010         5.56206
     2009.40725         1.81836         5.13003
     2009.40999        -2.22418         5.05966
     2009.41273        -9.81673         5.13003
     2009.41546        -1.22527         5.08282
     2009.41820        -4.59682         5.62709
     2009.42093        -8.55735         5.35094
     2009.42368        -4.52791         5.12825
     2009.42642        -7.60045         5.37410
     2009.42915        -1.93199         5.19773
     2009.43189        -2.52954         5.19060
     2009.43463        -5.40108         5.15408
     2009.43737        -2.12562         5.19506
     2009.44010        -4.29517         5.09974
     2009.44282        -5.04469         5.49169
     2009.44558       -11.75326         6.41187
     2009.44832        -3.99480         5.48990
     2009.45106        -0.30734         5.75892
     2009.45379        -0.43889         5.48723
     2009.45653         1.20757         5.74645
     2009.45927        -2.91398         5.14962
     2009.46201        -1.66552         5.15675
     2009.46475       -14.81006         5.41419
     2009.46748        -6.42161         5.32066
     2009.47022        -1.84815         5.08727
     2009.47296        -0.78870         5.12557
     2009.47570         1.12176         5.11578
     2009.47843         1.02322         5.24227
     2009.48117         4.21367         5.17635
     2009.48391         0.57613         5.22089
     2009.48665         5.64958         5.34382
     2009.48939         0.25004         5.23069
     2009.49212         2.42050         5.20664
     2009.49486         2.35095         5.21287
     2009.49760        -2.41759         5.21732
     2009.50022        -0.83903         9.95541
     2009.50308         0.07132         5.12646
     2009.50581        -0.80422         5.18347
     2009.50855         0.35923         5.18526
     2009.51129         8.18369         5.13270
     2009.51403         5.21114         5.14606
     2009.51676         2.95360         5.07480
     2009.51950        -1.06994         5.21822
     2009.52224        -3.37849         5.13626
     2009.52498         4.32897         5.13270
     2009.52772         2.57542         5.10598
     2009.53045        -1.07412         5.12557
     2009.53319        -4.82866         5.15764
     2009.53593        -5.82021         5.13804
     2009.53867        -0.61975         5.13626
     2009.54141         1.55570         5.73665
     2009.54431         2.61100        16.72181
     2009.54688        -4.21038         5.17189
     2009.55047       -12.99672       100.89381
     2009.55236         4.66153         5.32867
     2009.55509         8.55398         5.23514
     2009.55783        15.04344         5.24939
     2009.56057         1.48690         5.47565
     2009.56331         5.73935         5.39994
     2009.56610        -4.67224        12.48613
     2009.56878        -9.71774         5.30284
     2009.57152         1.61472         5.29839
     2009.57426         4.69518         5.23959
     2009.57700         3.90963         5.27433
     2009.57974         5.19109         5.13359
     2009.58247         2.26954         5.31709
     2009.58521         9.46600         5.43824
     2009.58795        -1.81254         5.61640
     2009.59069         4.66691         5.92906
     2009.59348       -14.43568        17.29458
     2009.59575       -13.15080        25.07915
     2009.59890         5.83828         5.33402
     2009.60164         9.58074         5.39815
     2009.60438         5.87219         5.27344
     2009.60711         7.33665         5.33045
     2009.60985        11.11010         5.21822
     2009.61259         3.88956         5.20574
     2009.61533         2.21202         5.21465
     2009.61807         2.94347         5.21732
     2009.62080         6.04593         5.24939
     2009.62354         4.91539         5.19773
     2009.62628         6.77884         5.30729
     2009.62902        11.75830         5.31798
     2009.63175         7.71575         5.34916
     2009.63449         7.22421         5.35718
     2009.63723        -0.63933         5.52821
     2009.63997         3.21012         5.33402
     2009.64271         6.68658         5.33580
     2009.64544        12.11503         5.30106
     2009.64818        10.19749         5.57987
     2009.65092         9.72495         5.35451
     2009.65366         1.63440         5.34738
     2009.65639         2.29786         5.34293
     2009.65913         7.89631         5.33402
     2009.66187         0.78977         5.32066
     2009.66461         6.76023         5.26365
     2009.66735        13.38868         5.55315
     2009.66996        10.38225         5.38746
     2009.69047         0.77320        20.63769
     2009.69199         0.28779         5.41241
     2009.69472        10.47724         5.28413
     2009.69746         7.18370         5.25919
     2009.70020        13.59315         5.18971
     2009.70294        13.24561         5.15141
     2009.70568        12.53607         5.31531
     2009.70841         8.59152         5.67073
     2009.71115         5.65898         5.33313
     2009.71389        10.69443         5.39281
     2009.71663         5.93989         5.26721
     2009.71875         0.05192         7.08441
     2009.72331         3.28768        18.87750
     2009.72484         3.17726         5.75447
     2009.72758         5.93871         6.30854
     2009.73032         8.12617         5.73309
     2009.73305        12.06163         6.17492
     2009.73579        15.33308         7.09064
     2009.73855         6.05452         6.86973
     2009.74127         7.11499         5.77674
     2009.74400        10.44345         5.53801
     2009.74675         6.17690         7.36679
     2009.74948        -2.76464         6.14641
     2009.75222         2.12382         5.64401
     2009.75496         8.39527         5.14428
     2009.75770         3.60673         5.20040
     2009.76043         5.28119         5.20753
     2009.76317        -2.50336         5.34114
     2009.76591         3.93010         5.13003
     2009.76861         4.49959         5.32956
     2009.77264       -12.91116        22.49854
     2009.77412         6.86947         5.24049
     2009.77686         7.43992         5.16299
     2009.77960         8.26338         5.14784
     2009.78234         4.08283         5.11756
     2009.78507        16.08529         5.15497
     2009.78778         1.83977         5.52465
     2009.79055         2.86120         5.53266
     2009.79329         2.31366         5.37232
     2009.79603        -4.03489         5.36787
     2009.79876         9.63957         5.39815
     2009.80150         6.02203         5.46496
     2009.80424         5.35548         5.33936
     2009.80698         9.58694         5.47476
     2009.80971         8.42539         5.42042
     2009.81245         7.34985         5.47832
     2009.81519        13.04231         5.50327
     2009.81793         7.81676         5.60303
     2009.82067        14.01422         5.24761
     2009.82340         7.72168         5.42933
     2009.82616        12.86811         5.32066
     2009.82888         8.55959         5.40350
     2009.83162         7.83104         5.80791
     2009.83436         0.59850         5.26899
     2009.83709         3.43595         5.58076
     2009.83983         1.74641         5.27166
     2009.84257         8.56087         5.40172
     2009.84531         3.54832         5.39192
     2009.84804        12.88578         5.32333
     2009.85078        10.04023         5.22980
     2009.85352         6.97769         5.37232
     2009.85626        -2.52685         5.29393
     2009.85900        -0.44340         5.36787
     2009.86173         4.09306         5.26899
     2009.86447        10.84752         5.56651
     2009.86721         2.04697         5.47120
     2009.86995         7.87743         5.44358
     2009.87269         6.97788         5.43289
     2009.87542         5.49234         5.42042
     2009.87816        15.22480         5.50861
     2009.88090         6.26125         5.52643
     2009.88364        12.38671         5.28681
     2009.88637         1.54116         5.29304
     2009.88911         8.24162         5.16388
     2009.89185         8.57808         5.15942
     2009.89459         1.65153         5.22178
     2009.89733         2.70399         5.28948
     2009.90006         4.10544         5.14962
     2009.90280         1.40390         5.21465
     2009.90554        -0.26964         5.19684
     2009.90799         3.35408         5.91214
     2009.91449        -9.88096         9.41648
     2009.91647        -8.52080         6.31833
     2009.91923        -4.48636         6.13038
     2009.92197        -5.00491         5.14517
     2009.92470       -11.33445         5.00621
     2009.92744        -9.14900         4.97592
     2009.93018       -10.50154         5.01957
     2009.93292        -0.86208         4.97949
