# ================= DQRFIT RESULTS ================
# INPUT FILE: series/ANTE.rad
# OUTPUT: LDETRENDED
# FILTER FUNCTION: f(t)
# f(t)=+line(t)+annual(t)
# line(t)=+P 1+P 2*t
# annual(t)=+P 3*sin(2*pi*t+P 4)
# heav(t)=(t<0?0:1)
# TOTAL OBSERVATIONS MTOT=  769
# INITIAL TIME INTERVAL= 2018.5434 - 2004.1807 = 14.3627
# TOTAL OBSERVATIONS AFTER PREFILTER M=  767
# TIME-SPAN= 2018.5434 - 2004.1807 = 14.3627
# OBSERVATIONS: USED M=   767 REJECTED MTOT-M=     2 %USED=   99.7399
# N=  4 PARAMETERS
# MAXSIG= 175.00000
# MAXRES=  19.96724
# SCALE FACTOR FOR LENGTHS: SCL=  10.00000
# SCALE FACTOR FOR SIGMAS: SCLSIG=   1.00000
# CHI^2=    778.951 DOF=   763 CHI^2/DOF=   1.02091
# RMS=      5.846 SDEV=      5.850 MEAN=    0.01339
#  P #       PARAMETER +-    SIGMA %error PARAMETER NAME
# P 1 =     -1280.22815 +-   93.653   7.32 YZERO                              
# P 2 =         0.63637 +-    0.047   7.32 SLOPE                              
# P 3 =         1.90780 +-    0.344  18.02 ANNUAL AMPLITUDE                   
# P 4 =         2.69744 +-    0.240   8.90 ANNUAL PHASE                       
#       T            LDETRENDED       SIG_OBS
     2004.18070         4.05074         5.90780
     2004.18344        -4.60501         6.07452
     2004.18618        -1.49375         6.08462
     2004.18892        14.05551         6.13514
     2004.19165         6.16477         5.97449
     2004.19439        13.09603         5.91588
     2004.19713         4.06128         5.95630
     2004.19987        -0.67846         5.97954
     2004.20261         7.95080         5.96135
     2004.30938         6.84185         5.94822
     2004.31212         0.81911         5.86031
     2004.31486         2.94337         5.84314
     2004.31760         0.94862         5.91487
     2004.32033         8.76388         5.84920
     2004.32307         9.24814         6.01288
     2004.32581         5.84240         5.88254
     2004.32855         1.31065         5.91184
     2004.33128        -1.65709         5.86031
     2004.33402         5.68017         5.87648
     2004.33676         2.98143         6.05431
     2004.33950        11.43868         6.14929
     2004.34224        11.22094         6.17151
     2004.34497         5.36720         6.00682
     2004.34771         9.73146         6.01894
     2004.35045         7.38272         5.97449
     2004.35319         5.33497         6.18768
     2004.35593        15.16723         6.06037
     2004.35866        12.42549         6.04623
     2004.36140         8.95275         6.00177
     2004.36414         6.20500         5.98156
     2004.36688         4.00426         6.12908
     2004.36961        15.63052         5.99469
     2004.37235         5.17478         6.02299
     2004.37509         5.52704         6.01389
     2004.37783        -1.32571         5.83202
     2004.38057         1.66455         6.03915
     2004.38330         5.96881         6.09776
     2004.38604         6.51307         6.06946
     2004.38878         4.68532         5.87648
     2004.39152        14.49158         5.95529
     2004.39426        12.29484         5.82192
     2004.39699        10.00210         6.06946
     2004.57222         4.55759         5.80474
     2004.57495         1.18985         5.80171
     2004.57769         2.90111         5.83202
     2004.58043         6.66636         5.79059
     2004.58317         2.72262         5.85728
     2004.58590         1.92388         5.80373
     2004.58864         3.89314         5.89770
     2004.59138         7.03040         5.87345
     2004.59412         0.42065         5.90073
     2004.59686         2.32791         5.92498
     2004.59959         5.22617         5.84111
     2004.60233         3.25643         5.75826
     2004.60507         4.78568         5.78958
     2004.60781         3.21694         5.80878
     2004.61055         2.78120         5.81788
     2004.61328         0.19746         5.83707
     2004.61602         3.82371         5.90780
     2004.61876         0.70197         5.83505
     2004.62150         8.16223         5.94620
     2004.62423         3.17849         5.92599
     2004.62697        -1.61625         5.87547
     2004.62971         5.92300         5.80474
     2004.63245         5.24126         5.92498
     2004.63519        15.97152         5.96640
     2004.63792         8.11178         5.91184
     2004.64066         5.17903         5.85021
     2004.64340         9.41829         5.82394
     2004.64614         1.75555         5.90477
     2004.64888        -1.78019         5.89669
     2004.65161         5.88307         5.93811
     2004.65435         7.94132         5.77746
     2004.65709         3.60758         5.92599
     2004.65983         0.14684         5.91083
     2004.66256         0.31110         5.98459
     2004.66530         1.10735         5.88961
     2004.66804         1.18161         5.92599
     2004.67078         3.13587         5.97954
     2004.67352         9.96713         5.83404
     2004.67625         7.56638         5.94013
     2004.67899         1.98864         5.86435
     2004.68173         4.33690         5.81383
     2004.86243        -7.19709         5.74917
     2004.86517        -8.47683         5.72997
     2004.86790       -11.45157         5.69461
     2004.87064        -6.95532         5.70572
     2004.87338        -0.41206         5.67541
     2004.87612        -0.27880         5.70168
     2004.87885        -2.89154         5.75523
     2004.88159        -3.98229         5.86738
     2004.88433         1.00297         6.09877
     2004.88707         8.82723         5.82293
     2004.88981         4.19849         5.78958
     2004.89254         4.35974         5.84010
     2004.89528        10.33200         5.85930
     2004.89802        13.84726         5.93912
     2004.90076        15.91552         6.04117
     2004.90350        -1.93022         5.73300
     2004.90623       -13.48097         5.73199
     2004.90897         7.44629         5.74108
     2004.91171        12.80455         5.62489
     2004.91445         9.63881         5.55618
     2005.11704        -5.51312         5.71380
     2005.11978         0.53414         5.69966
     2005.12252         0.19840         5.68248
     2005.12526        -1.17835         5.71279
     2005.12799        -6.80009         5.75523
     2005.13073        -4.54883         5.83808
     2005.13347        -5.02357         5.73300
     2005.13621        -6.25532         5.92397
     2005.13895        -4.36506         5.71178
     2005.14168        -8.87480         5.69966
     2005.14442       -14.64154         5.73401
     2005.14990        -5.17003         5.77342
     2005.15264        -4.71577         5.76129
     2005.15537        -2.36351         5.80272
     2005.15811        -2.26425         5.93104
     2005.16085        -0.06000         5.86334
     2005.16359         0.49526         5.85324
     2005.16632        -4.93348         5.88254
     2005.16906        -0.18422         5.90881
     2005.17180        -3.18696         5.85627
     2005.17454        -4.14571         5.89366
     2005.17728        -2.55445         5.93811
     2005.18001        -6.27519         5.87648
     2005.18275        -8.32093         5.84314
     2005.18549        -6.38968         5.89871
     2005.18823        -4.18342         5.89163
     2005.19097        -4.03416         5.84516
     2005.19370        -3.36490         5.85728
     2005.19644        -6.96965         5.96539
     2005.19918        -0.82839         5.82697
     2005.20192         1.21187         6.15131
     2005.20465         3.65513         6.02905
     2005.20739        -0.12561         5.92700
     2005.21013         1.73264         6.10382
     2005.21287        -1.48810         5.90174
     2005.21561         5.27916         5.90578
     2005.21834        -1.26658         5.80979
     2005.22108        -0.37833         5.87446
     2005.22382       -10.60207         5.80777
     2005.22656        -5.84481         5.85930
     2005.22930         1.58145         5.88759
     2005.23203        -2.18029         5.84617
     2005.23477        -0.16004         5.90275
     2005.23751        14.47022         5.90275
     2005.24025         6.30248         6.03006
     2005.24298        -5.97726         5.88759
     2005.24572         0.61899         6.03208
     2005.24846         1.66425         5.81484
     2005.25120         3.02051         5.83808
     2005.25394         8.42077         6.13615
     2005.25941         9.13428         5.98156
     2005.26215         0.88354         5.98156
     2005.53868         6.25757         5.87446
     2005.54141         3.60782         5.83000
     2005.54415         4.72508         5.84920
     2005.54689         3.82834         5.82394
     2005.54963         1.32360         5.95731
     2005.55237         1.85986         5.94620
     2005.55510        10.76011         5.99267
     2005.55784        10.00637         5.95125
     2005.56058         2.79063         6.01389
     2005.56332        -6.59611         5.99975
     2005.56606        -0.27786         6.08967
     2005.56879         1.89740         6.13716
     2005.57153         4.89566         6.19475
     2005.57427         0.77792         6.11796
     2005.57701         0.13618         6.16141
     2005.57974         1.82643         6.18667
     2005.58248         6.75469         6.10988
     2005.58522         1.23495         6.00682
     2005.58796         8.87921         5.82091
     2005.59070         5.87646         5.88052
     2005.59343         2.01872         5.87446
     2005.59617         8.25298         5.85627
     2005.59891         4.93724         5.94316
     2005.60165         6.59349         5.94418
     2005.60439         5.99875         5.89467
     2005.60700         5.44209         6.29579
     2005.91650         4.52813         5.87446
     2005.91924         1.34639         5.94013
     2005.92198         8.41665         5.75624
     2005.92471        -2.60809         5.79767
     2005.92745        -6.03384         5.77948
     2005.93019         2.16542         5.84111
     2005.93293         3.25068         5.77140
     2005.93567         2.56994         5.78857
     2005.93840         1.49819         5.82697
     2005.94114         1.06145         5.81889
     2005.94388         6.40871         5.82091
     2005.94662         3.81397         5.76736
     2005.94935         2.54223         5.76432
     2005.95209        -2.54052         5.87446
     2005.95483        -2.31026         5.93508
     2005.95757         2.37700         5.84516
     2005.96031         7.22226         5.77039
     2005.96304        -9.03449         5.73401
     2005.96578        -2.99123         5.85425
     2005.96852        -3.44897         6.04218
     2005.97126        -1.51871         5.97550
     2005.97400         0.40354         5.96034
     2005.97673        -2.36420         5.97348
     2005.97947        -1.14194         5.83909
     2005.98221        -0.93968         5.83808
     2005.98495         3.91558         5.92094
     2005.98768        -2.74917         5.90679
     2005.99042        -1.77791         5.83505
     2005.99316         0.97435         5.88860
     2005.99590        -2.68239         5.89062
     2005.99864         1.99086         5.93104
     2006.00411        -2.37462         5.88254
     2006.00685       -12.59536         5.88153
     2006.00959       -10.80110         5.90275
     2006.01233        -6.46185         5.88355
     2006.01506       -11.08659         5.98560
     2006.01780         7.65867         5.93003
     2006.02054        -1.09507         6.01793
     2006.02328        -5.73782         6.05229
     2006.02601        -7.34356         6.09472
     2006.02875        -1.60330         5.94418
     2006.03149        -1.00604         6.03915
     2006.03423        -0.10179         5.93811
     2006.03697         6.47947         5.91790
     2006.03970         0.77673         5.91184
     2006.04244        -0.71901         5.86637
     2006.04518         2.27425         6.03814
     2006.04792        -2.26150         5.95327
     2006.05065       -10.39024         5.93710
     2006.05339        -8.53898         5.90780
     2006.05613        -1.48072         5.68551
     2006.05887        -1.80147         5.69764
     2006.06161        -3.48221         5.72997
     2006.06434         0.92705         5.88860
     2006.06708        -1.93169         5.59458
     2006.06982        -4.99743         5.64308
     2006.07256       -10.77018         5.66126
     2006.07530        -4.53592         5.66935
     2006.07803       -13.46966         5.65015
     2006.08077        -3.51540         5.68955
     2006.08351        -4.20815         5.70370
     2006.08625        -2.77389         5.71077
     2006.08898        -1.23663         5.72189
     2006.09172        -2.58037         5.69663
     2006.09446        -1.81812         5.85728
     2006.09720        -4.18786         5.74614
     2006.09994        -6.44860         5.70370
     2006.10267        -7.65534         5.70673
     2006.10541        -8.91108         5.69056
     2006.10815        -4.88983         5.80373
     2006.11089        -5.59557         6.01894
     2006.11363        -9.51331         5.78958
     2006.11636        -6.92305         5.77241
     2006.11910        -6.40180         5.74311
     2006.12184        -0.40954         5.77746
     2006.12458        -1.47128         5.80171
     2006.12731        -8.90802         5.70471
     2006.13005        -1.09376         5.75523
     2006.13279        -2.13351         5.71886
     2006.13553         3.89975         5.70875
     2006.13827         5.28101         5.72795
     2006.30528        -4.86927         5.79868
     2006.30801       -15.46101         5.85324
     2006.31075        -9.55576         5.86536
     2006.31349        -4.82650         5.95024
     2006.31623        -4.11824         5.80676
     2006.32170        -2.44272         5.89871
     2006.32444        -7.60047         5.84920
     2006.32718       -11.17021         5.94418
     2006.32992        -3.82195         5.74412
     2006.33265        -6.62469         5.78150
     2006.33539        -3.34944         5.77342
     2006.33813        -5.94018         5.81181
     2006.34087        -4.34092         5.82091
     2006.34361        -3.64766         5.77241
     2006.34634        -3.12440         5.74816
     2006.34908        -5.14615         6.00177
     2006.35182        -4.58389         5.91689
     2006.35456        -9.01163         5.81686
     2006.35729        -9.98937         5.85728
     2006.36003       -11.93212         5.83000
     2006.36277        -8.12086         5.78453
     2006.36551        -9.53860         5.78857
     2006.36825       -11.72434         5.77544
     2006.37098        -9.07709         6.01894
     2006.37372        -3.32583         5.99065
     2006.37646        -7.88757         5.85526
     2006.37920        -5.10631         5.95428
     2006.38193        -1.32005         5.94923
     2006.38467        -5.06080         5.95226
     2006.38741        -5.88754         6.13110
     2006.39015        -9.52328         5.90275
     2006.39289        -0.31302         5.91790
     2006.39562        -3.40877         6.10382
     2006.39836        -0.95451         6.11796
     2006.40110        -2.86425         5.92599
     2006.40384        -2.03699         5.94316
     2006.40658        -2.96773         5.91487
     2006.40931        -9.77748         5.93710
     2006.41205        -7.61822         5.92195
     2006.41479        -4.01296         5.91993
     2006.41726       -14.07053         6.68278
     2006.94867         2.91329         5.95529
     2006.95141         7.47855         6.03107
     2006.95415         3.85781         6.13918
     2006.95688        12.21807         5.98358
     2006.95962        10.17432         5.94822
     2006.96236        11.13858         5.96842
     2006.96510         8.64384         6.05532
     2006.96784         8.87310         6.03006
     2006.97057         3.98936         5.96944
     2006.97331       -17.29639         6.88284
     2006.97605         3.36287         6.00682
     2006.97879         1.69413         5.98358
     2006.98152         2.34539         6.01187
     2006.98426         3.57064         6.14423
     2006.98700         1.15890         6.23719
     2006.98974         0.95616         6.13312
     2006.99248        -0.59558         6.19779
     2006.99521         1.19068         6.14929
     2006.99795         7.36693         6.18667
     2007.00343         6.39345         6.19071
     2007.00616         7.86771         6.06239
     2007.00890         5.24296         6.09675
     2007.01164         2.57622         6.06239
     2007.01438         2.42348         5.93306
     2007.01712        -5.82826         5.97752
     2007.01985        -1.90001         5.92599
     2007.02259        -1.60375         5.93811
     2007.02533         3.60951         5.94620
     2007.02807         1.29877         6.01187
     2007.03081         4.39703         5.79565
     2007.03354        -2.24472         5.73603
     2007.03628        -1.83946         5.77645
     2007.03902        -1.92020         5.79868
     2007.04176        -2.24194         5.82293
     2007.04449        -1.54169         5.73502
     2007.04723        -5.67943         5.86435
     2007.04997        -1.31917         6.01389
     2007.05271         1.73509         6.06542
     2007.05545         3.28935         5.72896
     2007.05818        -0.29740         5.77443
     2007.06092         0.32486         5.81889
     2007.06366        -0.36588         5.70168
     2007.06640        -0.83762         5.77544
     2007.06914         0.75563         5.68450
     2007.07187         6.24289         5.66126
     2007.07461         5.58015         5.65217
     2007.07735         1.26541         5.67743
     2007.08009         4.30066         5.67642
     2007.08282         3.76592         5.67743
     2007.08556         6.27618         5.82596
     2007.08830         3.60944         5.82899
     2007.09104         4.95070         5.76028
     2007.09378         3.37395         5.72088
     2007.09651        -2.06279         5.65621
     2007.66051       -12.79470         6.25336
     2007.66325        -2.84844         6.19071
     2007.66599       -12.04018         6.22406
     2007.66872       -10.16593         6.18061
     2007.67146        -5.74167         6.03309
     2007.67420        -3.42141         6.13716
     2007.67694         4.25185         6.19981
     2007.67968        -5.31989         6.15232
     2007.68241        -1.31864         6.08462
     2007.68515        -0.22138         6.17455
     2007.68789         0.40688         6.13918
     2007.69063        -0.27486         6.14120
     2007.69337        -1.72161         6.11089
     2007.69610        -4.65035         6.19273
     2007.69884        -5.12909         6.15535
     2007.70158        -1.09683         6.17050
     2009.48392        -3.93706         5.81080
     2009.48666        -6.33980         5.83707
     2009.48940        -4.22254         5.86637
     2009.49213         1.06372         5.85930
     2009.49487        -3.99702         5.85021
     2009.49761        -3.80777         5.83909
     2009.50035         2.40949         5.90477
     2009.50308         3.62975         5.84819
     2009.50582        -3.55299         5.82596
     2009.50856        -5.31774         5.77443
     2009.51130        -1.36448         5.70875
     2009.51404         1.76478         5.69764
     2009.51677         2.29504         5.77847
     2009.51951         2.09830         5.74917
     2009.52225        -3.59345         5.75826
     2009.52499         0.21381         5.77140
     2009.52773         5.47307         5.91993
     2009.53046        -2.20067         5.84516
     2009.53320        -6.29242         5.72694
