# ================= DQRFIT RESULTS ================
# INPUT FILE: series/ASBU.rad
# OUTPUT: LDETRENDED
# FILTER FUNCTION: f(t)
# f(t)=+line(t)+annual(t)
# line(t)=+P 1+P 2*t
# annual(t)=+P 3*sin(2*pi*t+P 4)
# heav(t)=(t<0?0:1)
# TOTAL OBSERVATIONS MTOT= 3420
# INITIAL TIME INTERVAL= 2022.7488 - 2011.6304 = 11.1184
# TOTAL OBSERVATIONS AFTER PREFILTER M= 3413
# TIME-SPAN= 2022.7488 - 2011.6304 = 11.1184
# OBSERVATIONS: USED M=  3413 REJECTED MTOT-M=     7 %USED=   99.7953
# N=  4 PARAMETERS
# MAXSIG= 175.00000
# MAXRES=  30.60918
# SCALE FACTOR FOR LENGTHS: SCL=  10.00000
# SCALE FACTOR FOR SIGMAS: SCLSIG=   1.00000
# CHI^2=   4198.791 DOF=  3409 CHI^2/DOF=   1.23168
# RMS=      6.613 SDEV=      6.613 MEAN=    0.15042
#  P #       PARAMETER +-    SIGMA %error PARAMETER NAME
# P 1 =      2039.00605 +-   69.947   3.43 YZERO                              
# P 2 =        -1.01128 +-    0.035   3.43 SLOPE                              
# P 3 =         5.20890 +-    0.158   3.04 ANNUAL AMPLITUDE                   
# P 4 =         3.02533 +-    0.043   1.41 ANNUAL PHASE                       
#       T            LDETRENDED       SIG_OBS
     2011.63039         7.31875         6.83865
     2011.63312         8.23252         7.23041
     2011.63586         8.75529         6.86306
     2011.63860         4.04605         7.14607
     2011.64134         3.25082         7.18269
     2011.64407         9.66559         6.98847
     2011.64681        -7.66864         7.05839
     2011.64955         7.47013         7.16493
     2011.65229        -0.01510         7.01178
     2011.65503        -1.22033         6.96961
     2011.65776         1.01944         6.90635
     2011.66050         0.22520         7.22264
     2011.66324         1.72197         7.07393
     2011.66598         0.20574         6.93187
     2011.66872         1.06151         7.02954
     2011.67145         7.14428         6.90302
     2011.67419         8.43205         6.86417
     2011.67693        15.60682         7.24373
     2011.67967         5.37359         7.02066
     2011.68240        11.94835         7.03509
     2011.68514         5.15712         6.91523
     2011.68788        11.49189         6.96406
     2011.69062        11.02966         6.99069
     2011.69337        10.35845         6.91412
     2011.69609         3.10820         6.86195
     2011.69883         5.82097         6.93076
     2011.70157         6.32074         6.95407
     2011.70431        10.31850         6.95074
     2011.70705        -4.54573         7.09723
     2011.70978         7.98604         7.02288
     2011.71252        -2.30719         6.87194
     2011.71526        -4.91342         7.21265
     2011.71800         4.10935         7.00956
     2011.72073         3.80512         6.92299
     2011.72347         8.67989         6.85974
     2011.72621         8.41065         6.82866
     2011.72895        11.36042         6.73322
     2011.73169        19.67719         7.00068
     2011.73442         4.46996         6.89747
     2011.73716         8.38373         6.86306
     2011.73990        -3.98650         6.73988
     2011.74264         9.92627         6.82422
     2011.74538        13.61103         6.92299
     2011.74811        13.71280         6.85752
     2011.75085        10.51457         6.76873
     2011.75359         7.35934         6.72767
     2011.75633         4.24711         6.78538
     2011.75906        23.75088         6.91856
     2011.76180         9.42565         6.77206
     2011.76446         0.49634         7.13164
     2011.76728         2.47418         6.66441
     2011.77002         1.75395         6.87416
     2011.77275        17.08772         7.15716
     2011.77549        16.96149         6.96295
     2011.77823        -1.75674         6.76873
     2011.78097         2.91003         7.06172
     2011.78371         8.24280         6.81312
     2011.78644        17.23257         6.79093
     2011.78918        23.40233         6.96406
     2011.79192         3.99010         7.01400
     2011.79466         2.02187         7.00179
     2011.79739        10.87664         6.95074
     2011.80013         9.22341         6.71657
     2011.80287         2.97318         6.77539
     2011.80561         0.36995         6.95740
     2011.80835        -4.41028         6.93409
     2011.81108        13.11848         6.95629
     2011.81382        -2.36375         6.79315
     2011.81656        -0.07898         6.66885
     2011.81930         5.29679         6.94519
     2011.82203         7.55056         6.93298
     2011.86858        10.54863         6.83088
     2011.87132        -0.45660         6.71990
     2011.87405         1.06117         6.67995
     2011.87679        12.91193         6.85752
     2011.87953         5.22570         6.71324
     2011.88227         4.99647         6.73211
     2011.88501        11.32224         6.64665
     2011.88774         3.37301         6.72989
     2011.89048        14.75578         7.02399
     2011.89322         7.19355         6.81423
     2011.89596         2.62432         6.86639
     2011.89869         3.02908         6.99513
     2011.90023       -19.44936        21.35052
     2011.90306        -3.08750        17.96560
     2011.90691         0.08539         6.75652
     2011.90965        -4.61984         6.80424
     2011.91200        12.66754         8.56551
     2011.91404        -7.74940        15.99791
     2011.91786        -0.11353         7.04951
     2011.91969         0.29232        11.97596
     2011.92334        -5.56700         6.79204
     2011.92607        -1.74223         6.71990
     2011.92881        -0.39146         6.92077
     2011.93155         1.33431         6.96517
     2011.93429        -1.51992         6.85197
     2011.93702         7.12285         6.74432
     2011.93976        10.75562         6.64443
     2011.94250         6.91638         6.72323
     2011.94524         3.20815         6.52013
     2011.94798         7.44592         6.54011
     2011.95071         7.50069         6.68550
     2011.95345        10.41646         6.88082
     2011.95893         0.47100         6.72101
     2011.96167         0.56577         6.86750
     2011.96440         8.64753         6.67662
     2011.96714         7.86330         6.56120
     2011.96988         6.77907         6.52013
     2011.97262         1.89884         6.47796
     2011.97535        -1.33339         6.68550
     2011.97809         0.87338         6.63111
     2011.98073         5.98105         6.84198
     2011.98631         7.52768         6.76096
     2011.98904        16.43045         6.87305
     2011.99178        14.44522         6.86195
     2011.99452        11.82399         6.78316
     2011.99726        -6.82924         6.55898
     2012.00273        12.31630         6.78094
     2012.00547         3.37407         6.78316
     2012.00821         4.71083         6.61891
     2012.01095         9.83860         6.62446
     2012.01368         6.16737         6.56342
     2012.30870       -19.26929        10.25242
     2012.31211         8.99716         7.11166
     2012.31485         2.99293         6.87527
     2012.31759         4.14170         6.79648
     2012.32032        -3.91553         6.89858
     2012.32306        -9.83976         6.79204
     2012.32580        -8.79199         6.72767
     2012.32854         0.87278         6.83532
     2012.33128        -6.21245         6.73322
     2012.33401        -3.00369         6.84420
     2012.33675        -5.67592         6.91967
     2012.33949        -2.26815         6.61336
     2012.34223        -8.06538         6.72767
     2012.34496        -5.54461         6.75652
     2012.34770        -9.07184         6.80646
     2012.35019       -15.12733         7.48900
     2012.35318       -12.44830         6.88415
     2012.35592        -6.37554         6.63666
     2012.35865        -2.22577         6.56009
     2012.36139        -4.17600         6.72101
     2012.36413        -5.96623         6.68328
     2012.36687        -8.35546         6.73877
     2012.36961        -0.34269         6.63222
     2012.37234         1.21408         6.75430
     2012.37508         3.46485         6.59671
     2012.37711        -8.24410         9.41785
     2012.38056        -7.43662         6.57673
     2012.38278       -11.93637         8.63543
     2012.38603        -5.54908         6.84864
     2012.38877         5.21069         7.05617
     2012.39151       -11.47454         6.94408
     2012.39425         2.96023         6.78094
     2012.39698        -6.00101         7.04618
     2012.39972         0.81876         6.86085
     2012.40144       -24.35550        14.27881
     2012.40520        -5.41170         6.57895
     2012.40794        -7.83693         6.74321
     2012.41067        -4.47516         6.77761
     2012.41341        -7.08739         6.69215
     2012.41615        -4.21262         6.79093
     2012.41889         6.64314         6.86528
     2012.42162         4.59691         6.75319
     2012.42436         9.50268         6.85863
     2012.42710        -0.50955         6.81756
     2012.42984         3.64322         6.65442
     2012.43258        -4.31901         6.79315
     2012.43531        -2.21824         6.68217
     2012.43805        -4.73047         6.74986
     2012.44061       -10.39089         7.15494
     2012.44353       -10.15194         6.79426
     2012.44626        -4.59517         6.90191
     2012.44900        -8.20140         6.78871
     2012.45169        -2.37068         6.94408
     2012.45436        -3.99998         7.05839
     2012.45721        -4.34710         6.88193
     2012.45995         2.23968         7.06283
     2012.46269        -3.53356         6.69437
     2012.46543        -3.55979         6.58117
     2012.46817        -0.37002         6.72989
     2012.47091        -0.25025         6.88859
     2012.47364        -0.88848         6.77095
     2012.47638        -2.25971         6.85308
     2012.47844       -11.33663         9.58210
     2012.48186        -3.04517         6.83532
     2012.48364        -8.75237        13.08910
     2012.48733       -12.40964         6.71990
     2012.49007        -2.24687         6.86639
     2012.49281         1.43190         6.70103
     2012.49555         3.10667         6.80313
     2012.49828        -4.17556         6.93742
     2012.50102        -3.67979         6.84420
     2012.50376         0.93398         6.84087
     2012.50650         0.89474         6.68550
     2012.50924         6.55651         6.75763
     2012.51197        -3.07572         6.82422
     2012.51471        -1.32395         6.97959
     2012.51745         4.51682         7.02066
     2012.52019        -6.82041         7.18602
     2012.52292         0.23236         6.86972
     2012.52566         4.34113         6.82089
     2012.52840         6.10689         7.00068
     2012.53114        -1.85034         7.02621
     2012.53388         7.07043         6.94519
     2012.53661         7.07120         6.92521
     2012.53935         1.64997         6.79648
     2012.54209         4.21274         6.87971
     2012.54483         1.82351         6.68217
     2012.54757        -1.27572         6.95629
     2012.55030         3.38704         6.86639
     2012.55304         8.48681         6.86528
     2012.55578         5.78858         6.87416
     2012.55852        -5.20365         6.65442
     2012.56125         1.91612         6.73211
     2012.56399        -4.54411         6.73544
     2012.56673         1.70666         6.74099
     2012.56947        10.04343         6.73655
     2012.57221         2.80319         6.81090
     2012.57494        -4.98304         6.70214
     2012.57768        -1.38427         6.84753
     2012.58042        -1.62850         6.99291
     2012.58316        -5.58973         6.80203
     2012.58590        -0.83996         6.82977
     2012.58863         2.33281         6.65886
     2012.59137        -0.06742         6.75652
     2012.59411         3.57434         6.75208
     2012.59636       -10.16038         9.15815
     2012.59958         3.35688         6.88304
     2012.60232         2.68265         6.93298
     2012.60506         3.49042         6.75430
     2012.60780         3.15019         6.75430
     2012.61054         8.90996         6.71657
     2012.61327         3.17273         6.80868
     2012.61601         5.89449         6.78538
     2012.61875        13.30826         6.75985
     2012.62149        14.33603         6.89303
     2012.62423        10.19880         6.80203
     2012.62696        -0.89343         6.81645
     2012.62970         2.45434         6.86861
     2012.63244         6.45411         6.72101
     2012.63518        11.63488         6.85419
     2012.63791         2.82964         6.89636
     2012.64065         6.22641         6.76873
     2012.64339        10.81518         6.83088
     2012.64613        11.50395         6.78094
     2012.64887        10.36072         6.70658
     2012.65160         8.67649         6.81867
     2012.65434        -0.60974         7.11721
     2012.65708         5.90403         6.95851
     2012.65982         4.39179         6.97183
     2012.66256         9.49056         6.75652
     2012.66529        10.59433         6.82644
     2012.66803        -1.20990         6.74210
     2012.67077         7.32487         6.71102
     2012.67351        10.83364         6.82755
     2012.67624         5.00141         6.65775
     2012.67898        15.12218         6.69770
     2012.68172         8.96394         6.69992
     2012.68446         2.00571         6.79093
     2012.68720        12.65748         6.65442
     2012.68993        14.07225         6.66108
     2012.69267         6.40002         6.83976
     2012.69541        -1.21021         6.69992
     2012.69815        -1.45244         6.72545
     2012.70089        -0.74067         6.68660
     2012.70362         5.24809         6.75319
     2012.70636         9.48286         6.69992
     2012.70910        10.66563         6.75430
     2012.71184         4.49740         6.82755
     2012.71457         6.84217         6.60448
     2012.71731        13.54094         6.70436
     2012.72005        12.73271         6.67662
     2012.72279         6.19047         6.72434
     2012.72553         9.64324         6.66663
     2012.72826         7.75701         6.77650
     2012.73100         4.44678         6.78094
     2012.73374         2.99855         6.73433
     2012.73648         4.73132         6.50904
     2012.73921         8.03009         6.57673
     2012.74195        10.41386         6.61669
     2012.74469        12.67262         6.63444
     2012.74743        15.02939         6.62779
     2012.75017         6.27716         6.65553
     2012.75290         6.97493         6.80092
     2012.75564         0.09970         6.48462
     2012.75838         6.21547         6.72878
     2012.76112         9.12724         6.48018
     2012.76386         9.56401         6.60004
     2012.76659        11.12477         6.57340
     2012.76933         7.43354         6.63777
     2012.77207         6.63631         6.59671
     2012.77478        10.31105         6.57895
     2012.77742        10.46272         6.72545
     2012.78028        10.99662         6.62446
     2012.78302         9.92639         6.69992
     2012.78576        -0.19484         6.75874
     2012.78850        26.47992         6.71879
     2012.79123        29.44169         7.33029
     2012.79397        11.24746         6.71768
     2012.79671         6.12523         6.72434
     2012.79945        13.75700         6.95629
     2012.80219        23.81877         6.71102
     2012.80492         6.54454         6.52901
     2012.80766        13.62931         6.90302
     2012.81040         9.63207         6.71213
     2012.81314         3.37184         6.68439
     2012.81587        -3.94439         6.68660
     2012.81861         5.15838         6.80313
     2012.82135        19.95115         6.98847
     2012.82409        24.52092         6.96628
     2012.82683         6.25069         6.81978
     2012.82956         8.11946         6.73988
     2012.83230         7.08222         6.82422
     2012.83504        13.12299         6.91634
     2012.83778         7.74676         6.91856
     2012.84052         8.74753         6.80203
     2012.84325         2.03530         6.98625
     2012.84599         3.30807         6.89858
     2012.84873         2.79584         6.94852
     2012.85147         2.66461         7.13164
     2012.85420         5.51637         6.70880
     2012.85694       -17.85086         6.96406
     2012.85968        -8.07909         6.80313
     2012.86242        -2.79832         6.64665
     2012.86516        16.14545         6.74764
     2012.86789        10.98622         7.02621
     2012.87063        12.08499         6.74653
     2012.87337         5.01876         6.84087
     2012.87611         3.67452         6.78427
     2012.87885        11.61429         6.70880
     2012.88158         0.97106         6.63111
     2012.88432        11.58883         6.82422
     2012.88706        16.88260         7.07171
     2012.88980        24.27637         6.99846
     2012.89253         7.06314         6.70103
     2012.89527         4.87791         6.97405
     2012.89801        12.97267         6.96184
     2012.90075        19.12344         7.01622
     2012.90349         4.74521         6.70325
     2012.90622         8.94298         6.78871
     2012.90896        14.60775         7.09280
     2012.91170         4.27452         6.84975
     2012.91444        17.40429         6.97072
     2012.91718         8.41806         6.88526
     2012.91991        19.85382         6.87194
     2012.93086        -2.19810         6.91634
     2012.93360        -2.47733         6.70436
     2012.93634        -1.98756         6.72434
     2012.93908        -2.40879         6.73988
     2012.94182         5.42797         6.77539
     2012.94455        13.03374         6.72989
     2012.94729        10.04951         6.72989
     2012.95003         6.37028         6.64887
     2012.95277         7.79805         6.47685
     2012.95551         8.21882         6.44023
     2012.96098        17.09136         7.03287
     2012.96372         1.92712         6.63777
     2012.96646         7.57989         6.46242
     2012.96919         6.16666         6.69437
     2012.97193         3.58243         6.68993
     2012.97467         8.12820         6.74653
     2012.97741         2.60197         6.54788
     2012.98015        -4.27326         6.59560
     2012.98836         2.74704         6.60781
     2012.99110         1.00281         6.57118
     2012.99931        -1.43288         6.49905
     2013.00479        -0.47934         6.54677
     2013.01026         3.23719         6.68328
     2013.01300         5.43496         6.52457
     2013.01848         8.85450         6.86085
     2013.02121        12.60127         6.92854
     2013.02395         3.09904         6.86861
     2013.02669         4.65481         6.81201
     2013.02943        -3.63643         6.56120
     2013.03216        -7.00466         6.46242
     2013.03490        -2.14789         6.51347
     2013.03639        10.53362        28.80512
     2013.04038        -7.30435         6.61114
     2013.04312        -6.41658         7.07282
     2013.04585        -3.81981         6.94519
     2013.04859        -5.34505         6.87416
     2013.05133        -4.67128         6.80313
     2013.05407        -4.69351         6.74321
     2013.05681        -2.74174         6.60115
     2013.05954        -2.50997         6.77428
     2013.06228         1.78480         6.89525
     2013.06388        29.14241        17.15322
     2013.06776         1.82034         6.98403
     2013.07049        -1.01690         6.85752
     2013.07323        -0.81613         6.54677
     2013.07597        -5.31036         6.54122
