# ================= DQRFIT RESULTS ================
# INPUT FILE: series/ATLI.rad
# OUTPUT: LDETRENDED
# FILTER FUNCTION: f(t)
# f(t)=+line(t)+annual(t)
# line(t)=+P 1+P 2*t
# annual(t)=+P 3*sin(2*pi*t+P 4)
# heav(t)=(t<0?0:1)
# TOTAL OBSERVATIONS MTOT= 4009
# INITIAL TIME INTERVAL= 2022.7488 - 2011.7016 = 11.0472
# TOTAL OBSERVATIONS AFTER PREFILTER M= 4003
# TIME-SPAN= 2022.7488 - 2011.7016 = 11.0472
# OBSERVATIONS: USED M=  4003 REJECTED MTOT-M=     6 %USED=   99.8503
# N=  4 PARAMETERS
# MAXSIG= 175.00000
# MAXRES=  27.07053
# SCALE FACTOR FOR LENGTHS: SCL=  10.00000
# SCALE FACTOR FOR SIGMAS: SCLSIG=   1.00000
# CHI^2=   5731.779 DOF=  3999 CHI^2/DOF=   1.43330
# RMS=      6.753 SDEV=      6.754 MEAN=    0.00636
#  P #       PARAMETER +-    SIGMA %error PARAMETER NAME
# P 1 =    -20351.62742 +-   67.162   0.33 YZERO                              
# P 2 =        10.10602 +-    0.033   0.33 SLOPE                              
# P 3 =         6.52635 +-    0.149   2.29 ANNUAL AMPLITUDE                   
# P 4 =         2.79324 +-    0.030   1.09 ANNUAL PHASE                       
#       T            LDETRENDED       SIG_OBS
     2011.70157        14.50621         6.73907
     2011.70431        15.84554         6.71872
     2011.70705        14.63087         6.88274
     2011.70978        12.06320         7.91353
     2011.71252        16.76453         6.71154
     2011.71526         8.14486         6.79774
     2011.71800        21.81320         6.89711
     2011.72073        21.32853         6.75105
     2011.72347        27.39886         6.77379
     2011.72621        15.17219         6.73429
     2011.72895        24.02452         6.73309
     2011.73169        15.16485         6.75224
     2011.73442         7.66018         7.15570
     2011.73716        21.63651         6.85401
     2011.73990        12.56285         7.20479
     2011.74264        11.99318         6.77619
     2011.74538        10.14351         6.94739
     2011.74811        15.19184         6.80253
     2011.75085        10.12017         6.91506
     2011.75359         9.87150         6.78577
     2011.75633        13.57083         6.82527
     2011.75906        17.07416         7.23352
     2011.76180        12.67950         6.84203
     2011.76454        15.04883         6.96295
     2011.76728        12.73716         6.79175
     2011.77002         8.55749         6.99767
     2011.77275        18.36682         6.89471
     2011.77549        19.34515         6.75703
     2011.77823         9.17448         6.81689
     2011.78097         8.03681         6.79415
     2011.78371        10.78314         6.85999
     2011.78644         6.18648         6.80971
     2011.78918        14.90381         6.91267
     2011.79192        10.29814         6.76541
     2011.79466         6.85947         6.84323
     2011.79739        17.85580         6.92105
     2011.80013        15.05513         6.90429
     2011.80287        16.24846         6.83365
     2011.80561        11.17579         6.75224
     2011.80835        19.71413         6.82048
     2011.81108        13.25946         6.80372
     2011.81382        15.26679         8.23558
     2011.81656        20.44012         6.82886
     2011.81930        20.78445         6.77739
     2011.82203        11.51278         6.73189
     2011.82477        16.02611         6.78098
     2011.82751        23.15844         6.82288
     2011.83025         5.80178         6.85401
     2011.83299        11.04611         7.88241
     2011.83572         6.13844         7.02640
     2011.83846         0.74377         6.74506
     2011.84120         7.43910         6.82168
     2011.84394        14.23143         6.78098
     2011.84668        10.06376         6.72471
     2011.84941        17.85609         6.71752
     2011.85215        10.25243         6.85281
     2011.85489         5.06876         6.83725
     2011.85763        13.08709         6.92943
     2011.86036        12.79042         6.77739
     2011.86310        18.19175         6.66485
     2011.86584        19.27508         6.72591
     2011.86858        11.57341         6.73069
     2011.87132        11.10374         6.82048
     2011.87405         7.45908         6.75943
     2011.87679         6.04041         6.74267
     2011.87953        -2.10726         6.82767
     2011.88227        -1.61693         6.70675
     2011.88501         6.07840         6.77858
     2011.88774         7.65273         6.71513
     2011.89048         9.53506         6.78217
     2011.89322        14.05539         6.78577
     2011.89596        10.97672         6.68041
     2011.89869         9.84106         6.71752
     2011.90143         8.04039         6.71992
     2011.90417        10.35772         6.69598
     2011.90691         9.53505         6.71752
     2011.90965        23.55838         6.83485
     2011.91238         7.13871         7.02162
     2011.91512        18.53304         6.93422
     2011.91786         6.94337         6.86718
     2011.92060         6.48971         6.84682
     2011.92334         3.78104         6.90908
     2011.92607        20.96837         7.08028
     2011.92881         4.86470         6.83246
     2011.93109         4.48664         8.32537
     2011.93555         4.58163        28.41569
     2011.93702        13.40669         6.73907
     2011.93976         1.90902         6.70076
     2011.94250        -1.57364         6.72112
     2011.94524        12.82169         6.73309
     2011.94798        16.04502         6.69717
     2011.95071         5.21435         6.69478
     2011.95345         9.11568         6.89830
     2011.95619         7.88201         6.84682
     2011.95893         6.61934         6.69717
     2011.96167         5.47667         6.67443
     2011.96440        15.38001         6.70555
     2011.96714        12.24434         6.63133
     2011.96988        13.22667         6.65048
     2011.97262         7.19000         6.65527
     2011.97535         5.96433         6.72231
     2011.97809         0.29166         6.65766
     2011.98083         9.06299         6.58703
     2011.98357        10.38732         6.56668
     2011.98631        11.52266         6.56069
     2011.98904        11.35799         6.75105
     2011.99178         9.41032         6.67682
     2011.99452         8.57865         6.57147
     2011.99726        10.03898         6.57147
     2012.00273        14.90464         6.56309
     2012.00547         5.86797         6.60499
     2012.00821         0.88231         6.59541
     2012.01095         5.15164         6.58104
     2012.01368        -0.01603         6.55111
     2012.01642         7.06230         6.52358
     2012.01916         6.71563         6.60978
     2012.02190         5.24896         6.63971
     2012.02464        -3.46571         6.53675
     2012.02737        -3.93538         6.59541
     2012.03011         4.18995         6.58583
     2012.03285        -0.11871         6.58344
     2012.03559        -7.43338         6.61696
     2012.03833       -12.22305         6.61935
     2012.04106        -8.25472         6.60140
     2012.04380        -8.31639         6.57985
     2012.04654        -4.30606         6.58344
     2012.04928         1.76527         6.63133
     2012.05201         4.50960         6.60738
     2012.05475         4.87494         6.63252
     2012.05749         3.60927         6.97852
     2012.06023         8.57960         6.83246
     2012.06297         6.60293         6.63133
     2012.06570         4.26026         6.89232
     2012.06844        -0.82741         6.60020
     2012.07118         2.03792         6.56668
     2012.07392        -3.20575         6.62175
     2012.07666         3.57459         6.58823
     2012.07939         0.56392         6.62534
     2012.08213         5.31125         6.55949
     2012.08487         4.77558         6.60978
     2012.08761         6.47791         6.72112
     2012.09034        -4.83776         6.70076
     2012.09308         1.97357         6.70196
     2012.09582        -6.35810         6.60978
     2012.09856        -8.06476         6.53675
     2012.10130        -5.21443         6.74626
     2012.10403        -3.86710         6.61337
     2012.10677        -5.02877         6.67203
     2012.10951         1.76156         6.63971
     2012.11225        -4.82711         6.61576
     2012.11498         6.80022         6.63013
     2012.11772         3.91655         6.68281
     2012.12046         6.36489         6.66126
     2012.12320        -5.54278         7.58310
     2012.12594         3.01255         6.51759
     2012.12867        -4.84612         6.52238
     2012.13141        -6.02079         6.55710
     2012.13415        -0.12346         6.99528
     2012.13689         1.61587         6.67682
     2012.13963        16.28720         6.63731
     2012.14236         0.81453         6.62055
     2012.14510        -0.95313         6.54034
     2012.14784        -5.25980         6.51161
     2012.15058        -3.90747         6.59182
     2012.15331        -8.98314         6.53555
     2012.15605         0.81819         6.80133
     2012.15879        -0.76548         6.69837
     2012.16153        -2.96615         6.56069
     2012.16427        -0.02482         6.69957
     2012.16700         3.78652         6.67682
     2012.16974         1.36785         6.62773
     2012.17248         0.71718         6.58463
     2012.17522        -4.25049         6.57266
     2012.17796        -4.88616         6.59421
     2012.18069        -8.41883         8.19368
     2012.18343       -14.53850         6.92344
     2012.18617        -7.35217         8.47383
     2012.18891        -8.77183         6.59062
     2012.19164         6.51150         6.53914
     2012.19438         7.67583         6.85880
     2012.19712         7.21816         6.60499
     2012.19986         4.43949         6.59541
     2012.20260         1.32182         6.89591
     2012.20533         6.66515         6.80372
     2012.20807         0.18548         6.66245
     2012.21081        -0.21018         6.58463
     2012.21355         2.28115         6.59182
     2012.21629         1.84848         6.53555
     2012.21902         1.05281         6.48407
     2012.22176        -1.47986         6.60379
     2012.22450        -7.75853         6.55231
     2012.22724        -2.19120         6.59541
     2012.22997         1.07313         6.56548
     2012.23271         2.85947         6.51041
     2012.23545         0.01880         6.69837
     2012.23813         2.41370         6.92225
     2012.24093         7.97146         6.60978
     2012.24366         7.72479         6.58224
     2012.24640         1.62012         6.53555
     2012.24914         1.08345         6.54872
     2012.25188        -1.60722         6.58104
     2012.25462        -3.07888         6.57745
     2012.25735        -2.20455         6.59541
     2012.26009        -6.38222         6.98809
     2012.26283        -4.94989         6.53914
     2012.26557        -6.80856         6.81689
     2012.26830        -8.49823         6.57386
     2012.27104        -4.83190         6.73548
     2012.27378        -3.70457         6.56907
     2012.27652        -5.20624         6.54992
     2012.27926        -8.90090         6.71992
     2012.28199        -4.66557         6.77858
     2012.28473        -1.74824         6.56668
     2012.28747        -2.89991         6.55710
     2012.29021        -4.48258         6.48886
     2012.29295        -5.87325         6.54393
     2012.29568        -7.32192         6.48168
     2012.29842        -4.10459         6.51879
     2012.30116        -0.83725         6.55470
     2012.30390        -5.10492         6.55111
     2012.30663        -9.20159         6.65766
     2012.30937        -4.27526         6.76661
     2012.31211        -4.43293         7.46099
     2012.31485        -4.93560         6.90788
     2012.31759        -5.81127         6.55111
     2012.32032        -3.64994         6.75943
     2012.32306         0.13140         6.55710
     2012.32580        -3.52227         6.54034
     2012.32854        -2.57594         6.50562
     2012.33128        -1.44461         6.57745
     2012.33401        -3.41528         6.65168
     2012.33675        -3.84895         6.58344
     2012.33949        -2.00362         6.50083
     2012.34223        -8.14029         6.50083
     2012.34496        -6.59995         6.50921
     2012.34770        -6.17062         6.60738
     2012.35044         0.48671         6.58224
     2012.35318        -5.66196         6.94140
     2012.35592        -1.39463         6.53914
     2012.35865        12.33470         6.61097
     2012.36139        -3.25097         6.50682
     2012.36413        -4.54864         6.61457
     2012.36687        -1.95430         6.52477
     2012.36961        -5.23997         6.49125
     2012.37234        -7.74764         6.53555
     2012.37508       -12.04631         6.52837
     2012.37782        -7.14198         6.68161
     2012.38056        -7.13465         6.48168
     2012.38329        -4.58132         6.65288
     2012.38603        -4.19299         6.68640
     2012.38877        -8.56266         6.81210
     2012.39151        -4.69532         6.71992
     2012.39425        -7.81499         6.51639
     2012.39698        -8.21266         6.65766
     2012.39972        -2.50433         6.56907
     2012.40246        -5.97100         6.54393
     2012.40520        -4.43867         6.61457
     2012.40794        -0.86134         6.48646
     2012.41067         2.79999         6.50682
     2012.41341        -3.96767         6.50442
     2012.41615        -4.97434         6.53794
     2012.41889        -2.02901         6.71274
     2012.42162        -4.69168         6.77978
     2012.42436        -6.82335         7.00605
     2012.42710        -7.84402         6.65766
     2012.42984        -3.23469         6.57506
     2012.43258        -8.93936         6.55351
     2012.43531        -5.88802         6.63851
     2012.43805        -7.48169         6.52238
     2012.44079        -3.95036         6.54632
     2012.44353        -4.58403         6.71274
     2012.44626        -6.62870         6.63731
     2012.44900        -3.91737         6.53315
     2012.45174        -2.45904         6.54872
     2012.45448        -2.89671         6.51041
     2012.45722         3.71763         6.56668
     2012.45995        -3.61004         7.37719
     2012.46269        -1.86571         6.74985
     2012.46543        -9.64938         6.52837
     2012.46817        -6.03605         6.54632
     2012.47091        -5.79372         6.54752
     2012.47367        -6.13163         6.68041
     2012.47638        -8.43406         6.59421
     2012.47912        -2.46572         6.58344
     2012.48186         2.10661         6.57386
     2012.48459         1.46194         6.49604
     2012.48733         0.98327         6.61337
     2012.49007        -0.98440         6.60499
     2012.49281        -1.11607         6.59182
     2012.49555        -3.91974         6.89471
     2012.49828        -1.81741         6.50801
     2012.50102        -0.62007         6.64809
     2012.50376         1.85326         6.61816
     2012.50650        -1.84741         6.58104
     2012.50924        -1.99408         6.83844
     2012.51197         0.09025         6.72471
     2012.51471        -3.29942         6.53914
     2012.51745        -3.92109         6.58344
     2012.52019        -1.32576         7.30176
     2012.52292        -3.08943         6.82408
     2012.52566         2.41791         6.63133
     2012.52840        -1.66576         6.69717
     2012.53114        -3.97943         6.61097
     2012.53388        -6.82710         6.59421
     2012.53661        -5.64977        10.40253
     2012.53935        -3.52344         8.39122
     2012.54209         2.45389         6.94619
     2012.54483         3.62722         6.54154
     2012.54757         0.06256         6.57147
     2012.55030         3.77789         6.66365
     2012.55304         5.63122         6.63611
     2012.55578         0.18455         6.59062
     2012.55852         1.44388         6.58583
     2012.56125         1.92621         6.69837
     2012.56399         3.83754         6.57027
     2012.56673         5.75187         6.61457
     2012.56947         2.65921         6.68161
     2012.57221         4.00254         6.58224
     2012.57494         3.21187         6.52358
     2012.57768         3.99920         6.78098
     2012.58042         9.67753         6.56548
     2012.58316         0.27086         6.62654
     2012.58590         4.36619         6.72112
     2012.58863        18.70852         6.58463
     2012.59137         6.91086         6.53675
     2012.59411         9.77519         6.61816
     2012.59685        11.94152         6.59661
     2012.59958         7.55385         6.65527
     2012.60232         6.32118         6.80612
     2012.60506         2.04051         6.64689
     2012.60780         3.52984         6.56787
     2012.61054         2.81917         6.57147
     2012.61327         4.64251         6.56309
     2012.61601         8.33684         6.55590
     2012.61875         3.89517         6.53196
     2012.62149         4.70850         6.57985
     2012.62423         5.45383         6.63611
     2012.62696         3.74916         6.60499
     2012.62970        -4.74551         6.73069
     2012.63244         6.42482         6.74506
     2012.63518         7.62716         6.61217
     2012.63791         6.09949         6.64928
     2012.64065        10.50782         6.64450
     2012.64339        11.49815         6.63252
     2012.64613         1.05848         6.58823
     2012.64887         5.29681         6.54034
     2012.65160         9.24014         6.59062
     2012.65434         3.92447         6.60618
     2012.65708        16.96080         6.83365
     2012.65982         5.69714         6.80971
     2012.66256         6.03647         6.49245
     2012.66529         9.03180         6.57745
     2012.66803         5.12613         6.66006
     2012.67077        11.29146         6.81210
     2012.67351         6.92679         8.60672
     2012.67624        12.01312         6.81210
     2012.67898         5.22845         7.10303
     2012.68172         8.97479         6.83365
     2012.68446         4.87412         6.74267
     2012.68720         7.81245         6.68759
     2012.68993        11.62878         6.60259
     2012.69267         7.30211         6.73788
     2012.69541         4.91844         6.56069
     2012.69815        10.31977         6.78098
     2012.70089         7.40310         6.59302
     2012.70362        -1.60056         6.64689
     2012.70636         1.46977         6.58942
     2012.70910         7.56110         6.70795
     2012.71184        15.14343         6.77260
     2012.71457         6.14776         6.61217
     2012.71731         3.89609         6.67682
     2012.72005         1.70642         6.66964
     2012.72279         7.50175         6.59661
     2012.72553         8.77009         6.66006
     2012.72826        12.68242         6.86239
     2012.73100         8.62875         6.72112
     2012.73374         6.78708         6.68041
     2012.73648         8.98241         6.65048
     2012.73921         8.53974         6.76422
     2012.74195         7.65407         6.62654
     2012.74469         5.33940         6.55590
     2012.74743        25.01574         6.64330
     2012.75017         5.05807         7.85727
     2012.75290         0.93340         6.59421
     2012.75564        -0.83227         6.60259
     2012.75838        -3.10394         6.65766
     2012.76112        19.11839         6.63971
     2012.76386         3.99172         6.66964
     2012.76659         3.63505         6.60020
     2012.76933         1.02238         7.96262
     2012.77207        -6.05228         7.98058
     2012.77481         3.36105         6.63851
