# ================= DQRFIT RESULTS ================
# INPUT FILE: series/AXIS.rad
# OUTPUT: LDETRENDED
# FILTER FUNCTION: f(t)
# f(t)=+line(t)+annual(t)+jumps(t)
# line(t)=+P 1+P 2*t
# annual(t)=+P 3*sin(2*pi*t+P 4)
# jumps(t)=+P 5*heav(t-2010.7833  )+P 6*heav(t-2011.2992  )+P 7*heav(t-2011.5810  )+P 8*heav(t-2013.2429  )
# heav(t)=(t<0?0:1)
# TOTAL OBSERVATIONS MTOT= 2104
# INITIAL TIME INTERVAL= 2016.8622 - 2008.9528 =  7.9095
# TOTAL OBSERVATIONS AFTER PREFILTER M= 2100
# TIME-SPAN= 2016.8622 - 2008.9528 =  7.9095
# OBSERVATIONS: USED M=  2100 REJECTED MTOT-M=     4 %USED=   99.8099
# N=  8 PARAMETERS
# MAXSIG= 175.00000
# MAXRES=  32.71045
# SCALE FACTOR FOR LENGTHS: SCL=  10.00000
# SCALE FACTOR FOR SIGMAS: SCLSIG=   1.00000
# CHI^2=   2948.722 DOF=  2092 CHI^2/DOF=   1.40952
# RMS=      6.791 SDEV=      6.792 MEAN=    0.13867
#  P #       PARAMETER +-    SIGMA %error PARAMETER NAME
# P 1 =      1620.04848 +-  471.759  29.12 YZERO                              
# P 2 =        -0.79967 +-    0.235  29.35 SLOPE                              
# P 3 =         6.21442 +-    0.211   3.40 ANNUAL AMPLITUDE                   
# P 4 =        -2.66015 +-    0.042   1.58 ANNUAL PHASE                       
# P 5 =         1.27347 +-    0.652  51.22 OFFSET 2010.7833                   
# P 6 =        -6.07951 +-    0.941  15.47 OFFSET 2011.2992                   
# P 7 =         4.27806 +-    0.873  20.41 OFFSET 2011.5810                   
# P 8 =        -7.20572 +-    0.862  11.96 OFFSET 2013.2429                   
#       T            LDETRENDED       SIG_OBS
     2008.95277       -18.00526         6.38613
     2008.95551       -15.50707         6.34932
     2008.95824       -19.41488         6.40512
     2008.96098       -12.67969         6.53453
     2008.96372       -13.84550         6.42531
     2008.96646       -17.40631         6.54166
     2008.96919       -23.87012         6.43837
     2008.97193       -15.53493         6.45736
     2008.97467       -14.74274         6.44786
     2008.97741       -14.28055         6.49179
     2008.98927       -13.85107        11.72987
     2008.99110       -13.74961         6.62001
     2008.99384       -19.50442         6.66513
     2008.99657       -22.87223         6.35407
     2008.99931       -13.12204         6.50604
     2009.00479        -7.72266         6.58083
     2009.00752       -15.25447         6.38138
     2009.01026       -19.45328         6.47042
     2009.01300       -11.24909         6.42056
     2009.01545       -14.24113         7.51044
     2009.03564       -29.69998         9.53586
     2009.03764       -29.13839         6.47992
     2009.04038       -30.70320         6.47398
     2009.04312       -28.97101         6.44193
     2009.04859       -30.20163         6.42768
     2009.05133       -27.51444         6.43599
     2009.05407       -27.62725         6.53809
     2009.05681       -24.52306         6.47517
     2009.05932       -24.44906         7.23619
     2009.06228       -26.63168         6.44074
     2009.06502       -23.98649         6.46330
     2009.06776       -25.03430         6.45380
     2009.07049       -27.74212         6.63070
     2009.07323       -22.33893         6.48704
     2009.07597       -21.99874         6.41818
     2009.07871       -20.42255         6.49060
     2009.08145       -26.19336         6.46686
     2009.08418       -20.55717         6.73280
     2009.08692       -24.74598         7.25400
     2009.08966       -24.78679         6.41106
     2009.09240       -24.99060         6.39088
     2009.09514       -18.07141         6.56421
     2009.09787       -19.11822         6.41581
     2009.10061       -18.33603         6.38257
     2009.10335       -22.26884         6.39681
     2009.10609       -20.81065         6.38732
     2009.10882       -15.87646         6.66869
     2009.11162       -21.56923         6.50129
     2009.11430       -19.46009         6.50960
     2009.11704       -19.42990         6.53335
     2009.11978       -20.50971         6.55828
     2009.12251       -19.71552         6.36832
     2009.12525       -17.81333         6.69362
     2009.12799       -19.07714         6.66157
     2009.13073        -7.52295         6.42412
     2009.13347       -22.52376         6.39325
     2009.13620       -26.44457         6.86458
     2009.13894       -22.16338         6.41937
     2009.14168       -25.92819         6.48942
     2009.14442       -21.39000         6.36476
     2009.14715       -22.90681         6.59508
     2009.14984        -9.85667         6.76367
     2009.16738        26.50036        13.41692
     2009.16906        16.25070         6.61408
     2009.17180        10.13189         6.50485
     2009.17453         3.33208         6.75417
     2009.17727         7.34227         6.62239
     2009.18001        -0.03754         6.54284
     2009.18275         2.53765         6.69600
     2009.18548        -3.22416         6.47517
     2009.18822        -2.84797         6.46805
     2009.19096        -5.89778         6.56659
     2009.19364        -5.62964         6.59508
     2009.19644        -1.39640         6.50960
     2009.19917         2.54678         6.47042
     2009.20191         5.49297         6.78979
     2009.20459         0.19012         7.05810
     2009.20739         7.29235         6.76486
     2009.21013        -2.25846         7.30267
     2009.21286         3.28573         6.69718
     2009.21554         7.99488         6.91089
     2009.21828        -0.47694         7.19701
     2009.22108         4.80530         6.70431
     2009.22381        -0.46851         7.06879
     2009.22655        -2.33832         6.70312
     2009.22929         9.37887         6.66157
     2009.23203         1.43006         6.85865
     2009.23477         6.68325         6.54284
     2009.23750         3.30244         7.07947
     2009.24024         8.53163         6.86340
     2009.24298         7.90981         7.39172
     2009.24566         7.16696         7.12221
     2009.24846         5.61119         6.64257
     2009.25119         6.40938         6.70906
     2009.25393         5.54857         6.74586
     2009.25667        -0.45524         7.33948
     2009.25941        -2.57905         7.48551
     2009.26214         3.07114         7.25993
     2009.26488        -0.97867         7.30386
     2009.26762         3.73052         6.60695
     2009.27036         2.99971         6.59746
     2009.27310        -0.63310         6.59627
     2009.27583         4.21109         6.69600
     2009.27857        -0.99972         6.68887
     2009.28131         3.18147         6.79810
     2009.28405        -3.47634         6.68175
     2009.28679         2.90484         6.70193
     2009.28952        -1.84197         6.61645
     2009.29226         0.10422         6.83253
     2009.29500        -3.99359         6.67700
     2009.29768         0.47056         6.89189
     2009.30047        -3.58621         6.63663
     2009.30321         0.75198         6.59983
     2009.30595        11.48417         6.77435
     2009.30869         5.55836         6.64613
     2009.31143        -1.33545         6.56303
     2009.31416        -1.40526         6.57134
     2009.31690        -2.28207         6.76486
     2009.31964         0.87912         6.55828
     2009.32238         4.14831         6.52622
     2009.32512         0.53950         6.61645
     2009.32785        -1.13631         6.64138
     2009.33059        -5.88113         6.51910
     2009.33333         1.53706         6.51435
     2009.33607         4.34025         6.92869
     2009.33880         7.12644         6.73992
     2009.34149        -5.61541         6.78148
     2009.34422         8.04678         6.96312
     2009.34707         9.74406         6.97381
     2009.34976        -4.73380         6.51910
     2009.35247        -3.96063         6.54522
     2009.35523        -4.56442         6.52622
     2009.35797        14.67777         6.93107
     2009.36071         6.13896         6.99162
     2009.36344         1.43915         6.85509
     2009.36624         5.71938         7.22313
     2009.36892         3.99253         6.52266
     2009.37166        -3.47928         6.54878
     2009.37440        -7.87710         6.52622
     2009.37713         4.36009         6.95006
     2009.37987        -6.87572         6.96550
     2009.38261         0.65747         6.59983
     2009.38535        -0.87034         6.52978
     2009.38809        -1.03315         6.61764
     2009.39082        -7.79696         6.65207
     2009.39356        -7.60677         6.87883
     2009.39630        -1.28958         6.76011
     2009.39904         1.53561         6.92988
     2009.40177        -0.17520         6.83372
     2009.40451         7.01099         7.25756
     2009.40725        -6.75082         6.85509
     2009.40999         1.32737         7.12340
     2009.41273        -0.52944         6.72330
     2009.41546         9.70575         6.58440
     2009.41820         0.68293         6.55234
     2009.42094        -3.91588         6.53216
     2009.42368        -2.63769         6.66394
     2009.42642        -1.75050         6.85865
     2009.42915         3.67769         6.87646
     2009.43189         6.09388         6.63307
     2009.43463        -2.65193         6.62358
     2009.43737         4.19426         6.61526
     2009.44010         1.59445         6.65919
     2009.44284         3.74864         6.64020
     2009.44558        -4.79017         6.68531
     2009.44832         3.51802         6.64969
     2009.45106         4.43621         6.61645
     2009.45379         3.81540         6.64138
     2009.45653         0.78259         6.61526
     2009.45927        -1.43022         6.68056
     2009.46201         4.04996         6.69243
     2009.46475        -5.05685         6.86340
     2009.46686        10.37284         9.19987
     2009.47667         1.95469        13.17473
     2009.47843         8.61710         6.70075
     2009.48083        -2.82498         8.23703
     2009.48408        -1.31338         7.13052
     2009.48665        -2.53633         7.01061
     2009.48939         3.48186         6.99755
     2009.49212         6.81705         6.83846
     2009.49486         2.43524         6.85746
     2009.49733         2.56821         7.45464
     2009.50034         0.46162         6.98568
     2009.50193        16.54289        17.79663
     2009.50946         7.24591        11.47105
     2009.51123         9.54633         7.38222
     2009.51403         6.07056         6.61526
     2009.51676         1.09975         6.52622
     2009.51950         1.87294         6.58083
     2009.52224        -2.93387         6.82778
     2009.52498         1.60232         6.59033
     2009.52772         5.13551         6.76486
     2009.53045         9.36670         6.80285
     2009.53319        -1.66311         6.70668
     2009.53593         7.11608         6.57252
     2009.53867         9.01627         6.60577
     2009.54141         4.86246         6.83846
     2009.54414        -1.54135         6.80760
     2009.54688         9.01283         7.08778
     2009.54962         6.68202         6.56065
     2009.55236         4.67121         6.54997
     2009.55509        12.36140         6.58440
     2009.55783        13.32159         6.64732
     2009.56057         0.34978         6.96787
     2009.56331         4.55897         6.96669
     2009.56605         6.88716         6.81116
     2009.56878         1.31935         6.73992
     2009.57152         2.71054         6.72212
     2009.57426        15.44273         6.80047
     2009.57700         4.25092         6.82659
     2009.57974         6.50611         6.69481
     2009.58247         6.53830         6.85746
     2009.58521         5.38349         6.76011
     2009.58795         6.51668         6.73517
     2009.59069        12.33286         6.67225
     2009.59342        13.19405         6.78741
     2009.59616        11.97224         6.59389
     2009.59890        12.65943         6.78623
     2009.60164         6.02562         6.58202
     2009.60438         3.41781         6.65088
     2009.60711        10.97100         6.69243
     2009.60985        10.68619         6.77079
     2009.61259        10.59238         6.71499
     2009.61533         5.06357         6.80878
     2009.61807        12.32176         6.70193
     2009.62080        14.70095         6.60695
     2009.62354         5.16014         6.56659
     2009.62628         6.66733         6.56065
     2009.62902        10.53152         6.75417
     2009.63175        10.82071         6.73874
     2009.63449         8.08789         6.83965
     2009.63723         7.76008         7.12696
     2009.63997        -0.34773         6.74349
     2009.64271         5.19946         6.90732
     2009.64544         4.34565         7.14714
     2009.64818         5.99184         7.18870
     2009.65092        14.31803         6.77792
     2009.65366         4.81722         6.62832
     2009.65639         4.65441         6.55828
     2009.65913         0.81160         6.75061
     2009.66187         2.60379         9.59522
     2009.66461         2.21298         6.63426
     2009.66735        11.78617         6.83846
     2009.67008         6.73036         6.86933
     2009.67282         7.38455         6.98806
     2009.67556         8.88974         6.71499
     2009.67784        19.93556         8.24415
     2009.68469         4.08703        12.38522
     2009.68651        11.78849         6.50366
     2009.68925         9.24468         6.75773
     2009.69199         5.66487         7.12340
     2009.69472        -2.19194         6.73161
     2009.69746        10.26125         6.54878
     2009.70020        12.13244         6.68056
     2009.70294         7.83663         6.61883
     2009.70568         6.20682         6.61170
     2009.70841         3.21401         6.79454
     2009.71115         8.79620         7.06760
     2009.71389         7.81939         6.84677
     2009.71663         6.91058         6.77910
     2009.71937         6.30177         6.73636
     2009.72210        -2.67205         6.65563
     2009.72484         1.73914         6.70075
     2009.72758         1.20533         6.66038
     2009.73032         6.68852         6.52622
     2009.73305         5.86971         6.77198
     2009.73579         7.87490         6.76248
     2009.73853        10.90509         7.22669
     2009.74127         6.22328         6.96075
     2009.74401        20.80547         6.88358
     2009.74640        12.73039         7.43446
     2009.74960        13.81394         9.57860
     2009.75222        13.03204         6.89426
     2009.75496         5.67423         6.66988
     2009.75770        11.05842         6.61764
     2009.76043         9.39461         6.56421
     2009.76317         3.17880         6.70075
     2009.76591         8.58298         6.73043
     2009.76865        -0.61583         6.78148
     2009.77138        -1.45564         6.67819
     2009.77412         1.87755         6.79691
     2009.77686        -1.70426         6.60220
     2009.77954         5.01389         6.78385
     2009.78234         6.99712         6.78029
     2009.78507        15.96131         6.77673
     2009.78781         6.43850         6.77554
     2009.79055        -1.56231         7.06760
     2009.79329         5.12388         7.02249
     2009.79603         2.16707         8.57657
     2009.79848        15.11203         7.49500
     2009.80139         2.86736         7.22906
     2009.80424         7.89164         7.22669
     2009.80698         2.05083         7.77282
     2009.80971         7.27301         7.12577
     2009.81165        21.79657        11.85690
     2009.81821         5.79981         8.11474
     2009.82774        34.83643        15.22508
     2009.83055        22.08367        13.77547
     2009.83350        15.08903        11.95188
     2009.83634        -0.09270        11.04721
     2009.84000        -2.71377         9.02891
     2009.84202         4.29885         9.62371
     2009.84479         6.76307        10.17815
     2009.84736        23.50112        11.68000
     2009.85968        -9.51303        10.28025
     2009.86173         3.64261         8.09812
     2009.86447         4.70480         8.08150
     2009.86721         2.09299         7.11153
     2009.86995         2.41318         7.08303
     2009.87269         4.43837         6.98449
     2009.87508         1.16829         7.70040
     2009.87788        19.87052         7.83455
     2009.88050         0.62562         7.99364
     2009.88364        14.13613         7.17683
     2009.93566       -11.03027         7.09372
     2009.93839        -2.84709         6.80997
     2009.94113        -3.18790         6.62714
     2009.94387        -0.55971         6.82778
     2009.94661        -0.86652         6.77435
     2009.94935        -4.38433         6.62239
     2009.95208        -8.59914         6.64138
     2009.95482        -7.71195         6.94769
     2009.95756        -1.94076         6.69837
     2009.96030       -13.49257         6.71380
     2009.96577       -13.88819         6.65919
     2009.96851        -0.23300         6.77198
     2009.97125        -3.55281         6.72449
     2009.97399        -2.32362         6.72212
     2009.97672       -12.28943         6.57609
     2009.97946       -15.50724         6.62595
     2009.98220       -13.77606         6.58796
     2009.98494       -12.71187         6.51079
     2009.98767       -10.09168         6.57134
     2009.99041       -11.57949         6.57609
     2009.99315        -9.95630         6.59746
     2009.99589        -9.08711         6.55709
     2009.99863       -10.71492         6.75180
     2010.00684       -17.36335         6.54759
     2010.00958       -12.86516         6.58083
     2010.01232       -15.18897         6.68887
     2010.01505       -13.34178         6.58440
     2010.01779       -17.08459         6.53691
     2010.02053       -14.38140         6.57965
     2010.02287       -20.43753         8.26077
     2010.02692        -8.63230        10.17578
     2010.02874         1.02816         7.05692
     2010.03142         3.02231         6.72330
     2010.03422        -5.29846         6.70193
     2010.03696        -6.51727         6.99874
     2010.03969         2.48392         6.85627
     2010.04243        -3.27789         6.76011
     2010.04517        -3.14170         6.57490
     2010.04791         9.28149         7.13646
     2010.05065         6.45268         6.73517
     2010.05338         2.92587         6.87052
     2010.05612         7.82006         6.63663
     2010.05886         5.55525         6.66038
     2010.06160        -5.76656         6.70431
     2010.06433        -9.40837         6.54759
     2010.06707         7.97382         6.81828
     2010.06981        -2.77500         6.88595
     2010.07255       -10.92981         6.93107
     2010.07529        -8.59562         6.69481
     2010.07802       -12.04743         6.55709
     2010.08076        -3.79124         6.95481
     2010.08350        -3.63605         6.50723
     2010.08624        -3.12186         6.83134
     2010.08898         7.16833         6.73755
     2010.09166         4.17547         6.71855
     2010.09445         3.63871         6.67700
     2010.09719         3.73290         6.71380
     2010.09993        -5.00791         6.48467
     2010.10266        -3.58072         6.55946
     2010.10540        -0.10553         6.81591
     2010.10814         0.63066         6.88120
     2010.11088        -0.97715         6.77079
     2010.11362        -5.98797         6.59152
     2010.11635         1.55422         6.50960
     2010.11909         0.61541         6.94413
     2010.12183        -0.86140         6.84677
     2010.12457        -3.00421         6.51198
     2010.12731         3.27998         6.78029
     2010.13004       -12.28883         6.67819
