# ================= DQRFIT RESULTS ================
# INPUT FILE: series/BASQ.rad
# OUTPUT: LDETRENDED
# FILTER FUNCTION: f(t)
# f(t)=+line(t)+annual(t)
# line(t)=+P 1+P 2*t
# annual(t)=+P 3*sin(2*pi*t+P 4)
# heav(t)=(t<0?0:1)
# TOTAL OBSERVATIONS MTOT= 1100
# INITIAL TIME INTERVAL= 2022.7488 - 2019.6660 =  3.0828
# TOTAL OBSERVATIONS AFTER PREFILTER M= 1100
# TIME-SPAN= 2022.7488 - 2019.6660 =  3.0828
# OBSERVATIONS: USED M=  1100 REJECTED MTOT-M=     0 %USED=  100.0000
# N=  4 PARAMETERS
# MAXSIG= 175.00000
# MAXRES=  44.31947
# SCALE FACTOR FOR LENGTHS: SCL=  10.00000
# SCALE FACTOR FOR SIGMAS: SCLSIG=   1.00000
# CHI^2=    802.951 DOF=  1096 CHI^2/DOF=   0.73262
# RMS=      5.066 SDEV=      5.068 MEAN=    0.04153
#  P #       PARAMETER +-    SIGMA %error PARAMETER NAME
# P 1 =     -1224.66296 +-  339.111  27.69 YZERO                              
# P 2 =         0.60810 +-    0.168  27.59 SLOPE                              
# P 3 =         2.81448 +-    0.204   7.25 ANNUAL AMPLITUDE                   
# P 4 =        -3.12186 +-    0.102   3.28 ANNUAL PHASE                       
#       T            LDETRENDED       SIG_OBS
     2019.66598         0.95015         4.75470
     2019.66872         2.93748         4.72731
     2019.67145         5.54182         4.72560
     2019.67419         7.22115         4.78124
     2019.67693         1.14949         4.96869
     2019.67915        -2.35387         6.26628
     2019.68240        -1.25784         4.78124
     2019.68514         2.91149         4.84543
     2019.68788         7.51183         4.81890
     2019.69062         3.20616         4.81719
     2019.69336        -1.64150         4.75813
     2019.69609        -0.77417         4.61176
     2019.69883        -0.05283         4.69736
     2019.70157         2.91050         4.69907
     2019.70431         1.32084         4.69051
     2019.70705         0.26817         4.71362
     2019.70978        -0.68349         4.67425
     2019.71252         3.69484         4.66397
     2019.71526         6.21918         4.66825
     2019.71800         2.57151         4.87368
     2019.72073         1.53485         4.87197
     2019.72347         1.56518         4.65028
     2019.72621        -2.63248         4.65969
     2019.72895         1.25185         4.66055
     2019.73169         2.43619         4.65627
     2019.73442         6.76852         4.68024
     2019.73665       -14.47083         6.09081
     2019.73990         4.73919         4.88908
     2019.74264         2.66353         4.74614
     2019.74538         2.70786         4.62032
     2019.74811         3.21920         4.75128
     2019.75085         1.75953         4.77696
     2019.75359         0.31887         4.85228
     2019.75633        -5.52580         4.76155
     2019.75906         2.65554         4.63915
     2019.76180        -1.18213         4.61433
     2019.76454        -1.26079         4.65969
     2019.76728        -0.11846         4.76583
     2019.77002        -4.65712         4.73844
     2019.77275         0.02122         4.85998
     2019.77549         0.59655         4.75214
     2019.77823         2.14489         4.80520
     2019.78097         4.41322         4.77696
     2019.78371         0.64656         4.75984
     2019.78644         1.02989         4.83773
     2019.78918         0.65623         4.83088
     2019.79192        12.77156         4.86683
     2019.79466         8.17390         4.81205
     2019.79739         3.15123         4.78808
     2019.80013         5.34757         4.82917
     2019.80230         0.28725         6.44603
     2019.80561         1.51224         4.90021
     2019.80835        -1.42743         4.77953
     2019.81108         1.25091         4.76583
     2019.81382         3.18424         4.76412
     2019.81656         8.86758         4.81205
     2019.81930         3.74391         4.77439
     2019.82203         1.06925         4.78637
     2019.82477        -1.07242         4.77011
     2019.82751        -0.91508         4.69564
     2019.83025         1.05425         4.82489
     2019.83299         2.95659         4.88224
     2019.83572         1.18692         4.74614
     2019.83846         2.79326         4.71704
     2019.84120         2.54559         4.72303
     2019.84394         1.30593         4.85656
     2019.84668        -0.73774         4.68794
     2019.84941        -0.34940         4.68024
     2019.85215         2.86793         4.68109
     2019.85489        -0.53273         4.71447
     2019.85763        -0.22940         4.70420
     2019.86036         0.78994         4.72560
     2019.86310         3.15427         4.71533
     2019.86584         9.90261         4.81291
     2019.86858         4.80394         4.68366
     2019.87132         2.24928         4.76497
     2019.87405         1.05061         4.72475
     2019.87679         3.66395         4.82660
     2019.87953         6.95128         4.71191
     2019.88227        15.23962         4.77439
     2019.88501        13.34895         4.70164
     2019.88774         9.50129         4.83944
     2019.89048        10.94562         4.73502
     2019.89322         9.87196         4.69650
     2019.89596         5.44429         4.72903
     2019.89869        10.97163         4.74529
     2019.90143         8.41097         4.73587
     2019.90417         9.26730         4.78808
     2019.90691         5.45864         4.75641
     2019.90965         2.19697         4.76326
     2019.91238         5.98431         4.77525
     2019.91512         6.02164         4.80948
     2019.91786        -1.85202         4.85314
     2019.92060         0.46331         4.83174
     2019.92334         7.92065         4.80435
     2019.92607         5.37698         4.81462
     2019.92881         4.04432         4.78038
     2019.93155         4.70765         4.90449
     2019.93429         5.11999         4.82232
     2019.93702         2.69532         4.72988
     2019.93976         0.58566         4.82403
     2019.94250         2.01499         4.83602
     2019.94524        -2.23567         4.83944
     2019.94798         0.24366         4.79322
     2019.95071         8.50900         5.00121
     2019.95345         5.96633         4.78209
     2019.95619        -0.51133         4.80092
     2019.95893        -4.52900         4.72560
     2019.96167         0.08234         4.73930
     2019.96440         0.98967         4.85913
     2019.96714        -4.33799         4.85570
     2019.96988        -0.46466         4.77610
     2019.97262         5.50368         4.76412
     2019.97535         5.04201         4.79322
     2019.97809        -3.95665         4.72817
     2019.98083         1.89468         4.76669
     2019.98357        -0.44298         4.75470
     2019.98631         0.75335         4.78723
     2019.98904        -0.73531         4.79493
     2019.99178         0.79902         4.72389
     2019.99452        -1.37264         4.77268
     2019.99726         3.39069         4.77525
     2020.00000        13.98903         4.80863
     2020.00273         2.60736         4.85656
     2020.00547        -0.33630         4.95499
     2020.00821         1.01903         4.96954
     2020.01095        -1.61763         4.89593
     2020.01368        -5.71130         4.90192
     2020.01642        -1.53196         4.81719
     2020.01916        -1.94763         4.81205
     2020.02190        -2.30629         4.89336
     2020.02464        -5.63496         4.85314
     2020.02737        -5.39062         4.80777
     2020.03011        -3.22029         4.79322
     2020.03285        -6.92295         4.80092
     2020.03559        -3.25561         4.61262
     2020.03833        -1.37928         4.60663
     2020.04106        -1.00594         4.78380
     2020.04380        -4.75461         4.77696
     2020.04654        -1.85627         4.68024
     2020.04928        -5.22394         4.61262
     2020.05201        -1.45060         4.65028
     2020.05475         0.92073         4.61262
     2020.05749        -5.53893         4.64086
     2020.06023         0.32940         4.65798
     2020.06297        -6.53526         4.68195
     2020.06570         1.59907         4.60491
     2020.06844        -1.54159         4.68366
     2020.07118         2.63274         4.71447
     2020.07392        -0.53492         4.68794
     2020.07666        -4.61059         4.66226
     2020.07939        -1.69525         4.62717
     2020.08213        -0.21992         4.68623
     2020.08487         0.00142         4.68195
     2020.08761         1.01375         4.69736
     2020.09034         3.58709         4.68880
     2020.09308         1.86842         4.69992
     2020.09582         1.75976         4.68195
     2020.09856        -8.36391         4.68280
     2020.10130        -5.00057         4.73930
     2020.10403         1.17176         4.77953
     2020.10677        -2.69190         4.69308
     2020.10951        -5.08257         4.66740
     2020.11225        -5.43523         4.62203
     2020.11498        -0.07590         4.69650
     2020.11772        -2.42056         4.79750
     2020.12046        -2.71723         4.84372
     2020.12320        -5.70789         4.68794
     2020.12594        -7.36156         4.70677
     2020.12867        -7.19122         4.70164
     2020.13141        -4.20289         4.70591
     2020.13415        -2.41955         4.68537
     2020.13689        -2.38622         4.76497
     2020.13963        -0.47488         4.75556
     2020.14236        -2.01755         4.70335
     2020.14510         4.89479         4.78295
     2020.14784        -2.89888         4.79408
     2020.15058        -4.68254         4.75727
     2020.15331        -8.51721         4.75556
     2020.15605        -6.81787         4.69479
     2020.15879        -1.66854         4.69650
     2020.16153         0.65580         4.77439
     2020.16427         0.71014         4.71019
     2020.16700         1.05047         4.72303
     2020.16974        -0.00819         4.71447
     2020.17248         0.18314         4.69479
     2020.17522         0.67248         4.59636
     2020.17796         4.78181         4.68537
     2020.18069         3.20515         4.63145
     2020.18343        -0.65252         4.60491
     2020.18617        -4.35718         4.64429
     2020.18891        -1.85485         4.73930
     2020.19164        -0.62151         4.76497
     2020.19438        -1.92018         4.73330
     2020.19712        -2.48084         4.75214
     2020.19986        -3.02551         4.80435
     2020.20260        -0.35517         4.71704
     2020.20533        -4.03684         4.74443
     2020.20807        -0.49950         4.76925
     2020.21081        -2.64217         4.73502
     2020.21355        -0.62183         5.10906
     2020.21629        -3.79150         4.93958
     2020.21902        -3.21216         4.80777
     2020.22176        -1.18983         4.70249
     2020.22450         1.25751         4.80178
     2020.22724        -0.63216         4.75641
     2020.22997         0.75618         4.72303
     2020.23271         0.88851         4.70934
     2020.23545         0.99285         4.83944
     2020.23819         0.49918         4.74786
     2020.24093        -1.34248         4.71105
     2020.24366        -2.87515         4.68708
     2020.24640        -3.93081         4.78894
     2020.24914       -11.52448         4.74015
     2020.25188        -1.24614         4.79322
     2020.25462        -2.76181         4.75128
     2020.25735         1.92753         4.73930
     2020.26009         7.59786         4.78637
     2020.26283         3.15920         4.73587
     2020.26557        -2.86747         4.65884
     2020.26830        -1.14113         4.78637
     2020.27104         0.00620         4.71790
     2020.27378        -3.00646         4.71790
     2020.27652         0.27187         4.73758
     2020.27926         4.87621         4.75984
     2020.28199        -2.76646         4.79408
     2020.28473        -4.33112         4.76669
     2020.28747        -3.62579         4.79836
     2020.29021        -0.53045         4.75299
     2020.29295        -2.25411         4.74358
     2020.29568         4.55722         4.74957
     2020.29842         2.47356         4.79236
     2020.30116         4.41989         4.77610
     2020.30390         2.18923         4.75727
     2020.30663         0.45356         4.73502
     2020.30937        -1.82810         4.90107
     2020.31211        -2.05677         4.82575
     2020.31485         1.01457         4.77525
     2020.31759        -0.55910         4.69992
     2020.32032        -4.99776         4.66055
     2020.32306        -4.01943         4.65456
     2020.32580        -3.11509         4.61861
     2020.32854        -2.83176         4.79921
     2020.33128        -1.20342         4.67510
     2020.33401        -0.63509         4.65028
     2020.33675         2.86925         4.64258
     2020.33949        -1.49542         4.64771
     2020.34223        -1.87708         4.73502
     2020.34496        -5.59975         4.81291
     2020.34770        -5.28641         4.63830
     2020.35044        -2.49608         4.71019
     2020.35318        -8.23174         4.73159
     2020.35592        -1.49841         4.70164
     2020.35865        -2.15707         4.61519
     2020.36139        -0.43174         4.78637
     2020.36413        -1.86040         4.64600
     2020.36687        -6.40007         4.70763
     2020.36961         0.75427         4.72817
     2020.37234         0.27360         4.62974
     2020.37508         1.45994         4.73844
     2020.37782         0.18927         4.74957
     2020.38056        -4.90639         4.66397
     2020.38329        -4.88006         4.66740
     2020.38603        -2.21572         4.66825
     2020.38877        -2.72639         4.79921
     2020.39151        -3.72905         4.67681
     2020.39425        -5.21172         4.70506
     2020.39698        -3.17238         4.69479
     2020.39972        -1.65505         4.69051
     2020.40246        -1.63171         4.64857
     2020.40520        -1.32638         4.75299
     2020.40794       -11.32404         4.82318
     2020.41067        -3.96471         4.75727
     2020.41341         0.23763         4.73330
     2020.41615        -3.94804         4.66654
     2020.41889        -5.89370         4.68280
     2020.42162        -6.48437         4.73758
     2020.42436         0.29297         4.87282
     2020.42710         0.82331         4.99008
     2020.42984        -0.26736         4.84629
     2020.43258        -0.03402         4.81034
     2020.43531        -6.90469         4.73245
     2020.43805        -5.85135         4.78038
     2020.44079        -2.94002         4.79322
     2020.44353        -0.67268         4.80520
     2020.44626        -2.48035         4.68623
     2020.44900        -5.95201         4.77353
     2020.45174        -1.60768         4.76754
     2020.45448        -4.79734         4.76412
     2020.45722        -1.93301         4.71276
     2020.45995         0.37733         4.71961
     2020.46269        -9.06534         4.66997
     2020.46543        -5.99100         4.68794
     2020.46817        -0.76267         4.73673
     2020.47091         4.10567         4.74786
     2020.47364        -1.96200         4.67253
     2020.47638         5.48234         4.66483
     2020.47912        -1.64433         4.81719
     2020.48186        -0.54099         4.75299
     2020.48459        -1.64466         4.74957
     2020.48733        -0.91532         4.79065
     2020.49007         5.44301         4.77439
     2020.49281         0.33635         4.76326
     2020.49555        -2.99132         4.71533
     2020.49828         1.65602         4.70591
     2020.50102         0.54035         4.66312
     2020.50376        -0.10131         4.63915
     2020.50650        -7.47298         4.67082
     2020.50924        -6.85264         4.67082
     2020.51197        -0.82031         4.71105
     2020.51471         2.74703         4.69821
     2020.51745         1.93436         4.59978
     2020.52019         3.02970         4.68195
     2020.52292         8.67703         4.83858
     2020.52566         2.91437         4.78209
     2020.52840         2.42270         4.74614
     2020.53114         4.88204         4.76925
     2020.53388        -0.36163         4.74015
     2020.53661        -1.00229         4.76840
     2020.53935         1.34604         4.79493
     2020.54209         4.93938         4.80606
     2020.54483        -0.90329         4.82403
     2020.54757        -1.15295         4.80863
     2020.55030         3.73938         4.82061
     2020.55304         3.34772         4.81205
     2020.55578         2.50806         4.88224
     2020.55852        -4.76461         4.99180
     2020.56125        -1.12227         4.83858
     2020.56399         2.05406         4.76241
     2020.56673         0.07540         4.77182
     2020.56947         7.76373         4.79664
     2020.57221         3.39807         4.99608
     2020.57494        -0.98160         4.80264
     2020.57768         0.38374         4.90877
     2020.58042         2.18407         4.82831
     2020.58316        -0.57059         4.80092
     2020.58590         2.87174         4.79664
     2020.58863         1.17708         4.76326
     2020.59137         2.36141         4.79322
     2020.59411        11.46975         4.83858
     2020.59685         3.45208         4.99693
     2020.59958         3.88642         4.91819
     2020.60232         1.12275         4.77696
     2020.60506        -0.14791         4.76583
     2020.60780         1.82242         4.78209
     2020.61054         3.79076         4.86255
     2020.61327        -3.55291         4.93445
     2020.61601         0.61243         4.85399
     2020.61875        -0.46724         4.81547
     2020.62149         3.19010         4.79836
     2020.62423         3.54743         4.85314
     2020.62696        -2.78223         4.99180
     2020.62970        -2.79890         4.90706
     2020.63244         5.66744         4.88908
     2020.63518         5.31177         4.98837
     2020.63791         0.35811         4.97896
     2020.64065        -8.70556         4.88138
     2020.64339         0.72878         4.86512
     2020.64613         5.82111         5.76042
     2020.64887         5.98945         5.02603
     2020.65160        -5.79322         4.90535
     2020.65434        -1.40688         4.84458
     2020.65708         6.16145         4.87368
     2020.65982         5.52479         4.77610
     2020.66256         3.75112         4.78124
     2020.66529         3.09346         4.83602
     2020.66803         1.22979         4.80435
     2020.67077         1.06713         4.80264
     2020.67351         5.77846         4.80948
     2020.67624        -1.90820         4.75385
     2020.67898        -4.80187         4.80435
     2020.68172        -1.51953         4.76155
     2020.68446         0.94881         4.85656
     2020.68720        -1.38686         4.91562
     2020.68993         2.14548         4.77439
     2020.69267        -2.16919         4.89508
     2020.69541        -0.89585         5.06027
     2020.69815        -0.97352         4.86683
     2020.70089         0.52282         4.81034
     2020.70362        -2.18585         4.79664
     2020.70636         0.88949         5.04486
     2020.70910        -2.58918         5.04572
     2020.71184         1.89816         4.86854
     2020.71457        -6.38451         4.99351
     2020.71731         1.43583         4.94986
     2020.72005        -1.56784         4.90278
     2020.72279         1.01350         4.80520
     2020.72553         0.54483         4.95157
     2020.72826         0.43717         4.96697
     2020.73100        10.45950         4.91904
     2020.73374        12.21784         4.88908
     2020.73648         4.42117         4.89679
