# ================= DQRFIT RESULTS ================
# INPUT FILE: series/BATT.rad
# OUTPUT: LDETRENDED
# FILTER FUNCTION: f(t)
# f(t)=+line(t)+annual(t)
# line(t)=+P 1+P 2*t
# annual(t)=+P 3*sin(2*pi*t+P 4)
# heav(t)=(t<0?0:1)
# TOTAL OBSERVATIONS MTOT=  736
# INITIAL TIME INTERVAL= 2018.6939 - 2004.6927 = 14.0012
# TOTAL OBSERVATIONS AFTER PREFILTER M=  719
# TIME-SPAN= 2018.6939 - 2004.6927 = 14.0012
# OBSERVATIONS: USED M=   719 REJECTED MTOT-M=    17 %USED=   97.6902
# N=  4 PARAMETERS
# MAXSIG= 175.00000
# MAXRES=  19.75196
# SCALE FACTOR FOR LENGTHS: SCL=  10.00000
# SCALE FACTOR FOR SIGMAS: SCLSIG=   1.00000
# CHI^2=    958.156 DOF=   715 CHI^2/DOF=   1.34008
# RMS=      6.882 SDEV=      6.887 MEAN=   -0.03121
#  P #       PARAMETER +-    SIGMA %error PARAMETER NAME
# P 1 =     -1197.28751 +-  110.746   9.25 YZERO                              
# P 2 =         0.59534 +-    0.055   9.25 SLOPE                              
# P 3 =         3.20462 +-    0.394  12.29 ANNUAL AMPLITUDE                   
# P 4 =         1.93898 +-    0.054   2.77 ANNUAL PHASE                       
#       T            LDETRENDED       SIG_OBS
     2004.69268        -3.00502         6.77785
     2004.69542         4.11235         6.77553
     2004.69816        10.84272         6.83689
     2004.70089         8.65209         7.31383
     2004.70363        10.29146         7.33698
     2004.70637         9.08883         6.67714
     2004.70911         2.76520         6.62967
     2004.71185         4.16057         7.01053
     2004.71458        12.10694         7.01979
     2004.71732        10.70131         6.73733
     2004.72004         4.26070         7.01748
     2004.72280        -3.87195         6.72344
     2004.72554        -0.43458         7.88106
     2004.72828         1.49079         7.02905
     2004.73101         6.12916         6.57874
     2004.73375         5.74953         6.71881
     2004.73649         5.80890         6.97928
     2004.73922         2.99427         7.11703
     2004.74193         4.94866         7.53725
     2004.74470         6.09301         6.68871
     2004.74744         8.85438         7.27678
     2004.75018        -0.54625         8.02576
     2004.75291         2.79412         6.85194
     2004.75565         2.99349         6.67945
     2004.75839         5.33386         7.06378
     2004.76113         1.02723         7.48863
     2004.76387         6.83660         6.77669
     2004.76660         2.71697         6.61810
     2004.76934         4.72334         7.23164
     2004.77208         3.27971         7.65417
     2004.77482        11.53908         6.87740
     2004.77755         8.26445         7.22469
     2004.78029        -0.26418         7.39254
     2004.78303         1.79919         6.65862
     2004.78577         3.02456         6.96075
     2004.78851         6.86893         7.85675
     2004.79124         8.91430         6.68871
     2004.79398        15.02967         6.57179
     2004.79672        21.72204         7.19228
     2004.79946        10.44241         6.62389
     2004.80220        14.92878         7.06262
     2004.80493        12.84815         6.61231
     2004.80767         6.25352         7.91579
     2004.81041         8.45089         6.49076
     2004.81315         4.42526         6.97696
     2004.81588         9.92163         6.57874
     2004.81862        10.49000         6.87740
     2004.82136         9.46137         7.09504
     2004.82684         6.53211         8.33832
     2004.82957        14.41948         9.24936
     2004.83231         7.53885         7.31614
     2004.83505         2.53622         7.79655
     2004.83779         6.25659         7.80697
     2004.84052         5.70496         7.30804
     2004.84600         7.85570         8.00261
     2004.84874         7.66607         7.01285
     2004.85148         5.33344         7.17260
     2004.85421         0.17281         9.37323
     2004.85969        -1.29045         8.05817
     2004.86243         1.28092         9.00395
     2004.87064       -10.23997         8.11142
     2004.87612        -9.09323         9.63485
     2004.87885        -1.68386         7.78729
     2004.88159        -6.44249         9.13939
     2004.88433         2.01688         8.86156
     2004.88707         7.19525         8.60225
     2004.88981         7.76962         8.71454
     2004.89254         3.98299         8.97732
     2004.90346         0.57049         8.89860
     2004.92814         8.01681         7.60902
     2005.09515        -1.59362         7.58934
     2005.09788        -0.00725         7.57776
     2005.10062        -2.14988         7.20270
     2005.10336       -15.36451         8.09985
     2005.10883         1.59023         8.28275
     2005.11157        -2.07640         7.02095
     2005.11431        -1.43103         6.43056
     2005.11979         6.68371         6.78827
     2005.12252        -2.16392         6.86120
     2005.12526        -4.10055         6.88204
     2005.12800        -6.67218         6.75817
     2005.13074        -7.01781         6.56948
     2005.13347        -3.68244         6.50697
     2005.13621         8.15393         6.65398
     2005.13895         0.22630         8.29317
     2005.14169        -8.42733         6.44214
     2005.14443        -4.53496         8.26076
     2005.14716         2.14441         7.39602
     2005.14990        -3.02122         6.60652
     2005.15264        -3.37785         6.61000
     2005.15538        -1.77048         6.57064
     2005.15812        -1.67711         6.64704
     2005.16085        -2.26674         6.60421
     2005.16359        -0.50237         6.62967
     2005.16633         6.69800         6.66672
     2005.16907         1.07437         6.58105
     2005.17180        -0.77226         6.62967
     2005.17454        -1.78289         6.62736
     2005.17728        -4.72252         6.62852
     2005.18002         0.53185         6.64241
     2005.18276        -6.06178         6.61463
     2005.18549        -6.30141         6.74891
     2005.19097        -4.37767         6.58916
     2005.19371        -0.71730         6.65862
     2005.19645        -6.37393         6.58105
     2005.19918         2.22344         6.61000
     2005.20192         1.24781         6.76280
     2005.20466         3.34718         6.77669
     2005.20740        -2.66745         6.69913
     2005.21013        -3.46408         6.66440
     2005.21287         2.22129         6.59610
     2005.21561         3.55966         6.70839
     2005.21835         0.81903         6.68987
     2005.22109         3.75440         6.63199
     2005.22382       -18.04523         6.71071
     2005.22656        -6.87886         6.63894
     2005.22930         2.86151         6.63199
     2005.23204         1.75188         6.62389
     2005.23478        10.32325         6.65514
     2005.23751         8.60262         6.74428
     2005.24025        13.14099         6.83573
     2005.24299        10.36736         6.67019
     2005.24573         4.85373         6.76164
     2005.24846         2.82710         6.64009
     2005.25120         0.53147         6.66209
     2005.25394        16.10684         6.96654
     2005.25668         9.95321         7.03484
     2005.25942         3.63758         6.74312
     2005.26215         4.61395         6.78132
     2005.26489        10.49432         6.81721
     2005.26763        13.80469         6.82415
     2005.27037         9.14006         6.80563
     2005.27311         8.53243         6.76280
     2005.27584         5.92880         6.73849
     2005.27858         4.20417         6.78943
     2005.28132         3.45554         6.83689
     2005.28406         1.00291         6.87509
     2005.28679         4.07328         6.82415
     2005.28953         5.99765         6.58569
     2005.29227         7.40302         6.70723
     2005.29501         7.88739         6.68987
     2005.29775         8.40376         6.66093
     2005.30048         6.73613         6.67482
     2005.30322         2.67950         6.65051
     2005.30596         3.83787         6.61231
     2005.30870        11.64524         6.66903
     2005.31144         6.88961         6.68640
     2005.31417         3.53598         6.63083
     2005.31691         2.80335         6.66440
     2005.31965         0.48472         6.64820
     2005.32239         4.81709         6.81721
     2005.32512         4.34346         6.67366
     2005.32786        -3.54917         6.70260
     2005.33060         5.72020         6.63546
     2005.33334         3.64657         6.72228
     2005.33608         5.59494         6.79637
     2005.33881         3.06931         6.66556
     2005.34155         5.85168         6.66325
     2005.34429         6.00805         6.62157
     2005.34703         1.82642         6.62852
     2005.34977         2.39979         6.67251
     2005.35250         2.36916         6.76280
     2005.35524         6.87053         6.82415
     2005.62903         4.07454         6.72923
     2005.63176        -5.89709         6.70260
     2005.63450        -0.79372         6.64472
     2005.63724        -6.04435         6.75470
     2005.63998         0.34702         6.71765
     2005.64272         0.80839         6.65283
     2005.64545        -1.84024         6.67019
     2005.64819        -1.33087         6.68987
     2005.65093        -1.90450         6.68408
     2005.65367        -2.81013         6.75238
     2005.65640        -1.34276         6.70376
     2005.65914         1.88761         6.70029
     2005.66188        -2.85002         6.74891
     2005.66462         0.00235         6.65977
     2005.66736        -0.94028         6.62041
     2005.67009         1.67509         6.66325
     2005.67283         3.22446         6.64820
     2005.67557         1.09383         6.61115
     2005.67831        -4.65480         6.61347
     2005.68105        -5.13643         6.59726
     2005.68378        -2.09606         6.66903
     2005.68652         0.36831         6.65746
     2005.68926         3.34768         6.67251
     2005.69200        -7.06995         6.81605
     2005.69473        -3.86558         6.73154
     2005.69747        -1.52321         6.75238
     2005.70021         3.99016         6.86930
     2005.70295         0.71953         6.83573
     2005.70569        -6.13410         6.86004
     2005.70842        -4.74673         6.92950
     2005.71116         4.43664         6.81952
     2005.71390        -0.26499         6.65051
     2005.71664        -4.97162         6.76512
     2005.71938        -1.51925         6.67366
     2005.72211         1.90112         6.87740
     2005.72485        -5.40151         6.63199
     2005.72759        -0.95714         6.69682
     2005.73033        -6.56777         6.84268
     2005.73306        -0.87640         6.73733
     2005.73580        -0.06803         6.74891
     2005.73854         5.08334         6.96886
     2005.74128         3.12771         6.83805
     2005.74402         0.80708         6.76975
     2005.74675         2.61945         6.59726
     2005.74949        -0.72618         6.63315
     2005.75223         4.00019         6.87740
     2005.75497         0.00056         6.78480
     2005.75770        -1.13407         6.68987
     2005.76044        -0.27170         6.59610
     2005.76318         2.26467         6.54748
     2005.76592         4.66704         6.59495
     2005.76866         5.11541         6.69682
     2005.77139         8.05478         6.63083
     2005.77413         3.90815         6.59958
     2005.77687         3.17052         6.73386
     2005.77961         1.86889         6.81026
     2005.78235         0.69826         6.75585
     2005.78508         0.42163         6.61810
     2005.78782         2.90500         6.62967
     2005.79056         2.98837         6.57295
     2005.79330         5.53474         6.62389
     2005.79603         4.36511         6.77438
     2005.79877         7.14048         6.83342
     2005.80151         4.82585         6.87162
     2005.80425         2.53722         6.65051
     2005.80699         3.21859         6.59495
     2005.80972         4.60396         6.61231
     2005.81246         2.32233         6.63778
     2005.81520         0.69970         6.67714
     2005.81757         3.48829         7.96325
     2006.13005        -7.71874         6.51507
     2006.13279       -11.59337         6.47687
     2006.13552        -4.83400         6.50697
     2006.13826         0.45837         6.54285
     2006.14100        -3.38626         6.54285
     2006.14374        -2.43089         6.54864
     2006.14648        -3.21052         6.51623
     2006.14921        -7.15815         6.49655
     2006.15156       -10.38155         8.19940
     2006.20180        -1.69146        10.32132
     2006.20397       -10.77475         6.81489
     2006.20671        -6.88038         6.76627
     2006.20945        -7.71701         6.73733
     2006.21167       -15.39234        11.51019
     2006.30527         4.73894         9.23547
     2006.30801        -3.90669         6.94570
     2006.31075       -12.85432        14.40539
     2006.36550       -44.07392        29.09208
     2006.36824       -13.06355         8.60225
     2006.37098       -13.95618         6.97464
     2006.37372        -7.12781         6.93413
     2006.37645        -2.14744         6.78595
     2006.37919       -15.55007         7.17607
     2006.38193        -1.40570         6.95728
     2006.38467        -3.60133         6.90519
     2006.38741        -2.83996         7.34161
     2006.39014         5.36941        18.23479
     2006.85558        -5.43268         7.23742
     2006.85832        -1.53031         6.82647
     2006.86106        -4.27594         7.05684
     2006.86380        -7.11557         7.04526
     2006.86653         5.91380         7.15176
     2006.86927        -0.85483         6.83457
     2006.87201        -3.52246         6.63662
     2006.87475        -0.32509         6.70029
     2006.87749         0.40228         6.71187
     2006.88022        -3.01335         6.70376
     2006.88296        -7.84798         6.65514
     2006.88570        -5.36061         6.69450
     2006.88844         1.88576         6.60421
     2006.89118        -4.47187         6.67714
     2006.89665        -9.34213         6.83342
     2006.89939        -3.05976         6.62967
     2006.90213        -3.21139         6.60189
     2006.91308        -3.86291         6.62620
     2006.91582       -11.26854         6.69334
     2006.91855       -11.95717         6.65862
     2006.92129       -11.67780         6.68177
     2006.92403       -11.38843         6.72576
     2006.92677        -9.38806         6.68408
     2006.92951        -7.07069         6.85657
     2006.93224        -8.82232         6.70029
     2006.93498        -7.40495         6.83110
     2006.93772        -0.88358         6.74196
     2006.94046         0.77379         7.25016
     2006.96236        -5.05025         7.18070
     2006.96510        -6.99588         7.13671
     2006.96784        -5.73251         7.20154
     2006.97048       -11.81609         7.32193
     2007.85764        -6.66824         6.55096
     2007.86037        -7.34087         6.59032
     2007.86311        -2.81650         6.55674
     2007.86585        -4.76513         6.63199
     2007.86859       -10.54176         6.53591
     2007.87133        -6.00039         6.51507
     2007.87406        -5.14402         6.60652
     2007.87680        -1.08965         6.69103
     2007.87954       -11.80528         6.62389
     2007.88228        -1.58991         6.60884
     2007.88502        -0.98754         6.61347
     2007.88775       -11.95617         6.62389
     2007.89049        -9.58280         6.65977
     2007.89323        -9.88243         6.76975
     2007.89597        -6.07606         6.74891
     2007.89870        -9.59969         6.66325
     2007.90144        -7.66432         6.55674
     2007.90418        -2.83695         6.68177
     2007.90692       -10.30158         6.70723
     2007.90966       -14.88521         6.68177
     2007.91239        -5.27984         6.63778
     2007.91513        -7.07747         6.65977
     2007.91787         3.21290         6.69566
     2007.92061       -14.04073         6.82300
     2007.92334       -10.47336         6.88782
     2007.94799       -13.83503         6.79753
     2007.95072        -8.64366         6.82647
     2007.95346        -8.24029         6.78480
     2007.95620        -6.25292         6.73039
     2007.95894        -2.82155         6.80911
     2007.96148        -4.50507         7.34855
     2009.59891         4.41411         6.56369
     2009.60165        -1.42452         6.47687
     2009.60439       -11.29515         6.53128
     2009.60712       -11.07478         6.52317
     2009.60986        -9.63541         6.51391
     2009.61260        -8.36604         6.52665
     2009.61534        -6.81467         6.52780
     2009.61807        -4.15030         6.57179
     2009.62081        -1.80693         6.55096
     2009.62355        -7.54956         6.51276
     2009.62629        -7.54319         6.51854
     2009.62903        -5.53282         6.54748
     2009.63176        -8.51245         6.49076
     2009.63450        -6.97708         6.48613
     2009.63724        -8.68471         6.56948
     2009.63998        -8.13634         6.61810
     2009.64272        -7.57497         6.68177
     2011.39768        -4.72377         6.60189
     2011.40042         2.86760         6.63083
     2011.40315        -4.88003         6.46877
     2011.40589         0.13734         6.51276
     2011.40863        -0.99629         6.47224
     2011.41137        -1.56892         6.44446
     2011.41410        -0.89955         6.49771
     2011.41684         3.10182         6.48960
     2011.41958        -1.97681         6.40510
     2011.42232        -8.75344         6.41899
     2011.42506        -2.68407         6.46066
     2011.42779         1.91430         6.46182
     2011.43053        -7.13733         6.46992
     2011.43327        -9.33796         6.54054
     2011.43601       -12.82259         6.43983
     2011.43875        -4.40122         6.51276
     2011.44148        -0.10785         6.53359
     2011.44422        -5.13548         6.42478
     2011.44696        -6.09111         6.46182
     2011.44970        -1.40974         6.45256
     2011.45243        -9.86037         6.47340
     2011.45517        -5.59500         6.55790
     2011.45791        -4.25063         6.43751
     2011.46065        -7.98026         6.49655
     2011.46339         1.26211         6.58684
     2011.46612        -5.77552         6.43983
     2011.46886         0.41985         6.43288
     2011.47160       -11.37878         6.56253
     2011.47434        -5.65241         6.53128
     2011.47708        -7.22004         6.48497
     2011.47981        -1.94067         6.47455
     2011.48255        -1.74930         6.48150
     2011.48501        -9.64177         7.28489
     2012.87064         1.47031         6.44446
     2012.87338        -1.91432         6.55211
     2012.87612        -0.16695         6.44098
     2012.87885         0.25842         6.45950
     2012.88159         5.86279         6.41552
     2012.88433         1.23316         6.44330
     2012.88707         0.17653         6.63662
     2012.88981        14.72790         6.64009
     2012.89254        -2.15873         6.48613
     2012.89528        -0.88936         6.43635
     2012.89802        -0.62199         6.43983
     2012.90076         6.14338         6.47108
     2012.90350         1.99275         6.43288
     2012.90623         0.50312         6.33564
     2012.90897         6.51649         6.48266
     2012.91171         2.80186         6.45719
     2012.91445         5.33423         6.44561
     2012.91718         5.42160         6.42709
     2012.91992        15.32197         6.43751
