# ================= DQRFIT RESULTS ================
# INPUT FILE: series/BAYV.rad
# OUTPUT: LDETRENDED
# FILTER FUNCTION: f(t)
# f(t)=+line(t)+jumps(t)
# line(t)=+P 1+P 2*t
# jumps(t)=+P 3*heav(t-2004.2026  )
# heav(t)=(t<0?0:1)
# TOTAL OBSERVATIONS MTOT=  363
# INITIAL TIME INTERVAL= 2005.2485 - 2003.2882 =  1.9603
# TOTAL OBSERVATIONS AFTER PREFILTER M=  362
# TIME-SPAN= 2004.5827 - 2003.2882 =  1.2945
# OBSERVATIONS: USED M=   362 REJECTED MTOT-M=     1 %USED=   99.7245
# N=  3 PARAMETERS
# MAXSIG= 175.00000
# MAXRES=  18.85894
# SCALE FACTOR FOR LENGTHS: SCL=  10.00000
# SCALE FACTOR FOR SIGMAS: SCLSIG=   1.00000
# CHI^2=    452.189 DOF=   359 CHI^2/DOF=   1.25958
# RMS=      6.883 SDEV=      6.892 MEAN=   -0.09507
#  P #       PARAMETER +-    SIGMA %error PARAMETER NAME
# P 1 =     18442.88365 +- 3099.788  16.81 YZERO                              
# P 2 =        -9.19255 +-    1.547  16.83 SLOPE                              
# P 3 =         5.24401 +-    1.232  23.50 OFFSET 2004.2026                   
#       T            LDETRENDED       SIG_OBS
     2003.28815        -8.71459         6.49593
     2003.29089        -7.86142         6.63060
     2003.29363        -7.20626         6.59357
     2003.29637        -9.50609         6.48246
     2003.29911         1.17208         6.50490
     2003.30184        -5.23375         6.49480
     2003.30458        -5.40359         6.61601
     2003.30732        -6.28042         6.58683
     2003.31006        -7.80225         6.47685
     2003.31279        -5.49808         6.47460
     2003.31553        -6.41691         6.66764
     2003.31827        -4.51575         6.45440
     2003.32101        -2.99558         6.62499
     2003.32375        -0.31141         6.44093
     2003.32648        -9.79824         6.49705
     2003.32922        -9.13008         6.62948
     2003.33196        -8.96191         6.73273
     2003.33470        -5.83874         6.54980
     2003.33744        -9.58157         6.39155
     2003.34017        -9.83340         6.44767
     2003.34565        -3.93407         6.49031
     2003.34839        -1.71490         6.63285
     2003.35112        -5.05473         6.55653
     2003.35386        -8.57656         6.34666
     2003.35660        -2.55640         6.39267
     2003.35934         1.22677         6.46338
     2003.36208         1.60394         6.42859
     2003.36481        -1.52689         6.51613
     2003.36755        -3.91573         6.58122
     2003.37029        -0.67156         6.37472
     2003.37303       -14.15239         6.53633
     2003.37577        -5.75722         6.44318
     2003.37850       -11.21905         6.44767
     2003.38124        -6.87789         6.43869
     2003.38398        -6.51972         6.35900
     2003.38672        -2.50255         6.50154
     2003.38945        -4.66338         6.64295
     2003.39219        -7.83621         6.49705
     2003.39493         9.60295         6.58571
     2003.40041         0.34829         6.90557
     2003.40657        10.96892         9.79664
     2003.54072         4.10414         9.12774
     2003.54277        -2.80298         6.62050
     2003.54551        -3.89182         6.72824
     2003.54825        -3.83765         6.70580
     2003.55099        -0.73348         6.74059
     2003.55373        -4.12431         6.63173
     2003.55646         9.80286         6.58010
     2003.55920         6.29402         6.53296
     2003.56194         2.46419         6.56214
     2003.56468        -3.76764         6.63285
     2003.56741        -6.47447         6.56775
     2003.57015         3.78869         6.60030
     2003.57289        -0.22714         6.81017
     2003.57563         1.20803         6.70355
     2003.57837         3.61720         6.79895
     2003.58110        -3.63863         6.95720
     2003.58384         8.46953         6.79895
     2003.58658         8.46970         6.77987
     2003.58932         1.57787         6.56888
     2003.59206        14.84804         6.62499
     2003.59479         0.96521         6.73610
     2003.59753         0.91037         6.59469
     2003.60027         5.00254         6.57449
     2003.60301        12.75471         6.59244
     2003.60574         3.74788         6.77987
     2003.60848         2.50504         6.55204
     2003.61122         1.02121         6.59693
     2003.61396        -0.46362         6.61040
     2003.61670        -0.25045         6.59357
     2003.61943         3.28772         6.63285
     2003.62217         2.17388         6.54755
     2003.62491         7.13905         6.46450
     2003.62765         8.51522         6.66091
     2003.63039         8.93039         6.63509
     2003.63312         7.48856         6.73273
     2003.63586         7.84372         6.52960
     2003.63860        12.77789         6.68111
     2003.64134        12.15506         6.66315
     2003.64407         3.06723         6.58347
     2003.67419        16.86207         6.60479
     2003.67693        15.77524         6.51837
     2003.67967         4.90441         6.49705
     2003.68240        15.77958         6.59020
     2003.68514         0.85274         6.41175
     2003.68788         8.42091         6.49144
     2003.69062         5.98108         6.45665
     2003.69336         6.24325         6.59357
     2003.69609         8.73242         6.67437
     2003.69883         7.77858         7.36235
     2003.70157        14.54575         6.45665
     2003.70362         5.69563         9.20518
     2003.70978         2.74825         6.37023
     2003.71252         9.06942         6.64744
     2003.71526        11.97259         6.50603
     2003.71800         3.91076         6.42410
     2003.72073         6.55293         6.50266
     2003.72347         5.37009         6.58122
     2003.72621        11.48126         6.67437
     2003.72895         1.97443         6.66427
     2003.73169         0.26460         6.69345
     2003.73442         1.56177         6.53408
     2003.73716         6.10293         6.45665
     2003.73990        10.80910         6.53072
     2003.74264        10.85727         6.71590
     2003.74538         6.69044         6.65978
     2003.74788         6.75151         7.52957
     2003.75085        10.91177         6.88986
     2003.75359        18.85894         6.58683
     2003.75633         5.36911         6.49368
     2003.75906         8.34128         6.53521
     2003.76180         7.36544         6.95495
     2003.76454        13.00761         6.83599
     2003.76728        15.00178         6.86966
     2003.77002         8.23695         6.50603
     2003.77275         9.87711         6.49368
     2003.77549         6.11528         6.61040
     2003.77823        15.98645         6.57337
     2003.78097         9.51362         6.47236
     2003.78371        16.11179         6.57561
     2003.78644         6.23895         6.58683
     2003.78918        13.07712         6.53521
     2003.79192         5.60829         6.51725
     2003.79466         5.34946         6.54082
     2003.79739         7.89663         6.49705
     2003.80013         1.68079         6.71141
     2003.80287         4.03696         6.51949
     2003.80561         8.12413         6.94597
     2003.80835        -3.52770         6.68223
     2003.81108        -0.21254         6.61489
     2003.81382        -7.82637         6.34217
     2003.81656        -5.45620         6.36349
     2003.81930        -1.29203         6.42522
     2003.82181         3.41204         7.15023
     2003.82523         1.09550         9.86285
     2003.82751        -4.93157         7.88198
     2003.83025         0.60564         6.44318
     2003.83299         1.53881         6.31523
     2003.83572        -3.43502         6.34890
     2003.83846         1.94314         7.14574
     2003.84120         3.65635         6.42971
     2003.84489        -0.07278        10.82243
     2003.84763         0.13839        10.69561
     2003.85036         7.99451        10.85049
     2003.85857        -1.51699        11.65630
     2003.86132         4.07322        11.63049
     2003.86405         8.29239        10.91334
     2003.86679         2.43252        11.07383
     2003.88048        -6.88260        11.42623
     2003.88321        -2.40548        11.01771
     2003.95619        -7.64464         6.61489
     2003.95893        -2.08347         6.60030
     2003.96167        -1.72330         8.10532
     2003.96440         3.88286         8.72483
     2003.96714         4.69303         6.53745
     2003.97170        17.08798        10.43972
     2003.97809         3.06770         6.67437
     2003.98083         4.89087         6.40277
     2003.98357         0.24004         8.21867
     2003.98631        -7.90979         6.50939
     2003.98904        -0.79763         6.33993
     2003.99178        -4.28346         6.36798
     2003.99452        -0.65329         6.31187
     2003.99772        -4.72888         8.19510
     2004.00273        -4.66079         8.21194
     2004.00547         1.20438         6.45665
     2004.00867       -11.29721         8.17490
     2004.01141       -14.96704         8.22540
     2004.01323        -5.03431         8.11542
     2004.01642         5.48505         6.73498
     2004.01916        -6.48378         6.48358
     2004.02190       -16.00861         8.22765
     2004.02464        -1.95744         6.49256
     2004.02692        -5.04747         8.07726
     2004.03331       -12.85170         8.31743
     2004.03559        -7.79877         7.88759
     2004.03833        -2.17460         6.35676
     2004.04106       -14.72744         8.37804
     2004.04380        -6.56827         6.47460
     2004.04654         0.19390         6.41400
     2004.04928         2.87807         6.37584
     2004.05201       -10.85977         6.41512
     2004.05475       -10.71160         6.47460
     2004.05749       -10.26943         6.41849
     2004.06023       -24.27226         8.36233
     2004.06297        -9.47409         6.36125
     2004.06570       -12.74593         6.42522
     2004.06844        -3.62076         7.87412
     2004.07118        -7.64559         6.36125
     2004.07392        -5.50642         6.37135
     2004.07666        -3.93725         6.46113
     2004.07939        -4.55909         8.11205
     2004.08213        -4.09092         6.34441
     2004.08487         0.56825         6.28381
     2004.08761        -4.48158         6.35676
     2004.09034        -3.60942         6.46787
     2004.09308        -0.27325         6.49480
     2004.09582       -14.68208         6.31411
     2004.09856        -5.74291         8.19735
     2004.10130        -1.32474         6.49480
     2004.10403        -5.27858         6.34441
     2004.10951        -4.22024         6.38706
     2004.11225       -11.22107         6.37921
     2004.11498        -5.25990         6.52960
     2004.11772         1.47026         8.09746
     2004.12046        -2.87557         6.53857
     2004.12320         2.31660         6.79895
     2004.12594         7.22377         6.69794
     2004.12867         1.05493         8.76636
     2004.13141        -2.11490         6.75518
     2004.13415        -6.24973         6.52062
     2004.13689       -11.57356         8.13899
     2004.13963        -4.95239         6.35115
     2004.14236         1.52377         6.50042
     2004.14510        -4.26106         6.83599
     2004.15012         2.94908         7.91116
     2004.15379        -1.82723         7.98411
     2004.15879        -6.76822         6.54643
     2004.16153        -2.66005         6.58571
     2004.16427        -0.17188         6.46226
     2004.16747       -10.35448         7.84606
     2004.17021       -14.85627         8.42854
     2004.17248        -1.89738         6.80007
     2004.17522        -1.70921         8.19847
     2004.17796         0.27096         6.72937
     2004.18069        -0.40388         6.47236
     2004.18343        -3.38171         6.62948
     2004.18617       -10.40554         6.99872
     2004.18891         0.13163         6.47011
     2004.19164        -7.30021         6.48246
     2004.19439        -3.60699         7.71812
     2004.19758       -11.20363         7.71700
     2004.19986        -5.39170         6.50490
     2004.20260        -2.47353         6.44879
     2004.20533        -7.53337         6.76191
     2004.20807        -4.12120         6.79671
     2004.21081         6.50697         7.04586
     2004.21355        -2.03986         8.09522
     2004.21629       -12.62969         6.72824
     2004.21902        -1.64253         6.70468
     2004.22176        -4.11636         6.80793
     2004.22450         6.14681         6.73161
     2004.22724         3.18098         6.75630
     2004.22997        -5.16786         8.39151
     2004.24960       -11.73444         7.93473
     2004.25188        -4.09651         7.75067
     2004.25462        -2.01335         6.57112
     2004.25735         5.27782         6.64519
     2004.26009        -0.04901         6.65529
     2004.26283        -7.42984         6.48695
     2004.26557         1.60833         6.58459
     2004.26828        -2.86472         6.41961
     2004.27145        -0.29062         7.18390
     2004.27418         0.96554         7.54977
     2004.27652         1.80800         6.44430
     2004.27926        -0.38983         6.41736
     2004.28199        -6.19967         6.62275
     2004.28473        -0.09650         6.61152
     2004.28745         0.44745         6.48919
     2004.29061        -6.85945         7.38816
     2004.29295        -1.65000         6.42298
     2004.29609         8.94989         7.43642
     2004.29842         4.49834         6.48583
     2004.30116         3.42151         6.48021
     2004.30390         4.88468         6.35339
     2004.30661        -0.09637         6.46113
     2004.30978         5.30573         7.40387
     2004.31211         0.19318         6.43644
     2004.31485        -3.01765         6.46899
     2004.31759         0.72652         6.36125
     2004.32074         6.68748         7.67884
     2004.32347         1.10556         7.40949
     2004.32578         1.49180         6.49144
     2004.32894         0.73290         7.21084
     2004.33128         0.55335         6.43308
     2004.33401         8.05452         6.60928
     2004.33675         1.49869         6.49705
     2004.33949        10.73786         6.66652
     2004.34223         6.44203         6.68672
     2004.34494         7.24498         6.59693
     2004.34811        13.96508         7.41846
     2004.35044         6.80453         6.57898
     2004.35318        -1.21030         6.70355
     2004.35592         8.35187         6.55765
     2004.35820         0.69484         8.58791
     2004.36687         5.40454         6.50266
     2004.36961         7.20970         6.44318
     2004.37234         9.33787         6.51388
     2004.37508        10.40304         6.51501
     2004.37782        10.86221         6.48583
     2004.38056        10.81138         6.46113
     2004.38327         9.64232         6.50378
     2004.38644        10.46343         7.57559
     2004.38877         7.62988         6.41512
     2004.39151         8.00805         6.32197
     2004.39425        15.46221         7.96278
     2004.39698         5.78038         6.53184
     2004.39972        11.85055         6.46562
     2004.40246         6.60672         6.51501
     2004.40520         4.09689         6.49368
     2004.40794        11.37605         6.33544
     2004.40971        14.28635        11.96606
     2004.41381         3.74110         7.53855
     2004.41615        10.71056         6.34441
     2004.41889         7.21173         6.38257
     2004.42162        10.16389         6.38482
     2004.42436        11.51806         6.50715
     2004.42710         6.35123         6.68335
     2004.42984        11.03340         6.41624
     2004.43258         6.74756         6.38257
     2004.43531         6.39673         6.36911
     2004.43805        17.08890         6.49368
     2004.44079         3.14607         6.53970
     2004.44353         6.52624         6.35676
     2004.44626         8.67640         7.05933
     2004.44900         9.46857         6.58122
     2004.45174         8.68274         6.56663
     2004.45448         4.16691         6.49031
     2004.45722         1.86908         6.40053
     2004.45995         4.10624         6.53857
     2004.46269         5.08941         6.60928
     2004.46543         4.16458         6.49593
     2004.46817         7.91775         6.42298
     2004.47091         6.22891         6.37023
     2004.47364        13.51208         6.39380
     2004.47638         3.90425         6.41849
     2004.47912         6.76342         6.46001
     2004.48186         2.59359         6.54980
     2004.48459         6.20675         6.56102
     2004.48733         4.49992         6.39380
     2004.49007        10.19009         6.42859
     2004.49281         2.30826         6.58571
     2004.49555        10.83642         6.59806
     2004.49828         6.92859         6.44542
     2004.50102         3.09476         6.54867
     2004.50376         0.20393         6.48919
     2004.50650         7.06710         6.47572
     2004.50924         4.09726         6.46001
     2004.51197         5.65743         6.60030
     2004.51471         5.31760         6.68447
     2004.51745        10.57377         6.44430
     2004.52019         5.76194         6.50266
     2004.52292         8.64910         6.37808
     2004.52566         7.11827         6.42859
     2004.52840        12.98744         6.50378
     2004.53114         7.49061         6.42298
     2004.53388        14.57177         6.55541
     2004.53661         4.39594         6.48807
     2004.53935         4.73811         6.82027
     2004.54209        13.41228         6.57449
     2004.54483        11.66545         6.55316
     2004.54754         0.90440         6.86404
     2004.55852        11.97529         6.38482
     2004.56125         9.71845         6.42747
     2004.56399         4.46662         6.40839
     2004.56673        11.07579         6.40614
     2004.56947        10.65796         6.47797
     2004.57221        13.90112         6.42298
     2004.57494        13.00929         6.35227
     2004.57768         8.04146         6.44318
     2004.58042        15.24963         6.37808
     2004.58270        -4.80240         7.66425
