# ================= DQRFIT RESULTS ================
# INPUT FILE: series/BBUT.rad
# OUTPUT: LDETRENDED
# FILTER FUNCTION: f(t)
# f(t)=+line(t)
# line(t)=+P 1+P 2*t
# heav(t)=(t<0?0:1)
# TOTAL OBSERVATIONS MTOT=  215
# INITIAL TIME INTERVAL= 2016.6297 - 2011.4962 =  5.1334
# TOTAL OBSERVATIONS AFTER PREFILTER M=  215
# TIME-SPAN=    0.0000 -    0.0000 =  0.0000
# OBSERVATIONS: USED M=   215 REJECTED MTOT-M=     0 %USED=  100.0000
# N=  2 PARAMETERS
# MAXSIG= 175.00000
# MAXRES=  20.89377
# SCALE FACTOR FOR LENGTHS: SCL=  10.00000
# SCALE FACTOR FOR SIGMAS: SCLSIG=   1.00000
# CHI^2=    307.714 DOF=   213 CHI^2/DOF=   1.44467
# RMS=      6.792 SDEV=      6.807 MEAN=    0.09249
#  P #       PARAMETER +-    SIGMA %error PARAMETER NAME
# P 1 =       828.06239 +-  618.346  74.67 YZERO                              
# P 2 =        -0.41734 +-    0.307  73.59 SLOPE                              
#       T            LDETRENDED       SIG_OBS
     2011.49624         1.36620         6.72968
     2011.49898        -0.52966         6.78737
     2011.50172        -0.41752         6.85227
     2011.50445        -0.72337         6.95324
     2011.50719        -5.51823         6.82824
     2011.50993        -2.73709         6.83545
     2011.51267         4.73805         6.90997
     2011.51541         1.46220         6.84626
     2011.51814         1.66634         6.82102
     2011.52088        18.55348         6.75251
     2011.52362         7.08363         6.78737
     2011.52636        -0.34323         6.76213
     2011.52909         5.59191         6.84025
     2011.53183         4.94205         6.88593
     2011.53457         3.77220         6.71766
     2011.53731        -2.01266         6.75612
     2011.54005        -3.85952         6.68641
     2011.54278        -0.92138         6.75131
     2011.54552        20.89377         7.08906
     2011.54826         2.34191         6.81381
     2011.55100         4.20205         6.72487
     2011.55374         8.20319         6.86910
     2011.55647         2.07434         6.76814
     2011.55921         4.91948         6.74650
     2011.56195        10.88362         6.95204
     2011.56469         7.00776         6.76213
     2011.56742         6.67591         6.71645
     2011.57016         5.05405         6.86790
     2011.57290         5.95219         6.74771
     2011.57564         7.16533         6.82703
     2011.57838        -6.04752         6.94482
     2011.58111        -5.44438         6.97247
     2011.58385         2.52976         6.82102
     2011.58659         0.89691         7.12872
     2011.58933        -2.63195         6.80660
     2011.59206         7.58719         6.75972
     2011.59480         1.78733         6.85107
     2011.59754         8.96048         6.83184
     2011.60028         7.80562         6.72006
     2011.60302         6.76676         6.79338
     2011.60575         6.42190         6.74290
     2011.60849         8.74305         7.20084
     2011.61123         7.33719         7.16358
     2011.61397         4.17533         6.87511
     2011.61671        13.15447         7.05660
     2011.61944         1.61762         7.16117
     2011.62218         5.24476         6.90636
     2011.62492         2.90490         6.86790
     2011.62766         7.20204         6.77054
     2011.63039         8.86819         6.77415
     2011.63313        13.47833         6.84146
     2011.63587         8.63247         6.82583
     2011.63861         8.83961         6.77054
     2011.64117        11.03568         7.43041
     2012.49282       -11.22189         6.76333
     2012.49556       -13.16175         6.64674
     2012.49829       -10.65461         6.74530
     2012.50103        -8.19747         6.62871
     2012.50377         3.49068         6.80780
     2012.50651        -6.45318         6.74891
     2012.50924       -15.97504         6.74650
     2012.51198       -15.82789         6.84506
     2012.51472       -12.14975         6.68520
     2012.51746       -10.66861         6.77174
     2012.52020       -14.79647         6.74049
     2012.52293       -12.28632         6.76694
     2012.52567        -7.22918         6.77054
     2012.52841        -7.53904         6.63592
     2012.53115        -6.85890         6.77655
     2012.53389       -11.23575         6.80179
     2012.53662       -12.55061         6.65876
     2012.53936        -9.92547         6.68040
     2012.54210        -2.19333         6.75372
     2012.54484        -9.80818         6.68160
     2012.54757        -9.08304         6.72968
     2012.55031        -8.94990         6.70924
     2012.55305       -11.15876         6.65035
     2012.55579       -20.27961         6.74410
     2012.55853       -11.47547         6.82102
     2012.56126       -10.30533         7.00011
     2012.56400       -12.12119         6.89915
     2012.56674       -12.89104         6.72126
     2012.56948        -6.43290         6.68641
     2012.57222        -9.31276         6.84626
     2012.57495       -12.55761         6.69963
     2012.57769        -9.35447         6.73208
     2012.58043        -5.66633         6.78136
     2012.58317       -11.76719         6.76934
     2012.58590       -10.44904         6.63713
     2012.58864        -6.11590         6.59987
     2012.59138        -9.78876         6.56862
     2012.59412       -14.35262         6.77896
     2012.59686       -12.79947         6.66838
     2012.59942       -10.29640         7.05180
     2013.31417         7.82089         6.76333
     2013.31691         0.97003         6.72727
     2013.31965        -0.23583         6.78256
     2013.32239         3.41032         6.81381
     2013.32512         3.56046         6.84867
     2013.32786         6.13060         6.79819
     2013.33060         0.45874         6.76814
     2013.33334        -5.12311         6.75011
     2013.33608        -1.88097         6.79939
     2013.33881         1.48917         6.83425
     2013.34155         7.63331         6.78497
     2013.34429         3.60046         6.74530
     2013.34703         5.25660         6.69963
     2013.34977         0.94774         6.78497
     2013.35250         3.82888         6.83064
     2013.35524         1.26203         6.94603
     2013.35798         0.90417         6.69963
     2013.36072         3.26731         6.72847
     2013.36345         3.84645         6.88232
     2013.36619         7.50560         6.93160
     2013.36893        -0.17226         6.98088
     2013.37167        -0.99212         6.75852
     2013.37441         3.53603         6.68520
     2013.37714         1.93917         6.76453
     2013.37988        -4.59969         6.81501
     2013.38262        -1.55355         6.73448
     2013.38536         5.17760         6.81742
     2013.38810         8.34274         6.71165
     2013.39083         5.09288         6.67919
     2013.39357         0.85502         6.73328
     2013.39631         3.16417         6.71405
     2013.39905        -0.64269         6.82343
     2013.40178         6.89545         6.70804
     2013.40452         0.80359         6.67559
     2013.40726        10.69674         6.82583
     2013.41000        -4.64812         6.80420
     2013.41274         0.47302         6.73689
     2013.41547         2.09416         6.77535
     2013.41821         0.61131         6.76213
     2013.42095        12.71045         6.81862
     2013.42369         0.33959         6.75972
     2013.42643         1.93973         6.83064
     2013.42916         1.91588         6.74170
     2013.43190        -0.69798         6.81261
     2013.43464         2.92616         6.82463
     2013.43738         2.01431         6.75852
     2013.44011         0.17045         6.91117
     2013.44285        10.75459         7.02656
     2013.44559        -0.43327         6.96285
     2013.44814         3.09980         7.47969
     2015.11842        -4.93214         6.77655
     2015.12115         0.20801         6.83184
     2015.12389         1.66415         6.83665
     2015.12663        -4.46271         6.81982
     2015.12937        -3.19057         6.81622
     2015.13211        -3.13842         6.73809
     2015.13484         2.42572         6.92679
     2015.13758        -1.67914         6.91838
     2015.14032         3.73700         6.84506
     2015.14306         0.69915         6.82223
     2015.14580        -2.14371         6.75372
     2015.14853        -2.28957         6.77415
     2015.15127        -1.62943         6.81501
     2015.15401         1.04672         6.82703
     2015.15675         5.72086         6.84025
     2015.15948         4.79900         6.78256
     2015.16222         2.63715         6.78016
     2015.16496         1.56929         6.72968
     2015.16770        -0.10257         6.79218
     2015.17044        -0.06743         6.81862
     2015.17317        -4.42728         6.92319
     2015.17591        -1.94314         6.97487
     2015.17865         0.11100         6.77415
     2015.18139         2.34814         6.73689
     2015.18413         1.12529         6.85828
     2015.18686         0.60643         6.82343
     2015.18960         1.11557         6.84386
     2015.19234        -6.97929         7.03858
     2015.19508        -1.16114         6.81982
     2015.19781         1.84400         6.93040
     2015.20055         7.41714         6.94002
     2015.20329        -0.09372         6.88232
     2015.20603         4.89643         6.95684
     2015.20877        -0.46543         6.76093
     2015.21150        -5.70129         6.77415
     2015.21424        -4.95515         6.79578
     2015.21698        -2.15900         6.96045
     2015.21972         1.39114         6.90276
     2015.22246        -3.47072         6.78256
     2015.22519         3.52043         6.78977
     2015.22793        -3.66043         6.77295
     2015.23067        -1.72829         6.76093
     2015.23341         0.84785         7.00853
     2015.23614        12.85400         7.09627
     2015.23888        -1.66186         6.91838
     2015.24162         1.69028         6.93521
     2015.24436        10.88742         7.12632
     2015.24710        -1.55243         6.81381
     2015.24983        -0.52529         6.76814
     2015.25257         0.51885         6.69722
     2015.25531         5.29699         6.76453
     2015.25805        -1.61286         6.89915
     2015.26079         4.30728         6.89074
     2015.26352         6.55842         6.76453
     2015.26626         2.72056         6.78737
     2015.26900         0.46971         6.69482
     2015.27174        10.22785         6.94002
     2015.27447        15.33099         6.97367
     2015.27721         1.79013         6.85227
     2015.27995         5.42028         6.80299
     2015.28269         0.06942         6.92800
     2015.28517        -0.21754         7.90037
     2016.60781         2.04044         6.69482
     2016.61055        -4.99542         6.63112
     2016.61328        -4.20627         6.66477
     2016.61602        -4.29413         6.63232
     2016.61876        -3.71799         6.89074
     2016.62152         4.16516         7.52777
     2016.62427         3.59031         8.13475
     2016.62696         2.86543         7.99412
     2016.62967        -0.90244         7.85109
