# ================= DQRFIT RESULTS ================
# INPUT FILE: series/BCCG.rad
# OUTPUT: LDETRENDED
# FILTER FUNCTION: f(t)
# f(t)=+line(t)+annual(t)
# line(t)=+P 1+P 2*t
# annual(t)=+P 3*sin(2*pi*t+P 4)
# heav(t)=(t<0?0:1)
# TOTAL OBSERVATIONS MTOT= 4155
# INITIAL TIME INTERVAL= 2022.7488 - 2009.0212 = 13.7276
# TOTAL OBSERVATIONS AFTER PREFILTER M= 4142
# TIME-SPAN= 2022.7488 - 2009.0212 = 13.7276
# OBSERVATIONS: USED M=  4142 REJECTED MTOT-M=    13 %USED=   99.6871
# N=  4 PARAMETERS
# MAXSIG= 175.00000
# MAXRES=  21.36312
# SCALE FACTOR FOR LENGTHS: SCL=  10.00000
# SCALE FACTOR FOR SIGMAS: SCLSIG=   1.00000
# CHI^2=   4798.163 DOF=  4138 CHI^2/DOF=   1.15954
# RMS=      5.994 SDEV=      5.994 MEAN=    0.01030
#  P #       PARAMETER +-    SIGMA %error PARAMETER NAME
# P 1 =     -1676.55409 +-   54.957   3.28 YZERO                              
# P 2 =         0.83348 +-    0.027   3.27 SLOPE                              
# P 3 =         6.32563 +-    0.131   2.06 ANNUAL AMPLITUDE                   
# P 4 =        -2.99118 +-    0.029   0.96 ANNUAL PHASE                       
#       T            LDETRENDED       SIG_OBS
     2009.02121        -0.74462         5.96126
     2009.02395        -8.28390         5.96449
     2009.02669       -18.64718         5.91173
     2009.02943       -14.06146         5.84820
     2009.03216       -16.37774         5.91173
     2009.03490       -12.34603         5.83528
     2009.03764       -19.02931         5.83851
     2009.04038       -16.63259         5.88266
     2009.04312       -16.78387         5.85466
     2009.04585       -21.16615         5.81697
     2009.04859       -19.11543         7.17376
     2009.05133       -16.97772         5.83528
     2009.05407       -18.28000         5.81805
     2009.05681       -11.20028         5.82989
     2009.05954       -10.40056         5.85466
     2009.06228       -17.03584         5.91711
     2009.06502       -12.90113         5.82666
     2009.06776       -14.82841         5.82235
     2009.07049       -15.27369         5.80405
     2009.07323        -9.53997         5.84066
     2009.07597        -8.27225         5.80189
     2009.07871       -11.16554         5.81051
     2009.08145       -12.18982         5.76528
     2009.08418        -9.60710         5.84497
     2009.08692        -7.95038         5.80728
     2009.08966       -20.42666         5.81159
     2009.09240       -17.66695         5.76744
     2009.09514        -7.49923        10.14147
     2009.09787        -7.54351         5.80082
     2009.10061       -17.42979         5.79866
     2009.10335       -11.29307         5.82882
     2009.10561        -9.38296         7.29760
     2009.11804        -9.95032        11.17306
     2009.11978        -9.55876         5.81051
     2009.12251        -9.46105         5.73406
     2009.12525       -12.66033         5.75990
     2009.12799        -6.95361         5.78790
     2009.13073        -6.12389         5.90635
     2009.13347       -13.68617         5.79651
     2009.13620       -11.99946         5.79759
     2009.13894       -15.42674         5.80297
     2009.14168       -15.57902         5.87512
     2009.14442       -10.97230         5.83958
     2009.14614       -17.28174        12.13251
     2009.16721        -8.12930         9.79474
     2009.16906         0.02316         5.98926
     2009.17180        -7.99012         5.81266
     2009.17453       -11.34040         5.85466
     2009.17727        -4.15469         5.98603
     2009.18001       -13.00597         5.80297
     2009.18360        -9.03596         9.46415
     2009.18617        -6.73710         8.33995
     2009.18851       -12.78605         6.55567
     2009.19096       -14.79910         5.88050
     2009.19370       -13.47338         5.83420
     2009.19644        -9.52466         5.85035
     2009.19917        -3.77994         5.84604
     2009.20191       -15.74022         5.83312
     2009.20465        -8.04650         5.87727
     2009.20739       -10.35779         5.97634
     2009.21013       -15.32707         5.91281
     2009.21286        -7.81335         5.93219
     2009.21560        -6.36863         5.84281
     2009.21834       -12.18891         5.82020
     2009.22108        -2.29320         5.81912
     2009.22381        -9.53848         5.87296
     2009.22655       -11.87776         5.82558
     2009.22929        -8.81404         5.82882
     2009.23203       -15.37032         6.23478
     2009.23442        -7.50732         6.76995
     2009.23842        -9.31565        10.02517
     2009.24372        -3.58207         8.69100
     2009.24572        -5.21473         5.86112
     2009.24846        -7.88202         5.85574
     2009.25119        -2.63830         6.00541
     2009.25393        -9.93158         5.99465
     2009.25667       -12.42886         5.89235
     2009.25941       -16.07814         5.84712
     2009.26214       -14.11743         5.88804
     2009.26488       -12.51071         5.86543
     2009.26762        -5.22199         5.89665
     2009.27036        -7.49927         5.81912
     2009.27310       -10.68755         5.86543
     2009.27583        -6.89284         5.86435
     2009.27857       -14.10012         5.88373
     2009.28131        -9.08140         5.94403
     2009.28405       -10.78068         5.83743
     2009.28679       -11.27496         5.86004
     2009.28952       -15.43624         5.85897
     2009.29226       -15.49553         5.89558
     2009.29500       -15.31881         5.90958
     2009.29774       -15.32109         5.81051
     2009.30047       -16.38537         5.81374
     2009.30321       -15.49465         5.84820
     2009.30595        -0.01294         5.92465
     2009.30869        -1.90622         5.85681
     2009.31143        -8.05550         5.81051
     2009.31416        -3.57978         5.85358
     2009.31690        -7.86706         5.82343
     2009.31964       -11.93535         5.83312
     2009.32238        -8.07863         5.82128
     2009.32512       -13.84191         5.98065
     2009.32785       -16.61019         5.96449
     2009.33059       -11.37347         5.77174
     2009.33333       -10.62676         5.81912
     2009.33607        -4.15004         5.91711
     2009.33880        -7.44932         5.86004
     2009.34154       -10.73760         5.86004
     2009.34428        -9.92388         5.80620
     2009.34702        -8.29017         5.76205
     2009.34976       -13.83545         5.88373
     2009.35249       -17.32673         5.83851
     2009.35523       -11.90301         5.89558
     2009.35797        -6.63829         5.86973
     2009.36071        -6.41058         5.94942
     2009.36344       -10.55386         5.83528
     2009.36618        -8.82614         5.83851
     2009.36892       -12.95742         5.85358
     2009.37166       -16.39870         5.84820
     2009.37440       -12.06798         5.82666
     2009.37713       -15.73527         5.99572
     2009.37987       -12.48055         6.14648
     2009.38261        -7.57883         5.89235
     2009.38535       -12.45611         5.86973
     2009.38809       -15.79539         5.86220
     2009.39082       -20.32468         5.85358
     2009.39356       -14.69096         5.85897
     2009.39630       -13.61624         5.88912
     2009.39904        -6.27652         5.87620
     2009.40177         1.65020         5.89235
     2009.40451        -8.62109         5.94403
     2009.40725        -6.58537         5.85251
     2009.40999        -4.55865         5.89989
     2009.41273       -16.16793         9.73551
     2009.41546        -2.22021         5.89450
     2009.41820        -5.68650         5.85358
     2009.42094        -9.43678         5.82020
     2009.42368        -6.49306         5.86435
     2009.42642       -10.37334         5.91496
     2009.42915        -8.71262         6.01295
     2009.43189        -8.11291         5.85897
     2009.43463        -7.80619         5.93542
     2009.43737        -9.20747         5.88266
     2009.44010       -15.63375         5.95373
     2009.44284       -19.49703         5.96772
     2009.44501       -13.36384         7.84570
     2009.93839         1.42794         9.13034
     2009.94387         2.13437         6.01618
     2009.94661         3.09409         5.98388
     2009.94935         1.06881         5.89665
     2009.95208         0.10153         5.89773
     2009.95482        -4.06175         5.90419
     2009.95756       -12.20604         6.25093
     2009.96030       -21.02532         5.91496
     2009.96303        -8.75960         5.91819
     2009.96577        -5.21288         5.97634
     2009.96851        -1.93216         5.98818
     2009.97125         2.31155         6.00218
     2009.97399        -0.21073         6.01834
     2009.97672        -5.37601         5.85143
     2009.97878        -9.65272         8.39487
     2009.99589        -7.74098         5.86220
     2009.99863       -12.03327         5.88804
     2010.00410        -1.71483         5.86112
     2010.00684        -9.05811         5.89019
     2010.00958       -10.07339         5.88050
     2010.01232       -22.77368         5.89127
     2010.01505       -10.18196         5.90850
     2010.01779        -7.92424         5.86543
     2010.02053        -3.67652         5.91711
     2010.02327       -14.03880         5.96772
     2010.02600        -5.85809         5.86327
     2010.02874         1.41363         5.91927
     2010.03148         3.25535         5.95265
     2010.03428        -3.12398         6.27462
     2010.03696        -3.45921         6.22293
     2010.03969         3.10851         6.01295
     2010.04243         1.87722         6.02803
     2010.04517         2.97594         5.94619
     2010.04791       -11.22334         6.19278
     2010.05065         0.72138         5.95696
     2010.05338         3.35310         6.10448
     2010.05612         3.46781         5.90419
     2010.05886         2.03653         6.05925
     2010.06160        -0.22275         5.83743
     2010.06433        -4.45503         5.83420
     2010.06707       -15.19931         5.85681
     2010.06981        -6.60760         6.00326
     2010.07255        -8.05788         6.02049
     2010.07529        -6.95516         6.01834
     2010.07802        -4.85944         5.82558
     2010.08076        -5.24372         5.81482
     2010.08350        -0.96701         5.78790
     2010.08584        -0.23695         7.33744
     2010.08898         7.53043         6.00972
     2010.09171         2.82215         5.83743
     2010.09445         1.55187         5.96342
     2010.09719        -2.97042         5.92681
     2010.09993        -3.23070         5.82128
     2010.10266        -1.25298         5.85466
     2010.10540        -2.24126         5.90635
     2010.10814        -0.97754         5.88481
     2010.11088        -2.11383         5.96988
     2010.11362         0.51789         5.80189
     2010.11635        -1.72739         5.84927
     2010.11909         0.08433         5.85358
     2010.12183        -6.45295         5.78251
     2010.12457         0.57777         5.78467
     2010.12731        -1.11652         5.89881
     2010.13004       -10.36580         5.90096
     2010.13278        -7.61508         5.93757
     2010.13552        -7.14836         6.08510
     2010.13826        -5.29464         5.96988
     2010.14099        -7.14893         5.76098
     2010.14373        -3.01421         5.99680
     2010.14647        -6.20849         6.01187
     2010.14921        -1.87877         5.89665
     2010.15195        -5.74205         5.82451
     2010.15468        -3.79234         5.82774
     2010.15742        -2.11962         5.87727
     2010.16016        -1.54890         5.96880
     2010.16290        -8.56818         5.84604
     2010.16564        -8.83846         5.89019
     2010.16837        -4.26075         5.82343
     2010.17111        -0.02403         5.82343
     2010.17385        -2.31431         5.81697
     2010.17659        -4.18559         5.81266
     2010.17932         1.79513         5.79759
     2010.18206         4.85284         5.99680
     2010.18480         1.97956         5.88696
     2010.18754         0.15928         5.79113
     2010.19045         3.12886         6.49537
     2010.19301        -6.60028         5.79866
     2010.19575        -0.16657         5.85466
     2010.19849        -6.02885         5.77605
     2010.20123       -10.07613         5.82666
     2010.20397        -6.37041         5.91065
     2010.20670       -12.87369         5.98926
     2010.20944        -4.93097         5.86435
     2010.21218        -3.16226         5.83851
     2010.21492        -4.73854         5.80836
     2010.21765        -3.19182         5.80943
     2010.22039        -3.49410         5.85466
     2010.22313       -10.44838         5.85251
     2010.22587        -2.99767         5.92573
     2010.22861        -0.14895         5.91711
     2010.23134         0.34577         5.96234
     2010.23408        -9.08351         5.93004
     2010.23682        -2.97379         5.96880
     2010.23956         3.88392         5.97849
     2010.24230         5.72164         6.13355
     2010.24503         0.00236         5.96880
     2010.24777         0.60308         5.99034
     2010.25051        -1.19720         6.10879
     2010.25325         5.31051         5.97526
     2010.25598         2.74323         5.98818
     2010.25872         6.74695         5.95157
     2010.26146         3.36767         6.08402
     2010.26420         3.83939         6.11094
     2010.26694         1.84210         5.95480
     2010.26967        -1.55118         6.03987
     2010.27241        -0.49746         6.04741
     2010.27515         1.78826         5.95480
     2010.27789        -0.43202         6.07756
     2010.28062         0.02870         5.83851
     2010.28336        -7.43859         5.99034
     2010.28610        -5.08987         6.09156
     2010.28884        -4.94915         5.87620
     2010.29158         3.29857         6.03341
     2010.29431        -0.90971         5.96772
     2010.29705        -1.65400         5.88589
     2010.29979         1.00372         6.00111
     2010.30253         4.89044         6.00003
     2010.30527        13.25616         6.08617
     2010.30800        11.10488         5.87943
     2010.31074         0.63659         5.95911
     2010.31348         2.35231         5.91388
     2010.31622         0.89203         5.93004
     2010.31895         6.31775         6.13571
     2010.32158         9.59356         6.55890
     2010.32540        12.23338        13.04457
     2010.32717         1.73590         7.08762
     2010.32991         3.96562         5.88804
     2010.33173        -2.33090        10.85971
     2010.34360        -3.73879         5.87081
     2010.34633        -4.81207         5.96988
     2010.34907        -2.71335         5.85143
     2010.35181        -3.23464         5.88589
     2010.35455        -1.65992         5.82666
     2010.35728        -3.78520         5.90635
     2010.36002        -6.42648         6.02910
     2010.36276        -3.42176         5.83420
     2010.36550        -5.29604         6.11525
     2010.36824        -9.80733         6.06895
     2010.37097        -0.36161         5.85358
     2010.37371         3.58911         5.90419
     2010.37645         7.42483         6.09156
     2010.37919        -1.50245         6.02480
     2010.38193         1.97826         6.14109
     2010.38466        -0.70502         5.98280
     2010.38740         1.85670         5.90419
     2010.39014        -2.45558         5.90527
     2010.39288        -3.27486         5.89665
     2010.39561        -6.14815         5.90527
     2010.39835        -1.13243         5.83958
     2010.40109        -4.92771         5.80728
     2010.40383        -1.24099         5.83635
     2010.40657        -0.33727         5.81697
     2010.40930        -0.03356         5.81697
     2010.41204        -4.18784         5.96126
     2010.41478         0.62588         5.84389
     2010.41752         5.07660         5.84066
     2010.42026         7.69932         5.91604
     2010.42299         5.15103         5.76528
     2010.42573        -2.09925         5.76098
     2010.42847        -5.65553         5.79651
     2010.43121         0.65219         5.82882
     2010.43394        -6.84509         5.80405
     2010.43668        -5.63638         5.90312
     2010.43942         1.91334         5.76744
     2010.44216        -7.89594         5.83097
     2010.44490       -10.27722         6.78826
     2010.44763        -6.40050         5.79220
     2010.45037       -14.06578         5.98495
     2010.45311        -4.68107         5.83205
     2010.45585        -3.14035         5.84497
     2010.45859        -2.09463         5.89127
     2010.46132        -5.10191         5.88912
     2010.46406        -6.09719         5.77390
     2010.46680         0.35352         5.87081
     2010.46954        -5.20676         5.85681
     2010.47227       -12.47204         5.89558
     2010.47501        -7.20332         5.82666
     2010.47775       -12.21960         6.06895
     2010.48049         2.66311         6.15832
     2010.48323        -1.52817         5.82989
     2010.48596         5.93655         5.86866
     2010.48870         4.63327         5.87943
     2010.49144         3.94099         5.83528
     2010.49418         6.49370         5.89342
     2010.49692        -0.11758         5.76959
     2010.49965         4.62014         5.78359
     2010.50239         3.65286         5.80082
     2010.50513         5.80158         5.75236
     2010.50787         1.49329         5.80836
     2010.51060        -3.98499         5.84820
     2010.51340        -2.30732         5.93004
     2010.51608         1.67045         5.77713
     2010.51882         1.34217         5.84712
     2010.52156         3.27888         5.87296
     2010.52429         7.55360         5.86004
     2010.52703        -0.26468         6.27139
     2010.52977         7.51704         5.94296
     2010.53251         0.03176         5.74698
     2010.53525         5.98248         5.82666
     2010.53798        10.63419         5.93004
     2010.54072        -0.12009         5.80836
     2010.54346         0.09563         5.92681
     2010.54620        -2.04265         5.90742
     2010.54893        -2.94393         5.84066
     2010.55167         0.29878         5.80728
     2010.55441        10.60850         5.85251
     2010.55715        -3.61778         5.80082
     2010.55989        -2.79606         5.78790
     2010.56262         8.65066         5.97419
     2010.56536         3.47037         5.84389
     2010.56810        -4.64991         5.83958
     2010.57084         3.16381         5.87835
     2010.57357         7.01753         5.99465
     2010.57631         0.80925         6.02803
     2010.57905         4.83696         5.95911
     2010.58179         2.23668         5.94296
     2010.58453         6.41540         5.83851
     2010.58726        -2.77988         5.98172
     2010.59000         9.42184         5.94511
     2010.59274         8.53055         5.85143
     2010.59548         7.69227         5.97096
     2010.59822        12.21799         5.94619
     2010.60095        10.27971         5.87512
     2010.60369         2.11443         5.94619
     2010.60643        11.41414         5.91388
     2010.60917         3.74486         5.97526
     2010.61190         4.23158         6.33492
     2010.61464         4.06530         6.19601
     2010.61738        -2.17298         5.80836
     2010.62012         4.32574         5.82666
     2010.62286         1.78145         5.82774
     2010.62559         6.90017         5.87296
     2010.62833        13.11389         6.29723
     2010.63107         2.58461         6.51259
     2010.63381         7.08333         5.82020
     2010.63655         6.72604         5.87189
