# ================= DQRFIT RESULTS ================
# INPUT FILE: series/BCES.rad
# OUTPUT: LDETRENDED
# FILTER FUNCTION: f(t)
# f(t)=+line(t)+annual(t)
# line(t)=+P 1+P 2*t
# annual(t)=+P 3*sin(2*pi*t+P 4)
# heav(t)=(t<0?0:1)
# TOTAL OBSERVATIONS MTOT= 2846
# INITIAL TIME INTERVAL= 2022.7349 - 2012.5886 = 10.1463
# TOTAL OBSERVATIONS AFTER PREFILTER M= 2826
# TIME-SPAN= 2022.7349 - 2012.6242 = 10.1107
# OBSERVATIONS: USED M=  2826 REJECTED MTOT-M=    20 %USED=   99.2973
# N=  4 PARAMETERS
# MAXSIG= 175.00000
# MAXRES=  25.65678
# SCALE FACTOR FOR LENGTHS: SCL=  10.00000
# SCALE FACTOR FOR SIGMAS: SCLSIG=   1.00000
# CHI^2=   2879.661 DOF=  2822 CHI^2/DOF=   1.02043
# RMS=      6.042 SDEV=      6.043 MEAN=    0.02773
#  P #       PARAMETER +-    SIGMA %error PARAMETER NAME
# P 1 =      1302.80770 +-   91.260   7.00 YZERO                              
# P 2 =        -0.64496 +-    0.045   7.02 SLOPE                              
# P 3 =         5.39958 +-    0.152   2.81 ANNUAL AMPLITUDE                   
# P 4 =        -2.72901 +-    0.036   1.33 ANNUAL PHASE                       
#       T            LDETRENDED       SIG_OBS
     2012.62696        -1.03090         5.65894
     2012.62970         0.77887         5.41347
     2012.63244        -0.17937         5.49024
     2012.63518         8.18940         5.55085
     2012.63791         2.58616         5.49631
     2012.64065         6.56093         5.46398
     2012.64339         9.63269         5.42458
     2012.64613         5.11346         5.43166
     2012.64887         7.99623         5.40539
     2012.65160         9.67799         5.51045
     2012.65434        -1.20424         5.52661
     2012.65708         8.29852         5.59025
     2012.65982         5.46129         5.64884
     2012.66256         3.06506         5.53570
     2012.66529         2.00282         5.38216
     2012.66803         3.77559         5.40034
     2012.67077        11.22935         5.49024
     2012.67351        -2.68188         5.41044
     2012.67624         1.87988         5.43469
     2012.67898         5.22665         5.59227
     2012.68172         3.29842         5.51247
     2012.68446         4.45718         5.54277
     2012.68720         5.86395         5.86401
     2012.68993         7.23671         5.42862
     2012.69267        11.15448         6.02664
     2012.69541         4.94825         5.79835
     2012.69815         5.06701         5.90239
     2012.70089         2.96178         5.63571
     2012.70362        -0.50646         5.59227
     2012.70636         6.12531         5.62965
     2012.70910        -0.99793         5.41145
     2012.71184         4.08684         5.46701
     2012.71457         4.58961         5.44984
     2012.71731         5.02237         5.45691
     2012.72005         1.35314         5.43873
     2012.72279         2.43290         5.40640
     2012.72553         3.99867         5.53166
     2012.72826        -2.30057         5.41044
     2012.73100         6.97020         5.77511
     2012.73374         3.62397         5.67106
     2012.73648        -1.93927         5.44782
     2012.73921        -3.39950         5.53570
     2012.74195         2.54026         5.64884
     2012.74469         0.30903         5.58318
     2012.74743         4.01180         5.49227
     2012.75017         0.53456         5.57510
     2012.75290         1.39733         5.69127
     2012.75564         3.09109         5.42862
     2012.75838         0.68286         5.45893
     2012.76112         4.08462         5.42559
     2012.76386         2.71039         5.41549
     2012.76659         7.42916         5.53873
     2012.76933         4.47392         5.48620
     2012.77207         0.69069         5.55591
     2012.77481        -3.89055         5.52055
     2012.77754         2.60622         5.48923
     2012.78028        10.85299         5.68016
     2012.78302        12.54775         5.78319
     2012.78576        -4.81248         5.68319
     2012.78850        -3.38372         5.56904
     2012.79199        -1.77946         9.22583
     2012.79397         0.93381         5.58722
     2012.79671         0.96858         5.52863
     2012.79945         5.69235         5.65187
     2012.80219         8.52711         5.65995
     2012.80492         2.43588         5.57409
     2012.80766         0.79364         5.55186
     2012.81040        -5.08359         5.53873
     2012.81314        -4.89383         5.50338
     2012.81587        -6.79606         5.47206
     2012.81861        -6.18429         5.63874
     2012.82135        -1.11553         5.61551
     2012.82409         1.63524         5.82562
     2012.82683         4.54600         5.59530
     2012.82956        -0.09523         5.60136
     2012.83230        -4.30046         5.67915
     2012.83504        -4.36970         5.74178
     2012.83778        -0.02193         5.58722
     2012.84052         0.89683         5.51449
     2012.84273         4.81726         7.18126
     2012.84685       -13.63708         9.40968
     2012.84873        -3.63587         5.86502
     2012.85147         7.22690         5.72460
     2012.85420        -5.24034         5.55186
     2012.85694        -4.48957         5.58116
     2012.85968        -0.36581         5.59429
     2012.86242        -3.18804         5.52358
     2012.86516         1.85873         5.60439
     2012.86789        -7.80551         5.82057
     2012.87063        -5.60674         5.47509
     2012.87337       -13.55998         5.61854
     2012.87611        -3.69121         5.55692
     2012.87885         4.03255         5.52863
     2012.88158        -1.19768         5.49530
     2012.88432         1.16109         5.70440
     2012.88706        -3.93315         5.99028
     2012.88980        -2.75638         5.64076
     2012.89253       -11.90062         5.46297
     2012.89527        -6.65285         5.91855
     2012.89801        -6.03209         5.50843
     2012.90075        -9.77232         5.51348
     2012.90349       -14.24555         5.63571
     2012.90622        -4.70779         5.51853
     2012.90896        -1.42902         5.58722
     2012.91172        -5.37924         5.63369
     2012.91444        -2.47749         5.51045
     2012.91718         1.48628         5.52257
     2012.91991         0.27904         5.53469
     2012.92266        -5.81219         5.56702
     2012.92540        -3.21442         5.53065
     2012.92813        -5.20166         5.58015
     2012.93086        -7.33990         5.62359
     2012.93360        -6.01713         5.61348
     2012.93634        -3.06636         5.70339
     2012.93908        -7.29860         5.59328
     2012.94182        -7.55383         5.48216
     2012.94456         5.06094         5.59530
     2012.94729        -8.16230         5.54277
     2012.95002        -2.16154         5.55591
     2012.95277         2.06323         5.47812
     2012.95551        -1.45400         5.38721
     2012.95824         7.35576         5.39024
     2012.96098         1.03053         5.71248
     2012.96372        -0.23971         5.64682
     2012.96646        -3.24394         5.41044
     2012.96919        -5.20917         5.55894
     2012.97193        -6.63041         5.61450
     2012.97467        -6.11264         5.40741
     2012.97741        -9.30388         5.49631
     2012.98015        -7.84011         5.37610
     2012.98288        -8.22535         5.39226
     2012.98562        -1.62758         5.40943
     2012.98836        -9.88781         5.49227
     2012.99110        -5.58705         5.38216
     2012.99384       -11.95928         5.43166
     2012.99657       -11.45252         5.39933
     2012.99931        -8.61075         5.44984
     2013.00205        -5.10798         5.45893
     2013.00479       -11.91522         5.51651
     2013.00752       -11.04145         5.37206
     2013.01026        -9.98569         5.42761
     2013.01300        -4.17692         5.49227
     2013.01574        -3.71916         5.69127
     2013.01848        -6.90539         5.58318
     2013.02121        -6.11662         5.45388
     2013.02395        -9.09486         5.67106
     2013.02669        -9.42909         5.64480
     2013.02943        -9.03033         5.53570
     2013.03216       -11.00256         5.46600
     2013.03492       -11.82579         5.44984
     2013.03764        -8.63103         5.49227
     2013.04038       -15.89526         5.44782
     2013.04313       -12.67649         5.63470
     2013.04585        -8.58573         5.63369
     2013.04859        -7.62797         5.72157
     2013.05133        -8.68620         5.45186
     2013.05407        -9.48743         5.46499
     2013.05681        -6.80367         5.60338
     2013.05954        -9.86390         5.59631
     2013.06228        -5.28914         6.01452
     2013.06502        -8.76637         5.94179
     2013.06776        -6.20461         5.61551
     2013.07049        -7.60784         5.55995
     2013.07323       -12.38107         5.46095
     2013.07597        -8.21931         5.67409
     2013.07871        -1.08454         5.61348
     2013.08145         1.00122         5.71652
     2013.08418        -4.96401         5.64278
     2013.08692       -13.45225         5.55389
     2013.08967       -19.72547         5.46196
     2013.09240        -7.64871         5.43873
     2013.09512         0.05804         7.24692
     2013.09787         3.35082        11.89267
     2013.10061        -3.82742         5.87512
     2013.10335        -6.80865         5.59530
     2013.10609       -16.19288         5.59833
     2013.10882       -12.13112         5.66803
     2013.11156       -13.77935         5.52257
     2013.11430       -10.77359         5.46802
     2013.11701       -19.50284         5.58015
     2013.11977        -6.15506         5.84077
     2013.12251       -13.98629         5.47004
     2013.12525       -17.55652         5.69430
     2013.12799        -7.04776         5.54277
     2013.13073        -8.29199         5.50237
     2013.13347        -7.70423         5.61955
     2013.13622         5.02655         7.03681
     2013.13894        -0.16569         8.18536
     2013.14168         3.55707         7.87423
     2013.14442         9.22484         7.87019
     2013.14717        -1.59638         8.84500
     2013.14909       -20.30415        12.32906
     2013.15351         9.05170         9.41878
     2013.15537       -17.90010         5.63874
     2013.15811       -12.05633         5.91350
     2013.16084       -12.83257         5.43772
     2013.16360       -16.74879         5.87310
     2013.16632       -12.49604         5.46499
     2013.16906        -0.68927         5.63268
     2013.17180       -10.68850         5.74077
     2013.17453        -6.28374         5.61348
     2013.17728       -10.73197         5.66197
     2013.18001       -11.63421         5.72662
     2013.18275       -12.16244         5.52156
     2013.18548       -10.98768         5.45691
     2013.18822        -6.60491         5.52055
     2013.19096       -11.85314         5.49934
     2013.19370        -5.94038         5.63066
     2013.19643        -9.03162         5.82259
     2013.19917        -5.34685         5.68420
     2013.20191        -4.57308         5.56702
     2013.20465        -0.86831         5.57813
     2013.20739        -0.93455         5.82865
     2013.21013        -3.37578         5.63571
     2013.21287        -8.31101         5.53772
     2013.21560        -5.97225         6.00947
     2013.21834         5.70151         7.55098
     2013.22108        -8.69772         5.55186
     2013.22381        -8.78695         5.54782
     2013.22655        -6.20619         5.66298
     2013.22929        -8.26542         5.62763
     2013.23203        -6.21466         5.50944
     2013.23477        -7.95489         5.43267
     2013.23750       -10.76113         5.74380
     2013.24024        -8.04436         5.64076
     2013.24298        -8.27459         5.54378
     2013.24572        -4.03183         5.57813
     2013.24846        -4.99606         5.59530
     2013.25119        -2.30730         5.65389
     2013.25393        -1.47353         5.73774
     2013.25667        -4.96476         5.90037
     2013.25939         5.81099         5.69329
     2013.26214        -3.26423         5.61652
     2013.26488         1.45753         5.63268
     2013.26762        -6.18470         5.64379
     2013.27036        -5.66494         5.61551
     2013.27310        -3.60017         5.83875
     2013.27585        -4.23239         5.77208
     2013.27857        -0.53264         5.74178
     2013.28131         3.06213         5.71753
     2013.28405        -2.34211         5.58621
     2013.28679        -5.69834         5.74481
     2013.28952        -8.32657         5.59530
     2013.29226        -4.07581         5.69026
     2013.29500        -5.97004         5.78420
     2013.29774       -10.31128         5.60237
     2013.30047       -14.74351         5.76905
     2013.30321        -7.62775         5.66904
     2013.30595        -8.76498         5.69632
     2013.30869       -10.88221         5.74178
     2013.31143       -12.90045         5.55490
     2013.31416        -2.76968         5.55490
     2013.31690         2.24808         5.77309
     2013.31964        -0.53515         5.77309
     2013.32238         0.83761         5.74481
     2013.32512        -1.49462         5.96704
     2013.32785        -0.80885         5.55894
     2013.33059        -9.52709         5.57611
     2013.33880        -4.28579         5.54681
     2013.34154         2.59598         5.79026
     2013.34428         0.87774         5.59227
     2013.34701         2.28550         5.64480
     2013.34976        -5.24873         5.53267
     2013.35249       -13.91696         5.55692
     2013.35523        -8.38820         5.83269
     2013.35797         3.74257         5.65490
     2013.36071         1.02134         5.58419
     2013.36344         0.41010         5.71753
     2013.36618        -2.46313         5.68622
     2013.36892        -1.18137         5.57207
     2013.37166        -3.94960         5.65086
     2013.37441        -3.47483         5.69632
     2013.37713        -3.62207         5.59328
     2013.37987        -6.33130         5.65793
     2013.38261        -6.74354         5.79936
     2013.38533        -5.38778         5.71652
     2013.38809        -8.49801         5.91552
     2013.39082         3.08876         5.88623
     2013.39356        -4.92147         5.60439
     2013.39630        -0.98371         5.56096
     2013.39904        -0.04194         5.59732
     2013.40177        -0.34218         5.68420
     2013.40451        -2.40541        16.68792
     2013.40725         3.83735         5.60237
     2013.40999         4.03812         5.64783
     2013.41273         0.10189         5.57106
     2013.41546        -3.13535         5.78319
     2013.41820        -4.22558         5.60742
     2013.42093         2.67817         5.68925
     2013.42368        -0.11305         5.77915
     2013.42642        -4.88928         5.72460
     2013.42915        -4.06052         5.57005
     2013.43189         9.74125         5.84582
     2013.43463         8.31101         5.69026
     2013.43737        -0.65322         5.63167
     2013.44010         2.83154         5.66702
     2013.44284         2.38131         5.57813
     2013.44558        -3.54792         5.71551
     2013.44832        -4.69116         5.65894
     2013.45106         3.25561         5.88320
     2013.45379         2.43037         5.77309
     2013.45653        -4.38586         5.58318
     2013.45927        -0.95709         5.67207
     2013.46201        -0.82433         5.74582
     2013.46475         3.47744         5.89633
     2013.46748        -2.78380         5.65288
     2013.47022         0.66297         5.63066
     2013.47296         1.45873         5.61146
     2013.47570        -1.27050         5.46903
     2013.47843         4.90027         5.55389
     2013.48117         0.93403         5.59833
     2013.48391         2.56280         5.57813
     2013.48665        -3.89544         5.65692
     2013.48939         5.04633         5.63066
     2013.49212        -1.77691         5.61955
     2013.49486         0.13686         5.56601
     2013.49760         5.97763         5.60540
     2013.50034         1.00739         5.76804
     2013.50308        -1.68284         5.80542
     2013.50581         5.28792         5.67106
     2013.50855         1.56569         5.51550
     2013.51129        11.21346         5.78521
     2013.51403         1.99222         5.57308
     2013.51676         6.46799         5.62763
     2013.51950         2.18475         5.57106
     2013.52224         7.63952         5.81148
     2013.52498         8.75728         5.77612
     2013.52772         3.76205         5.54883
     2013.53045         3.46982         5.63571
     2013.53319         1.57858         5.60237
     2013.53593         0.89135         5.52762
     2013.53867         2.88011         5.59227
     2013.54141         2.72488         5.66803
     2013.54414         1.91565         5.56500
     2013.54688        -0.07759         5.45489
     2013.54962         6.92118         5.65591
     2013.55236         6.01194         5.52055
     2013.55509         5.22871         5.79228
     2013.55783         5.95047         5.62157
     2013.56058         3.66725         5.64783
     2013.56331        -0.39399         5.67005
     2013.56605         3.39277         5.55894
     2013.56878        11.70954         5.62460
     2013.57152         9.50130         5.53065
     2013.57424         6.36806         5.62763
     2013.57700         3.64883         5.81350
     2013.57974         1.53560         5.59833
     2013.58247        12.17237         5.65591
     2013.58521        12.80513         5.58318
     2013.58795         7.01890         5.62662
     2013.59069         2.29966         5.57813
     2013.59342         3.98843         5.62258
     2013.59616         7.25820         5.71046
     2013.59890        11.93596         5.83774
     2013.60164        11.10873         5.65894
     2013.60438         4.23049         5.76703
     2013.60711         7.74626         5.68218
     2013.60985         6.42802         5.59631
     2013.61259         1.70379         5.53570
     2013.61533         9.97556         5.91956
     2013.61807        15.66432         5.91148
     2013.62081        18.19609         5.85289
     2013.62354         5.06985         5.46398
     2013.62628        13.96862         5.63571
     2013.62902        -0.33361         5.59025
     2013.63175        16.01215         5.73167
     2013.63449        10.42692         5.84582
     2013.63723        14.85868         5.61854
     2013.63997        13.33845         5.77814
     2013.64272         9.36622         5.60540
     2013.64545        12.85999         5.66500
     2013.64818         8.49474         5.57005
     2013.65092        10.22951         5.62662
     2013.65366        13.54228         5.60035
     2013.65639        10.89204         5.71551
     2013.65913        10.13981         6.11150
     2013.66187        14.50157         6.07412
     2013.66461         3.51334         5.58722
     2013.66735        12.90511         5.59429
     2013.67007        16.74287         5.66096
     2013.67282         9.45664         5.83673
     2013.67556         9.82640         5.90340
     2013.67830        12.52717         5.84380
     2013.68104        17.52394         5.72157
     2013.68377         1.56170         5.86805
     2013.68651         4.96447         5.53469
     2013.68925        10.46023         5.70945
     2013.69199         6.71400         5.64884
     2013.69472        12.71576         5.84380
     2013.69746         8.23253         5.48216
     2013.70016         8.74027         5.70642
     2013.70916        -1.46693         8.80460
