# ================= DQRFIT RESULTS ================
# INPUT FILE: series/BCFJ.rad
# OUTPUT: LDETRENDED
# FILTER FUNCTION: f(t)
# f(t)=+line(t)+annual(t)
# line(t)=+P 1+P 2*t
# annual(t)=+P 3*sin(2*pi*t+P 4)
# heav(t)=(t<0?0:1)
# TOTAL OBSERVATIONS MTOT= 3314
# INITIAL TIME INTERVAL= 2022.7488 - 2009.0075 = 13.7413
# TOTAL OBSERVATIONS AFTER PREFILTER M= 3287
# TIME-SPAN= 2022.7488 - 2009.0075 = 13.7413
# OBSERVATIONS: USED M=  3287 REJECTED MTOT-M=    27 %USED=   99.1853
# N=  4 PARAMETERS
# MAXSIG= 175.00000
# MAXRES=  90.64222
# SCALE FACTOR FOR LENGTHS: SCL=  10.00000
# SCALE FACTOR FOR SIGMAS: SCLSIG=   1.00000
# CHI^2=  52798.525 DOF=  3283 CHI^2/DOF=  16.08240
# RMS=     22.383 SDEV=     22.378 MEAN=    0.61527
#  P #       PARAMETER +-    SIGMA %error PARAMETER NAME
# P 1 =    -15184.26869 +-  254.399   1.68 YZERO                              
# P 2 =         7.54345 +-    0.126   1.67 SLOPE                              
# P 3 =         6.87595 +-    0.560   8.15 ANNUAL AMPLITUDE                   
# P 4 =        -2.19896 +-    0.067   3.06 ANNUAL PHASE                       
#       T            LDETRENDED       SIG_OBS
     2009.00752        14.62945        21.82799
     2009.01026        17.48280        21.71169
     2009.01300        30.66714        21.76784
     2009.01574        21.96849        21.72372
     2009.01848        21.49084        21.81997
     2009.02395        12.22553        22.26511
     2009.02669         8.21988        21.69565
     2009.02943         6.41223        21.78789
     2009.03216         5.20857        21.92023
     2009.03490        10.83592        21.90018
     2009.03764         5.06027        22.06861
     2009.04312         7.59496        21.94429
     2009.04585        10.31631        22.06861
     2009.04859         6.20566        22.00444
     2009.05133         9.60200        21.96835
     2009.05407         7.65835        22.02851
     2009.05681        10.66270        21.86809
     2009.06228        -0.58061        21.98840
     2009.06502         1.76774        22.91478
     2009.06776         4.27609        21.95632
     2009.07049         7.08543        22.19293
     2009.07323        13.50378        21.93627
     2009.07597        13.10713        21.79190
     2009.08145        14.90182        21.89216
     2009.08418        15.73817        21.59540
     2009.08692         8.56152        21.74378
     2009.08966         7.64486        21.65956
     2009.09240         6.81921        21.89216
     2009.09514        13.03556        21.87612
     2009.10061        16.21625        21.65154
     2009.10335        14.75660        21.76784
     2009.10609        15.33795        21.84804
     2009.10882        16.64129        21.79591
     2009.11156        13.30064        21.76383
     2009.11430        10.35499        23.38398
     2009.11978         5.26068        21.78388
     2009.12251         5.88203        22.00846
     2009.12525         6.92238        21.80794
     2009.12799        12.08272        21.78388
     2009.13073        15.17707        21.98840
     2009.13347         8.68742        21.70768
     2009.13894         9.06711        21.86007
     2009.14168         5.12146        21.86007
     2009.14442         5.58681        21.69565
     2009.14715         3.38315        22.18491
     2009.14989         5.58150        22.35334
     2009.15263         4.85185        21.87612
     2009.15811         8.42354        22.28516
     2009.16084         3.44189        21.79190
     2009.16358        11.33424        21.98840
     2009.16632        11.67058        22.08866
     2009.16906        13.21393        22.37339
     2009.17180        15.13028        21.93226
     2009.17727        16.58197        22.50172
     2009.18001        11.98532        21.93627
     2009.18275         5.12467        21.98840
     2009.18548         1.48501        22.01247
     2009.18822         2.04736        22.18491
     2009.19096         6.23771        21.98038
     2009.19644        15.48540        22.38943
     2009.19917        16.38775        21.93627
     2009.20191        12.42910        21.59540
     2009.20465         8.67244        21.53123
     2009.20739        10.97779        21.49514
     2009.21013         7.44914        21.66758
     2009.21560        14.16183        21.54727
     2009.21834         9.54218        21.55529
     2009.22108        13.32253        21.58336
     2009.22381         8.10687        21.59139
     2009.22655         9.37222        21.67560
     2009.22929         7.77857        21.63550
     2009.23477        11.28426        21.97236
     2009.23745        15.74104        22.18892
     2009.24372        20.16371        31.79356
     2009.24572        20.10865        22.10069
     2009.24846        16.41300        21.79190
     2009.25393        14.12769        22.48969
     2009.25667         8.91404        21.95231
     2009.25941         8.58439        21.89216
     2009.26214        13.07373        21.97637
     2009.26488        11.57008        21.84002
     2009.26762        12.98043        21.95231
     2009.27310        11.41712        21.94028
     2009.27583        13.68447        21.90820
     2009.27857        12.73982        21.95231
     2009.28131        12.31116        21.95231
     2009.28405        16.58851        22.61000
     2009.28679        12.60486        22.12475
     2009.29226         9.58955        22.22501
     2009.29500        10.88090        22.16887
     2009.29774         8.94825        22.23303
     2009.30047         9.14759        22.39745
     2009.30321        10.74694        22.19293
     2009.30595        15.33829        22.56990
     2009.31143        14.99598        22.14079
     2009.31416        14.36133        22.23303
     2009.31690         7.04168        22.29720
     2009.31964         4.32202        22.22902
     2009.32238         9.06037        22.34131
     2009.32512         6.02772        22.73031
     2009.33059        11.70641        22.24506
     2009.33333         8.58176        22.29319
     2009.33607        16.00011        22.42954
     2009.33880        18.43945        22.38542
     2009.34154        21.49480        22.45761
     2009.34428        15.39515        22.27714
     2009.34976        13.02984        22.45761
     2009.35249         7.65419        22.47365
     2009.35523         9.54654        22.33730
     2009.35797        17.05188        22.34532
     2009.36071        21.15023        22.54182
     2009.36344        13.63958        22.26511
     2009.36892        12.87327        22.51776
     2009.37166        17.02262        22.40146
     2009.37440        15.74397        22.32928
     2009.37713         8.11631        22.35735
     2009.37987        12.87666        22.70624
     2009.38261        14.92501        22.49370
     2009.38809         4.15670        22.26912
     2009.39082        10.13505        22.33730
     2009.39356         9.19140        22.29319
     2009.39630         8.60674        22.28115
     2009.39904        14.20209        22.40948
     2009.40177        14.74344        22.36136
     2009.40725        18.87913        22.27714
     2009.41005        20.01205        23.87725
     2009.41273        16.72283        22.27313
     2009.41546        11.59417        22.17689
     2009.41820        10.88352        22.24105
     2009.42094         7.41887        22.38542
     2009.42642        10.41756        22.32126
     2009.42915        13.25391        22.57792
     2009.43189        10.64926        23.16342
     2009.43463        14.39960        22.30923
     2009.43737        19.45295        22.44558
     2009.44010        14.87930        22.26912
     2009.44558        17.15299        22.49370
     2009.44832        19.20534        22.50172
     2009.45106        15.99469        22.57391
     2009.45379        20.75403        22.57792
     2009.45653        15.28838        22.88671
     2009.45927        17.82873        22.27714
     2009.46475        22.29442        22.82655
     2009.46748        16.13277        23.03910
     2009.47022        18.04912        22.51776
     2009.47296        19.04746        22.24907
     2009.47570        20.63081        22.40146
     2009.47843        21.98516        22.52177
     2009.48391        17.29685        22.57792
     2009.48665         8.97120        22.95488
     2009.48939        15.87955        22.65812
     2009.49212        18.63389        22.65812
     2009.49486        19.82924        22.69822
     2009.49737        14.73631        25.16856
     2009.50034         9.69594        22.47766
     2009.50308         9.96528        22.36136
     2009.50581        11.05763        22.51375
     2009.50855        13.13598        22.39745
     2009.51129        19.30732        22.61401
     2009.51403        16.60067        22.58193
     2009.51676        15.81202        22.74635
     2009.51950        12.68237        22.54182
     2009.52224        11.09671        22.41349
     2009.52498         7.14506        22.50172
     2009.52772        16.38641        22.89072
     2009.53045        13.01275        22.59797
     2009.53319        10.96010        22.24506
     2009.53593        17.75345        22.38943
     2009.53867        15.45280        22.45761
     2009.54141        15.24114        22.24105
     2009.54414        25.06849        22.89072
     2009.54688        20.39584        22.82254
     2009.54962        20.17218        22.54583
     2009.55236        19.47753        22.71427
     2009.55509        18.39688        24.66728
     2009.55783        30.94423        22.65010
     2009.56057        18.15857        23.60054
     2009.56331        17.48292        23.37997
     2009.56605        16.61327        22.95889
     2009.56878        15.68161        22.29319
     2009.57152        21.12896        22.81853
     2009.57426        18.00231        22.51776
     2009.57700        22.68766        23.08722
     2009.57974        22.03400        22.62203
     2009.58247        25.50135        22.82254
     2009.58521        24.34570        22.99098
     2009.58795        18.91204        22.75838
     2009.59069        20.92239        22.66213
     2009.59342        14.27974        23.04311
     2009.59616        24.11409        22.92681
     2009.59890        18.86343        22.20095
     2009.60164        19.75078        22.65010
     2009.60438        15.11113        22.51375
     2009.60711        25.09347        23.11930
     2009.60985        19.36582        22.54182
     2009.61259        20.70617        22.38943
     2009.61533        15.36252        22.24907
     2009.61807        23.09686        22.42954
     2009.62080        24.97121        22.54583
     2009.62354        21.66256        22.43355
     2009.62628        18.78090        22.58995
     2009.62902        20.41625        23.07118
     2009.63147        18.41075        25.34100
     2009.63529        21.83192        35.34667
     2009.63723        15.79929        23.93339
     2009.63997        20.60064        23.01905
     2009.64271        20.05099        22.68218
     2009.64544        23.63533        22.71828
     2009.64818        21.06068        22.86666
     2009.65092        17.82503        23.04712
     2009.65366        15.71538        23.15540
     2009.65639        11.55172        22.33329
     2009.65913        20.40007        22.28516
     2009.66187        18.00542        22.59797
     2009.66461        25.92776        22.35735
     2009.66735        16.91411        23.01504
     2009.67008        19.52946        22.67015
     2009.67282        18.93781        22.55385
     2009.67556        24.86915        22.34933
     2009.67830        21.39950        22.83858
     2009.68104        23.48285        22.84661
     2009.68377        16.39819        22.42151
     2009.68651        29.57454        22.18892
     2009.68925        22.77089        22.22902
     2009.69199        19.12624        22.42954
     2009.69472        13.90558        23.15941
     2009.69746        20.19493        22.32928
     2009.70020        24.00028        22.73031
     2009.70294        25.42362        22.26912
     2009.70568        18.45497        22.14079
     2009.70841        17.85332        22.54182
     2009.71115        17.01767        22.90676
     2009.71389        24.88701        23.86121
     2009.71663        21.17236        22.46162
     2009.71897        22.18572        26.37165
     2009.72216        17.20162        23.05915
     2009.72484        21.93040        22.87468
     2009.72758        17.00275        23.18748
     2009.73032        23.32710        22.84259
     2009.73305        27.08444        22.97493
     2009.73579        23.15879        22.52578
     2009.73853        19.40314        22.26511
     2009.74127        20.44748        23.66069
     2009.74401        25.81683        22.89473
     2009.74674        32.76418        22.15684
     2009.74948        20.71653        22.34933
     2009.75222        17.53187        22.28115
     2009.75496        14.30322        22.40547
     2009.75770        12.35257        22.48167
     2009.76043        12.67892        22.48568
     2009.76317        24.48026        22.36938
     2009.76591        16.96261        22.12475
     2009.76865        16.13796        22.52979
     2009.77138        12.84830        22.36938
     2009.77412         9.67165        22.59396
     2009.77686        16.38000        22.25709
     2009.77960        18.37735        22.12876
     2009.78234        20.44469        22.16486
     2009.78507        21.94904        22.36136
     2009.78781        21.60939        24.39057
     2009.79055        12.26073        23.50429
     2009.79329        17.93008        23.20352
     2009.79603        18.16143        23.10326
     2009.79876        18.97578        23.14337
     2009.80150        16.34712        23.15540
     2009.80424        20.45347        23.13936
     2009.80698        21.47482        23.34789
     2009.80971        25.90916        23.09925
     2009.81245        30.11051        23.50830
     2009.81519        27.95586        23.66871
     2009.81793        23.43821        23.48023
     2009.82067        26.62055        23.40403
     2009.82340        16.31290        22.68218
     2009.82614        18.78225        22.78244
     2009.82888        17.84259        22.99900
     2009.83162        24.17894        23.19149
     2009.83436        13.97329        22.93884
     2009.83709        14.50664        22.98697
     2009.83983        15.70198        23.11529
     2009.84257        15.39033        22.80249
     2009.84531        20.47668        23.50028
     2009.84804        27.94702        23.27972
     2009.85078        24.64137        22.95889
     2009.85352        26.05772        22.86666
     2009.85626        20.53207        22.90676
     2009.85900        15.53541        23.22357
     2009.86173        17.17076        22.97894
     2009.86447        22.64311        24.31437
     2009.86721        29.32445        23.43612
     2009.86995        22.46980        22.91879
     2009.87269        31.08015        23.00702
     2009.87542        23.28150        23.10326
     2009.87816        23.94984        23.40403
     2009.88090        15.00919        23.37997
     2009.88364        19.67454        22.75838
     2009.88637        24.65588        22.91879
     2009.88911        28.60723        22.61401
     2009.89185        23.38258        22.65010
     2009.89459        18.63993        22.54182
     2009.89733        14.47227        22.34131
     2009.90006        13.62562        22.35735
     2009.90280        16.17697        22.63406
     2009.90554        19.92631        22.59396
     2009.90828        15.60966        22.51375
     2009.91102        17.18001        22.41750
     2009.91375        17.37936        22.27714
     2009.91649        13.14870        22.26912
     2009.91923         9.64005        22.56187
     2009.92197        10.07340        22.46162
     2009.92470         5.30374        22.39745
     2009.92744         1.40209        22.04856
     2009.93018        -1.53156        22.06059
     2009.93292         3.75979        22.28918
     2009.93566         6.27913        22.27313
     2009.93839        10.57648        34.82934
     2009.94113        11.36883        22.20496
     2009.94387        11.18317        22.76239
     2009.94661         5.43752        22.83056
     2009.94935         3.50287        22.47365
     2009.95208         3.53622        22.32527
     2009.95482         2.39856        22.29319
     2009.95756         9.33591        22.22902
     2009.96030         6.78926        22.08064
     2009.96303         8.83960        22.55385
     2009.96577         6.84895        22.85463
     2009.96851         3.61430        22.73432
     2009.97125         9.52965        22.72229
     2009.97399         6.38599        22.50172
     2009.97672         3.09434        22.01648
     2009.97946         1.02969        22.36136
     2009.98220         3.01303        22.40146
     2009.98465         3.94153        26.04681
     2009.98767         3.66473        22.27714
     2009.99041         5.91408        22.32928
     2009.99315         5.04842        22.60198
     2009.99589         5.95577        22.22100
     2009.99863        -0.83488        22.26511
     2010.00136        -0.83854        22.08866
     2010.00410         5.85881        22.17288
     2010.00684         1.28916        22.20897
     2010.00958         0.71151        22.21699
     2010.01232        -3.80815        22.17689
     2010.01505        -2.69880        22.32126
     2010.01779         5.85455        22.28115
     2010.02053         9.77589        22.31324
     2010.02327         7.67824        22.28516
     2010.02600         8.45759        22.14480
     2010.02874        12.19394        22.22501
     2010.03148        15.24528        22.12475
     2010.03422         9.43563        22.64208
     2010.03696        13.56198        23.58851
     2010.03969        16.77832        22.92280
     2010.04243        14.07367        22.28918
     2010.04517        22.34902        22.30923
     2010.04791        23.66537        22.10470
     2010.05065        18.49171        22.55786
     2010.05338        15.25006        23.72085
     2010.05612        13.92541        22.37740
     2010.05886        13.84175        22.03252
     2010.06160         5.52210        22.00846
     2010.06433         3.27045        22.79046
     2010.06707         1.65180        22.10069
     2010.06981         0.16314        22.62604
     2010.07255         3.78949        23.29175
     2010.07529         6.68484        22.81051
     2010.07802         4.81818        22.00043
     2010.08076         3.72453        22.00444
     2010.08350         8.91588        23.92537
     2010.08624        14.60323        22.03653
     2010.08898        19.81357        22.47766
     2010.09171        15.46192        21.96835
     2010.09445        17.78527        22.62604
     2010.09719        13.98861        22.59797
     2010.09993        10.48696        22.04455
     2010.10266        13.84731        22.09267
     2010.10540        14.45266        22.61401
     2010.10814        13.44700        22.47365
     2010.11088        13.82035        22.40547
     2010.11362        12.56470        22.27714
     2010.11635        14.84004        22.42151
     2010.11909        14.60539        22.31324
     2010.12183        10.65974        22.13277
     2010.12457        12.43409        22.14882
     2010.12731        13.71443        22.67015
     2010.13004         8.14678        22.42552
     2010.13278         5.78613        22.46964
     2010.13552         8.67447        22.25308
     2010.13826         6.48882        22.18892
     2010.14099         8.80817        22.05658
     2010.14373        10.52652        22.71828
     2010.14647         8.93086        22.91077
     2010.14921        15.02421        22.42954
