# ================= DQRFIT RESULTS ================
# INPUT FILE: series/BCIN.rad
# OUTPUT: LDETRENDED
# FILTER FUNCTION: f(t)
# f(t)=+line(t)+annual(t)+jumps(t)
# line(t)=+P 1+P 2*t
# annual(t)=+P 3*sin(2*pi*t+P 4)
# jumps(t)=+P 5*heav(t-2019.2196  )
# heav(t)=(t<0?0:1)
# TOTAL OBSERVATIONS MTOT= 4275
# INITIAL TIME INTERVAL= 2022.7488 - 2009.9411 = 12.8077
# TOTAL OBSERVATIONS AFTER PREFILTER M= 4107
# TIME-SPAN= 2022.7488 - 2009.9439 = 12.8049
# OBSERVATIONS: USED M=  4107 REJECTED MTOT-M=   168 %USED=   96.0702
# N=  5 PARAMETERS
# MAXSIG= 175.00000
# MAXRES= 141.53750
# SCALE FACTOR FOR LENGTHS: SCL=  10.00000
# SCALE FACTOR FOR SIGMAS: SCLSIG=   1.00000
# CHI^2=   3124.441 DOF=  4102 CHI^2/DOF=   0.76169
# RMS=     10.625 SDEV=     10.626 MEAN=   -0.13496
#  P #       PARAMETER +-    SIGMA %error PARAMETER NAME
# P 1 =     -3656.05409 +-   96.223   2.63 YZERO                              
# P 2 =         1.79352 +-    0.048   2.66 SLOPE                              
# P 3 =         6.08630 +-    0.166   2.73 ANNUAL AMPLITUDE                   
# P 4 =        -2.88138 +-    0.037   1.30 ANNUAL PHASE                       
# P 5 =         0.16405 +-    0.618 376.68 OFFSET 2019.2196                   
#       T            LDETRENDED       SIG_OBS
     2009.94387        -5.67150         6.01061
     2009.94661        -4.97041         5.98006
     2009.94935        -7.20933         5.69031
     2009.95208       -16.12224         5.69118
     2009.95482       -11.34315         5.69467
     2009.95739       -13.68075         6.20087
     2009.96117       -11.73953        12.45235
     2009.96303       -17.16188         5.79068
     2009.96577       -10.06979         5.86835
     2009.96851        -9.38670         5.84566
     2009.97125        -7.89661         5.95824
     2009.97399        -7.77352         5.97221
     2009.97672       -11.75743         5.71300
     2009.97946       -15.39134         5.63969
     2009.98220       -12.35025         5.62922
     2009.98494        -8.99616         5.68420
     2009.98767        -9.63307         5.75315
     2009.99041       -10.25898         5.73744
     2009.99315        -6.86489         5.68420
     2009.99589        -4.67280         5.62398
     2009.99863       -13.49671         5.67024
     2010.00136       -18.34862         5.71998
     2010.00410       -10.70053         5.78282
     2010.00684       -12.23144         5.70340
     2010.00952       -13.40425         5.87010
     2010.01232       -18.02726         5.65278
     2010.01505       -26.75117         5.70253
     2010.01779       -16.23408         5.75053
     2010.02053       -12.71000         5.77584
     2010.02327       -12.21791         5.76362
     2010.02600        -8.00382         5.74442
     2010.02874        -3.53973         5.75926
     2010.03148         4.35736         5.74442
     2010.03422        -7.35855         6.07606
     2010.03696       -11.23946         6.03504
     2010.03969         2.40863         5.73395
     2010.04243         0.24572         5.72609
     2010.04517         3.79981         5.80028
     2010.04791         3.58290         5.83606
     2010.05065         1.88699         5.89802
     2010.05338         2.14608         6.06559
     2010.05612         3.76817         5.78020
     2010.05886         3.81526         5.71387
     2010.06160        -5.00465         5.73569
     2010.06433        -7.91056         5.69816
     2010.06707        -8.92047         5.67896
     2010.06981        -8.90138         5.87097
     2010.07255        -6.74229         5.86137
     2010.07529        -7.74720         5.79417
     2010.07802       -10.40011         5.68507
     2010.08076        -9.63402         5.70951
     2010.08350       -23.42493         5.67285
     2010.08624        -6.99984         5.63009
     2010.08898         5.87525         5.70427
     2010.09171         2.33133         5.81599
     2010.09445         0.91442         5.83082
     2010.09993        -4.49340         5.72347
     2010.10266        -3.16431         5.75664
     2010.10540        -5.53722         5.88755
     2010.10814         0.13787         5.83693
     2010.11086        -5.18700         6.23665
     2010.11362        -1.35395         5.80726
     2010.11630        -0.99076         5.88668
     2010.11915        -1.66087         5.91810
     2010.12183        -4.03968         5.75315
     2010.12457        -3.28359         5.69816
     2010.12731        -4.75250         5.86050
     2010.13004        -5.49441         5.85613
     2010.13272        -6.85922         6.15985
     2010.13552        -8.83523         6.06995
     2010.13826        -5.67814         5.75053
     2010.14099       -13.57005         5.69904
     2010.14373        -5.26096         5.93817
     2010.14647        -6.15587         5.98966
     2010.14921        -2.14978         5.85002
     2010.15195        -7.10869         5.76798
     2010.15468        -3.25060         5.78282
     2010.15742        -3.23351         5.80551
     2010.16016        -1.11142         5.74529
     2010.16290        -5.36033         6.26632
     2010.16564        -3.32525         6.05599
     2010.16822        -5.01787         6.19039
     2010.17198        -3.88463         8.33037
     2010.17334        -0.96906         8.03974
     2010.18480        -3.72362         5.71911
     2010.18754        -2.11753         5.71824
     2010.19028        -0.41344         5.72173
     2010.19301         0.53165         5.77758
     2010.19575        -2.75526         5.76013
     2010.19849        -7.57417         6.03504
     2010.20123       -14.36408         7.73777
     2010.20379       -10.94668         9.11671
     2010.20944       -10.49981         6.76728
     2010.21218       -13.75172         5.93642
     2010.21492        -3.04763         5.79940
     2010.21765        -4.05154         5.83169
     2010.22039        -1.91745         5.93206
     2010.22313        -6.52136         5.80028
     2010.22587        -2.64527         7.31187
     2010.22861        -5.71418         5.91810
     2010.23134         0.20491         6.02719
     2010.23359       -13.65612         8.64107
     2010.23956         8.34717         6.06559
     2010.24215        -2.23347         6.68611
     2010.24589         3.65782         8.67598
     2010.24777        -1.93456         6.11708
     2010.25051         7.60453         6.33440
     2010.25325        11.71362         6.01061
     2010.25598         3.12671         6.00712
     2010.25872         4.34280         5.96173
     2010.26146         1.97389         6.11010
     2010.26420         2.11898         5.91286
     2010.26694        10.19007         5.90326
     2010.26967         3.10016         6.17818
     2010.27241        -2.95075         6.15985
     2010.27515        -2.46966         5.90675
     2010.27789        -0.81457         6.14239
     2010.28062         2.82952         5.87184
     2010.28336        -3.09239         6.10836
     2010.28610        -8.87130         6.25236
     2010.28884         2.19079         6.15897
     2010.29158         0.42388         6.06210
     2010.29431        -2.88803         6.15636
     2010.29705        -0.26594         6.00101
     2010.29979        -3.09885         6.19214
     2010.30253         3.99524         6.19650
     2010.30527        10.73433         6.33963
     2010.30800         4.44241         6.07519
     2010.31074         9.46850         5.89890
     2010.31348         3.94959         5.85439
     2010.31622         4.58768         6.04028
     2010.31895        11.61177         6.19825
     2010.32169         9.79186         6.42429
     2010.32443         2.98495         6.18254
     2010.32717        10.51204         5.88319
     2010.32991         7.04013         5.81860
     2010.33264         9.40422         5.84479
     2010.33538         8.03231         6.13628
     2010.33812        -2.65160         5.79068
     2010.34086        -7.47751         5.74355
     2010.34360        -5.27542         5.77409
     2010.34633        -6.55333         5.96610
     2010.34907        -8.82624         6.19301
     2010.35181        -3.09515         5.81249
     2010.35455         1.54094         5.79766
     2010.35728        -2.05797         5.90413
     2010.35997        -2.17278         6.00537
     2010.36276        -2.14179         5.77148
     2010.36550        -6.65870         6.15025
     2010.36824        -5.49561         6.02894
     2010.37097        -3.97252         5.72435
     2010.37371        -1.55743         5.76711
     2010.37645        -3.42434         5.86399
     2010.37919        -4.58226         6.01148
     2010.38193        -2.49317         5.98704
     2010.38466        -1.03108         6.00886
     2010.38740         1.06401         5.84304
     2010.39014        -0.36690         5.89715
     2010.39288       -11.75781         5.93555
     2010.39561        -9.19072         5.97657
     2010.39835        -7.40963         5.66413
     2010.40109        -7.33354         5.66936
     2010.40383        -3.94745         5.68158
     2010.40657        -2.55536         5.75140
     2010.40930        -4.27227         5.72173
     2010.41204        -7.59418         5.69206
     2010.41477        -0.18008         5.62311
     2010.41752        -4.07900         5.67547
     2010.42026         8.31209         5.97657
     2010.42299         3.66818         5.66936
     2010.42573        -5.26073         5.63533
     2010.42847        -4.85464         5.62311
     2010.43121        -3.80255         5.65365
     2010.43394        -1.41846         5.75402
     2010.43668        -4.65637         5.72958
     2010.43942        -3.31128         5.68682
     2010.44216       -10.49319         5.64318
     2010.44490       -12.90910         5.61874
     2010.44763        -0.64701         5.61089
     2010.45037         3.54707         5.89191
     2010.45311         4.09216         5.74006
     2010.45585        -0.69975         5.59256
     2010.45859        -2.15066         5.67722
     2010.46132         1.60243         5.70253
     2010.46406        -4.28448         5.62573
     2010.46680        -4.51239         5.60565
     2010.46954        -4.33030         5.61002
     2010.47227        -4.84321         5.56813
     2010.47501        -7.42012         5.71824
     2010.47775         3.94697         5.90151
     2010.48049         7.14206         5.95824
     2010.48323         3.20615         5.56376
     2010.48596         5.28424         5.58558
     2010.48870         7.50833         5.69991
     2010.49144        -2.46958         5.68158
     2010.49418         3.24351         5.69904
     2010.49692         4.88760         5.57773
     2010.49965         4.96569         5.72347
     2010.50239         6.38778         5.56987
     2010.50513         5.76787         5.61525
     2010.50787         5.08496         5.66762
     2010.51060        -0.67595         5.59431
     2010.51334        -3.01486         5.61002
     2010.51608       -10.80177         5.58558
     2010.51882         1.80232         5.59082
     2010.52156         8.50740         5.73569
     2010.52429         4.48849         5.66151
     2010.52703        12.86258         6.00886
     2010.52977        13.48067         5.63271
     2010.53251        -1.77524         5.58034
     2010.53525         4.11685         5.72260
     2010.53798         3.79794         5.69904
     2010.54072         0.85003         5.65365
     2010.54346         1.02312         5.68420
     2010.54620         3.31821         5.71038
     2010.54893        -5.46370         5.69991
     2010.55167         0.31539         5.99926
     2010.55441         6.33948         5.63969
     2010.55715         5.46357         5.61613
     2010.55989        11.17566         5.59431
     2010.56262         3.37175         5.66587
     2010.56536         2.69484         5.67722
     2010.56810         3.58593         5.67896
     2010.57084         6.69902         5.64580
     2010.57357        -0.53389         6.08654
     2010.57631        -2.83280         5.98704
     2010.57905         7.42629         5.60565
     2010.58179         4.65738         5.62049
     2010.58453        10.06247         5.60129
     2010.58726        -1.34944         5.88581
     2010.59000        -2.22635         5.90064
     2010.59242         8.29231         6.44960
     2010.59641        27.86715        10.69726
     2010.59822        -1.02009         5.65016
     2010.60095         8.96500         5.67635
     2010.60369        11.28109         5.67635
     2010.60643         3.79818         5.66762
     2010.60917        -3.34173         5.63882
     2010.61190         3.37536         5.76973
     2010.61464         5.58345         5.61874
     2010.61738         4.37754         5.59082
     2010.62012         7.67563         5.60129
     2010.62286         1.48572         5.61525
     2010.62559         6.68181         5.62747
     2010.62833         0.22790         5.79766
     2010.63107        22.75799         5.94253
     2010.63381        10.53308         5.57773
     2010.63655         9.33017         5.59867
     2010.63928        10.53326         5.65278
     2010.64202         0.07335         5.69816
     2010.64476        -1.04656         5.79417
     2010.64750         6.92553         7.54752
     2010.65023        19.40062        12.18878
     2010.65297        -1.41429         6.31258
     2010.65571         7.54880         5.63620
     2010.65845         4.91789         5.67896
     2010.66119         4.35798         5.74093
     2010.66392        10.94107         5.62922
     2010.66666         8.43315         5.66151
     2010.66940         4.23324         5.69118
     2010.67214         1.10733         5.63533
     2010.67488        13.47242         5.74617
     2010.67761        10.49851         5.63271
     2010.68035         7.71960         5.60914
     2010.68309         5.30669         5.65104
     2010.68583         6.94778         5.61264
     2010.68856         6.77887         5.74442
     2010.69130         7.39696         5.64929
     2010.69404         6.30805         5.86748
     2010.69678         3.38014         5.63533
     2010.69952         1.70123         5.56551
     2010.70225         2.27432         5.93119
     2010.70499         0.40641         5.73744
     2010.70773         3.55150         5.81249
     2010.71047         1.54759         5.68246
     2010.71321         0.73268         5.63794
     2010.71595         6.89376         5.62660
     2010.71868         9.53486         5.90937
     2010.72142         8.82895         5.89453
     2010.72416         1.10704         5.91548
     2010.72689         3.70413         5.80377
     2010.72963         3.55122         5.60391
     2010.73237        -2.14269         5.63533
     2010.73511        20.40039         6.52466
     2010.73785         3.64848         5.77322
     2010.74058         9.24357         5.99664
     2010.74332        -1.49534         5.63096
     2010.74606         5.00575         5.78980
     2010.74880         0.02884         6.51942
     2010.75154         1.93893         5.67024
     2010.75428         7.88501         5.89802
     2010.75701         0.75611         5.83693
     2010.75975         7.21720         5.73831
     2010.76249         0.30529         5.64842
     2010.76478         4.82117         6.45309
     2010.76877        -0.08298        10.32460
     2010.77070         2.75556         5.73046
     2010.77977        -6.71971        10.65275
     2010.78165        -1.03508         5.89453
     2010.78448         4.93384         5.87446
     2010.78713         7.60710         5.97919
     2010.78987         7.79519         5.59605
     2010.79633         7.57859        15.58639
     2010.79808         5.84946         5.68420
     2010.80082        -1.10545         5.54456
     2010.80355         8.26064         5.61002
     2010.80629         9.95873         5.68595
     2010.80903         5.42281         5.67460
     2010.81724        11.29908         5.73831
     2010.81998         8.90617         5.90675
     2010.82272        10.80826         8.61314
     2010.82546         2.10235         5.60914
     2010.82820         6.28444         5.67024
     2010.83367         7.56362         6.29338
     2010.83641         4.06871         5.77497
     2010.83915         0.49580         5.69118
     2010.84188        -2.32311         5.76449
     2010.84462        11.38298         5.71387
     2010.84736         3.34907         5.56289
     2010.85284         8.51625         5.80289
     2010.86929         0.80374         5.80726
     2010.87200        -0.02112         5.63358
     2010.87474         0.94997         5.77758
     2010.87748        -2.33994         5.62573
     2010.88021         4.19214         5.59169
     2010.88295         0.13523         5.60914
     2010.88569         1.10632         5.61264
     2010.89201        -3.06401        14.48934
     2010.89390         4.59159         5.50267
     2010.89664         1.18068         5.50703
     2010.89938         6.43277         7.43929
     2010.90212         0.50386         5.56202
     2010.90485         0.06995         5.65453
     2010.90759         0.31904         5.50092
     2010.91033         3.07313         5.56987
     2010.91307        -6.50978         5.52449
     2010.91581        -2.58769         5.53060
     2010.91854        -0.04860         5.55242
     2010.92128        -4.16751         5.50092
     2010.92402        -6.84942         5.46776
     2010.92676        -3.75833         5.49569
     2010.92950        -7.29024         5.48958
     2010.93223        -7.43215         5.58296
     2010.93497        -1.81406         5.62398
     2010.93771        -1.09897         5.80464
     2010.94045         0.29012         5.77584
     2010.94318        -0.49679         5.60391
     2010.94592        -5.05470         5.56114
     2010.94866         1.56639         5.56376
     2010.95140         4.68647         5.85351
     2010.95414         2.27856         5.59169
     2010.95687        -0.05835         5.52187
     2010.95961        -8.22326         5.82384
     2010.96235        -6.30717         5.62398
     2010.96509         1.01692         5.57511
     2010.96783         1.02801         5.58471
     2010.97056        -4.40090         5.60042
     2010.97604        -2.82872         5.52274
     2010.97878        -2.47163         5.67198
     2010.98151        -3.75254         5.59082
     2010.98425         2.38455         5.58034
     2010.98699         6.53964         5.57249
     2010.98973         5.66873         5.65802
     2010.99247        10.58482         5.78806
     2010.99520         6.07591         5.68071
     2010.99794        -6.34200         5.62485
     2011.00068        -0.10891         5.61613
     2011.00342         2.02918         5.70602
     2011.00616         2.62827         5.51925
     2011.00889         1.68136         5.74966
     2011.01163        -6.00455         5.47736
     2011.01437        -0.13146         5.66936
     2011.01711        -1.51737         5.75664
     2011.01984         2.33372         5.53147
     2011.02258        -5.60219         5.44507
     2011.02532        -7.01811         5.48434
     2011.02806        -4.81002         5.61787
     2011.03080        -4.07193         8.16193
     2011.03353       -13.60184         5.58907
     2011.03627       -17.46475         5.58383
     2011.03901       -17.28566         5.48609
     2011.04175        -0.39557         5.46514
     2011.04449        -1.08748         5.81424
     2011.04722        -5.26239         5.68507
     2011.04995        -8.80827         5.68158
     2011.05270        -7.33221         5.53758
     2011.05544        -4.86512         5.53234
     2011.05817         0.50697         5.44681
     2011.06091        -1.80794         5.44507
     2011.06365        -4.39885         5.45380
