# ================= DQRFIT RESULTS ================
# INPUT FILE: series/BCIT.rad
# OUTPUT: LDETRENDED
# FILTER FUNCTION: f(t)
# f(t)=+line(t)+annual(t)+jumps(t)
# line(t)=+P 1+P 2*t
# annual(t)=+P 3*sin(2*pi*t+P 4)
# jumps(t)=+P 5*heav(t-2009.0760  )+P 6*heav(t-2011.2991  )
# heav(t)=(t<0?0:1)
# TOTAL OBSERVATIONS MTOT= 3214
# INITIAL TIME INTERVAL= 2020.9500 - 2008.4408 = 12.5092
# TOTAL OBSERVATIONS AFTER PREFILTER M= 3160
# TIME-SPAN= 2020.9500 - 2008.4408 = 12.5092
# OBSERVATIONS: USED M=  3160 REJECTED MTOT-M=    54 %USED=   98.3198
# N=  6 PARAMETERS
# MAXSIG= 175.00000
# MAXRES= 124.80037
# SCALE FACTOR FOR LENGTHS: SCL=  10.00000
# SCALE FACTOR FOR SIGMAS: SCLSIG=   1.00000
# CHI^2=   2644.947 DOF=  3154 CHI^2/DOF=   0.83860
# RMS=     14.084 SDEV=     14.085 MEAN=    0.13010
#  P #       PARAMETER +-    SIGMA %error PARAMETER NAME
# P 1 =      1095.78079 +-   68.890   6.29 YZERO                              
# P 2 =        -0.70724 +-    0.034   4.85 SLOPE                              
# P 3 =         7.19708 +-    0.146   2.02 ANNUAL AMPLITUDE                   
# P 4 =        -2.76108 +-    0.027   0.97 ANNUAL PHASE                       
# P 5 =       337.55480 +-    0.633   0.19 OFFSET 2009.0760                   
# P 6 =        -6.43407 +-    0.354   5.50 OFFSET 2011.2991                   
#       T            LDETRENDED       SIG_OBS
     2008.44079       -19.24989         9.19231
     2008.44353         9.09505         7.26283
     2008.44626       -15.33802         7.49726
     2008.44900        -0.23708         6.82968
     2008.45174         3.35385         7.80770
     2008.45448        -3.25121         8.79854
     2008.45722        -0.38727         8.79579
     2008.45995        16.09066         8.82235
     2008.48733        -3.70597         7.84891
     2008.49007       -20.63204         8.68865
     2008.49281         5.89590         6.53847
     2008.49526       -12.04637         7.26649
     2008.49828        10.29877         5.75550
     2008.50102         4.01171         5.84433
     2008.50376        12.12964         6.09707
     2008.50650        13.79658         6.79121
     2008.50924         2.58852         6.96246
     2008.51197         6.27345         7.15294
     2008.51471        14.02739         6.71246
     2008.52019       -22.29074         7.69872
     2008.52292        11.45720         7.41301
     2008.52566        -5.30887         7.91576
     2008.52840        14.39807         7.86356
     2008.53114         6.46601         7.67491
     2008.53388        -0.38706         7.56045
     2008.53639         4.06672         8.51466
     2008.53935         6.96482         8.35440
     2008.54209        12.92875         7.52931
     2008.54483        28.27669         9.20971
     2008.54757         1.37163         9.63371
     2008.55030        15.29056         8.26741
     2008.55304        11.02450         8.58059
     2008.55578        11.63343         8.11173
     2008.55852         8.06537         8.66759
     2008.56125        13.51231         7.78297
     2008.56673        -1.17482         7.63920
     2008.56947         4.03512         7.47253
     2008.57221         9.97205         7.58883
     2008.57494         5.35899         7.92583
     2008.57768       -11.95208         9.34616
     2008.58042         7.68386         8.05037
     2008.58316        -1.47520         8.08609
     2008.58590        14.18873         8.53572
     2008.58864        17.64767         7.87180
     2008.59137        30.48161         8.73169
     2008.59411        15.35854         7.07052
     2008.59685        -5.89752         7.64836
     2008.59958        25.05042         7.61905
     2008.60232        12.63935        10.41393
     2008.60506        17.52029         7.30129
     2008.60780        11.22522         8.27839
     2008.61054        -2.89484         7.95513
     2008.61327        19.12710         7.34341
     2008.61601        18.55903         7.63645
     2008.61875         9.32397         7.51099
     2008.62149         4.08591         7.47620
     2008.62423        19.34184         7.07510
     2008.62696         9.30578         6.75092
     2008.62970         7.74272         6.94323
     2008.63244        14.95365         7.61722
     2008.63518        -1.05641         7.27565
     2008.64065        19.10046         7.48627
     2008.64339        10.51540         7.56594
     2008.64607        -3.34071         8.10257
     2008.64887        14.00827         7.78572
     2008.65160        16.06121         6.64744
     2008.65394        12.05386         9.54213
     2008.65708       -13.94392         9.08975
     2008.65982         8.68801         8.19506
     2008.66256        13.01895         7.31502
     2008.66518         5.57781         8.19323
     2008.66803        18.97882         7.26191
     2008.67060         1.17964         8.25733
     2008.67351       -11.53730         8.86631
     2008.67624         1.53263         8.83883
     2008.67898        19.43957         9.54213
     2008.68172         3.15351         8.25092
     2008.68446         8.87844         7.83334
     2008.68720       -15.95662         8.80220
     2008.68993        10.27931         7.75733
     2008.69541         4.38719         8.00550
     2008.69815        12.33212         7.53755
     2008.70089         4.88906         7.85806
     2008.70362        11.95800         7.36539
     2008.70636        21.02193         6.51924
     2008.70910        10.38287         7.94689
     2008.71184         8.94280         7.19872
     2008.71457         5.69374         7.34982
     2008.71731        -1.91532         7.68132
     2008.72005        -0.91839         7.45055
     2008.72279        -2.57945         8.91759
     2008.72553       -30.49551        10.50184
     2008.72826        -4.02858         9.41118
     2008.73100        28.86036         8.15568
     2008.73374        29.59230         9.28572
     2008.73648       -31.30877         9.93957
     2008.73921        23.90017         7.30770
     2008.74469         9.06704        10.23627
     2008.74743       -27.58202         9.81869
     2008.75017        29.70491         7.71887
     2008.75290        19.40985         8.43041
     2008.75564        10.83979         9.10349
     2008.75838       -11.82028         8.21246
     2008.77207        14.63240         8.50184
     2008.77481         2.52034         8.53114
     2008.77754         7.99528         8.28389
     2008.78028        24.69421         7.01374
     2008.78302        -0.20785         7.31502
     2008.78576         0.09409         8.01008
     2008.79397        10.05389         7.15019
     2008.79671        -3.85817         8.32052
     2008.79945        11.36477         7.98078
     2008.80219        -8.95030         9.58426
     2008.80492        39.64964        10.59158
     2008.80766         6.05758         7.95788
     2008.81040         8.95851         8.59433
     2008.81314        13.31945        10.64470
     2008.81587        -1.51062         8.65294
     2008.81862         2.31132         7.48352
     2008.82135        25.33126         8.41484
     2008.82409         6.03520         7.48535
     2008.82683        19.19013         7.26283
     2008.82956        30.57407        10.11081
     2008.83230       -20.89500        10.44048
     2008.83504       -23.46606         9.32968
     2008.83778        -4.90312         7.92400
     2008.84052         5.22681         7.55495
     2008.84325        12.48875         6.80037
     2008.84599        10.01768         8.18590
     2008.84873        -0.98938         6.35165
     2008.85147       -17.71344         8.55312
     2008.85420         3.58349         7.93407
     2008.85694        11.81443         8.61905
     2008.85968         1.14837         7.87180
     2008.86242        10.31830         7.45697
     2008.86516         4.04524         7.68224
     2008.86789        -9.95482         8.40752
     2008.87063       -11.38789         9.52382
     2008.87337         6.55005         8.34982
     2008.87611       -14.89002        10.11173
     2008.87885       -24.58608        12.88737
     2008.88158       -18.59614         8.78664
     2008.88432        -7.24821         8.94689
     2008.88706        15.05773         8.56686
     2008.88980       -20.23833         8.67400
     2008.89253        -3.70940         8.76466
     2008.89527        -6.11646         8.99726
     2008.89801        -1.37753         9.66759
     2008.90075         1.86341        10.14286
     2008.90349       -12.47265         8.88554
     2008.90896         3.27822         8.00001
     2008.91170        -5.58884         8.03938
     2008.91444         6.78709         7.66759
     2008.91718         2.01603         7.76832
     2008.91991        13.15397         9.88371
     2008.92265        -3.47710         7.76374
     2008.92539       -43.61216        12.50184
     2008.92813       -30.02423         8.49543
     2008.93086       -10.73629         8.87089
     2008.93360        15.92865         8.33059
     2008.93634         8.57558         8.92858
     2008.93908        -5.62548         8.32784
     2008.94182       -10.06054         8.44598
     2008.94455         6.97439         9.17766
     2008.94729         5.29733         7.59250
     2008.95003         2.17926         8.33975
     2008.95277         9.72020         7.64195
     2008.95824         2.06307         8.13371
     2008.96098        13.38901         7.60806
     2008.96372        -3.01405        10.28664
     2008.96646       -23.63412         9.30129
     2008.96919       -15.78018         8.06686
     2008.97193        -7.04824         7.57143
     2008.97741        -0.95437         6.94231
     2008.98015       -10.55544         8.63828
     2008.98277        -0.57758         8.80861
     2009.00479       -18.60201         8.70422
     2009.00650       -51.49380        21.24544
     2009.01574         4.28974         7.20696
     2009.01848         1.68567         6.88645
     2009.02121       -15.17339         8.36997
     2009.02395       -36.48045         8.41759
     2009.02669       -16.21052         7.40568
     2009.02943        -7.99558         7.56686
     2009.03216         7.64235        10.67125
     2009.03490       -29.89371         7.94323
     2009.03764       -10.58177         7.53023
     2009.04038        -0.13784         6.90110
     2009.04312       -10.49690         7.72345
     2009.04585        18.46004        11.23810
     2009.04859       -11.91203         8.14195
     2009.05133       -10.95309         8.80404
     2009.05932       -33.81544        13.71246
     2009.06228        16.43365        11.76466
     2009.06502        -7.93841         9.39561
     2009.06776         4.97453         8.06228
     2009.07261        -7.52904        10.83151
     2009.07597        -2.19766         5.67583
     2009.15263       336.22555         5.54854
     2009.15537       332.50949         5.59249
     2009.15811       328.51243         5.50458
     2009.16084       330.96336         5.41667
     2009.16358       341.03430         5.51832
     2009.16632       335.43523         5.45238
     2009.16906       333.38217         5.50000
     2009.17180       334.88011         5.39744
     2009.17453       333.09804         5.39469
     2009.17727       339.05698         5.45971
     2009.18001       333.26592         5.33975
     2009.18275       332.26385         5.36356
     2009.18548       326.67279         5.43132
     2009.18822       330.36872         5.41209
     2009.19096       331.25266         5.38096
     2009.19370       330.68560         5.29854
     2009.19644       331.81553         5.29213
     2009.19917       341.46647         5.41759
     2009.20191       339.30641         5.49634
     2009.20465       334.61334         5.52198
     2009.20739       335.97228         5.46795
     2009.21013       329.03322         5.38920
     2009.21195       338.54451         8.81960
     2009.21469       340.49944         9.03297
     2009.21743       327.49938         9.32235
     2009.22016       342.85932         9.02656
     2009.22290       326.46325         9.05587
     2009.22564       331.02719         8.99543
     2009.22838       339.99312         8.99634
     2009.23112       333.74206         9.29030
     2009.23385       334.03700         9.30404
     2009.23659       325.91893         9.54122
     2009.23933       329.80087         9.16759
     2009.24207       334.59981         9.16301
     2009.24480       333.35474         9.29305
     2009.24754       332.57968         9.45971
     2009.25028       326.29561         9.37180
     2009.25302       331.60055         9.45147
     2009.25576       334.78849         9.36905
     2009.25849       333.75042         9.41301
     2009.26123       329.51836         9.47070
     2009.26397       336.26630         9.62546
     2009.26671       333.31623         9.48627
     2009.26945       332.87717         9.33975
     2009.27310       333.50075         5.44597
     2009.27583       340.57869         5.44689
     2009.27857       330.59462         5.56411
     2009.28131       334.47356         5.63920
     2009.28405       329.77050         5.48810
     2009.28679       333.56443         5.56502
     2009.28952       329.32637         5.46612
     2009.29226       330.60030         5.62729
     2009.29500       327.61024         5.51923
     2009.29774       333.40618         5.62455
     2009.30047       330.94311         5.65751
     2009.30321       330.78505         5.63279
     2009.30595       338.62599         5.73169
     2009.30869       334.41692         5.59799
     2009.31143       331.69286         5.48993
     2009.31416       333.52480         5.57326
     2009.31690       329.43173         5.46429
     2009.31964       332.46467         5.59891
     2009.32238       332.77560         5.45788
     2009.32512       334.19054         5.58975
     2009.32785       328.74348         5.55495
     2009.33059       333.56041         5.30770
     2009.33333       332.23035         5.48627
     2009.33607       327.94329         5.53114
     2009.33880       338.44522         5.42033
     2009.34154       333.08916         5.50641
     2009.34428       333.79010         5.39836
     2009.34702       328.92003         5.38737
     2009.34976       329.78297         5.34890
     2009.35249       326.21690         5.34799
     2009.35523       330.59884         5.36447
     2009.35797       332.34078         5.42674
     2009.36071       335.29271         5.61814
     2009.36344       332.80865         5.40477
     2009.36618       334.10259         5.37821
     2009.36892       329.17852         5.46795
     2009.37166       332.57046         5.42491
     2009.37440       329.07639         5.48169
     2009.37713       329.28733         5.42033
     2009.37987       329.20827         5.55953
     2009.38261       332.18120         5.46154
     2009.38535       333.01714         5.43132
     2009.38809       329.59908         5.48444
     2009.39082       328.25101         5.37821
     2009.39356       332.51895         5.34524
     2009.39630       334.19889         5.30861
     2009.39904       337.61982         5.40019
     2009.40177       333.58476         5.47894
     2009.40451       338.49369         5.44872
     2009.40725       338.66963         5.40660
     2009.40999       342.45957         5.38645
     2009.41273       331.88050         5.43682
     2009.41546       342.37344         5.48627
     2009.41820       336.22138         5.50275
     2009.42094       332.53931         5.44597
     2009.42368       340.83025         5.41942
     2009.42642       336.13118         5.40934
     2009.42915       337.00512         5.51191
     2009.43189       337.47706         5.44689
     2009.43463       338.66999         5.47986
     2009.43737       343.14093         5.37546
     2009.44010       331.48787         5.34249
     2009.44284       337.03180         5.33151
     2009.44558       339.59074         5.32876
     2009.44832       340.65468         5.47619
     2009.45106       343.27861         5.48810
     2009.45379       337.08155         5.41575
     2009.45653       340.63648         5.42033
     2009.45927       336.58142         5.40019
     2009.46201       338.80936         5.44964
     2009.46475       344.08729         5.61173
     2009.46748       338.73823         5.58517
     2009.47022       337.87017         5.41301
     2009.47313       337.70822         5.80129
     2009.47570       342.89704         5.41575
     2009.47843       337.90597         5.52290
     2009.48117       339.23191         5.46154
     2009.48391       333.90585         5.47986
     2009.48665       334.03578         5.54671
     2009.48939       343.11372         5.47711
     2009.49212       344.09766         5.46795
     2009.49486       334.66659         5.68773
     2009.49760       342.04153         5.48444
     2009.50034       340.44647         5.44414
     2009.50308       343.28940         5.42766
     2009.50581       345.06834         5.37729
     2009.50855       344.75327         5.42858
     2009.51129       344.15221         5.54579
     2009.51403       343.62315         5.38187
     2009.51676       346.52908         5.37271
     2009.51950       339.74802         5.38462
     2009.52224       341.66396         5.42125
     2009.52498       341.31289         5.50733
     2009.52772       336.35183         5.38554
     2009.53045       339.23976         5.54213
     2009.53319       341.03470         5.42217
     2009.53593       343.46164         5.46978
     2009.53867       340.59457         5.45422
     2009.54141       341.90451         5.45422
     2009.54414       338.79545         5.54304
     2009.54688       343.18338         5.44414
     2009.54962       345.77932         5.40477
     2009.55236       342.88926         5.41942
     2009.55509       344.24019         5.64652
     2009.55783       343.72813         5.47711
     2009.56057       335.18306         5.75916
     2009.56331       349.94800         5.75641
     2009.56605       346.83494         5.69689
     2009.56878       341.68587         5.50367
     2009.57152       349.38381         5.54121
     2009.57426       343.85875         5.51923
     2009.57700       349.10468         5.81502
     2009.57974       346.28162         5.46978
     2009.58247       349.73256         5.55129
     2009.58521       344.32449         5.54854
     2009.58795       342.57443         5.48901
     2009.59069       348.00236         5.53847
     2009.59342       337.47730         5.59341
     2009.59616       347.15824         5.46429
     2009.59890       348.92617         5.45422
     2009.60164       349.98411         5.46978
     2009.60438       344.03605         5.39195
     2009.60711       343.38498         5.48444
     2009.60985       343.87092         5.46429
     2009.61259       345.11085         5.53206
     2009.61533       339.91579         5.39103
     2009.61807       345.47873         5.44781
     2009.62080       347.94266         5.37546
     2009.62354       340.93460         5.41850
     2009.62628       345.55254         5.54762
     2009.62902       354.24447         5.67583
     2009.63175       347.89641         5.41575
     2009.63449       343.27535         5.47711
     2009.63723       344.06128         5.66301
     2009.63997       340.78622         5.52839
     2009.64271       337.70115         5.48810
     2009.64544       346.94209         5.44597
     2009.64818       352.30803         5.59433
     2009.65092       340.18696         5.51008
     2009.65366       337.95890         5.50000
     2009.65639       337.91284         5.52107
     2009.65913       342.27277         5.45422
     2009.66187       349.63671         5.31869
     2009.66461       346.06764         5.43590
     2009.66735       352.13558         5.50184
     2009.67008       347.08452         5.48352
