# ================= DQRFIT RESULTS ================
# INPUT FILE: series/BCNS.rad
# OUTPUT: LDETRENDED
# FILTER FUNCTION: f(t)
# f(t)=+line(t)+annual(t)+jumps(t)
# line(t)=+P 1+P 2*t
# annual(t)=+P 3*sin(2*pi*t+P 4)
# jumps(t)=+P 5*heav(t-2010.0706  )+P 6*heav(t-2012.1381  )+P 7*heav(t-2012.6297  )
# heav(t)=(t<0?0:1)
# TOTAL OBSERVATIONS MTOT= 3958
# INITIAL TIME INTERVAL= 2022.7350 - 2009.0048 = 13.7302
# TOTAL OBSERVATIONS AFTER PREFILTER M= 3885
# TIME-SPAN= 2022.7350 - 2009.2129 = 13.5221
# OBSERVATIONS: USED M=  3885 REJECTED MTOT-M=    73 %USED=   98.1556
# N=  7 PARAMETERS
# MAXSIG= 175.00000
# MAXRES=  49.54449
# SCALE FACTOR FOR LENGTHS: SCL=  10.00000
# SCALE FACTOR FOR SIGMAS: SCLSIG=   1.00000
# CHI^2=   4557.659 DOF=  3878 CHI^2/DOF=   1.17526
# RMS=      6.479 SDEV=      6.479 MEAN=    0.08721
#  P #       PARAMETER +-    SIGMA %error PARAMETER NAME
# P 1 =       278.63472 +-   98.053  35.19 YZERO                              
# P 2 =        -0.23440 +-    0.049  20.82 SLOPE                              
# P 3 =         3.79872 +-    0.142   3.74 ANNUAL AMPLITUDE                   
# P 4 =        -2.65152 +-    0.047   1.76 ANNUAL PHASE                       
# P 5 =       165.18797 +-    0.445   0.27 OFFSET 2010.0706                   
# P 6 =       -66.76606 +-    0.555   0.83 OFFSET 2012.1381                   
# P 7 =        98.13823 +-    0.553   0.56 OFFSET 2012.6297                   
#       T            LDETRENDED       SIG_OBS
     2009.21286        11.20236        14.93665
     2009.21560         8.66400         7.48133
     2009.21834         5.78164         8.00278
     2009.22108        12.69728         6.85148
     2009.22381        10.71393         7.98002
     2009.22655         0.19457         7.25042
     2009.22929         1.76421         8.08517
     2009.23203         4.47785         6.06334
     2009.23448        12.73443         6.83413
     2009.23842        -4.51765        10.67508
     2009.24372        -2.50041         9.00774
     2009.24572         1.27306         6.14031
     2009.24846        -4.33630         6.12838
     2009.25119         0.90134         6.26823
     2009.25393         4.28299         7.00650
     2009.25589        17.33745         9.39910
     2009.26292         4.41009         9.13241
     2009.26488        10.45755         6.10887
     2009.26762        15.09519         6.12296
     2009.27036         8.01984         6.11212
     2009.27310         3.68348         6.13597
     2009.27583         7.41512         6.10995
     2009.27857        -0.54124         6.17175
     2009.28131         6.61540         6.19993
     2009.28371         7.22896         6.90676
     2009.28679         4.61169         6.82654
     2009.28952        17.75133         9.47390
     2009.29169         6.31083        10.29998
     2009.30125         2.37208         8.93727
     2009.30321         0.73254         6.33219
     2009.30595         6.31918         9.74384
     2009.30869         1.72982         6.28449
     2009.31143         7.96946         6.09478
     2009.31416         8.45610         6.14573
     2009.31690         0.71475         6.07526
     2009.31964         0.19939         6.14139
     2009.32238        10.59903         6.19777
     2009.32512         2.36867         6.24980
     2009.32785         5.25531         6.21620
     2009.33059         5.28295         5.92566
     2009.33333        10.24060         6.00805
     2009.33607         0.76124         6.25631
     2009.33880         7.00388         6.04925
     2009.34154        -7.51248         6.06334
     2009.34428         0.02816         6.02756
     2009.34702         6.60880         5.99829
     2009.34976         5.03045         6.06659
     2009.35249         0.99409         6.03407
     2009.35523        -0.61227         6.04491
     2009.35797        -3.61663         5.96902
     2009.36036         5.52093         7.01517
     2009.36344         5.99666         6.18042
     2009.36618         0.21430         6.14790
     2009.36892         7.75594         6.20427
     2009.37166         4.76858         6.14356
     2009.37440         6.29722         6.13706
     2009.37713        -0.26714         6.20861
     2009.37987         2.57851         6.32786
     2009.38261        14.01315         6.19018
     2009.38535         5.11079         6.16308
     2009.38809         1.21643         6.09586
     2009.39082         0.42907         6.11538
     2009.39630         5.52536         6.01347
     2009.39904         7.74700         6.21511
     2009.40177         9.81364         6.02214
     2009.40451         6.90328         6.01672
     2009.40725         7.13092         6.02214
     2009.40999         4.13556         6.07418
     2009.41273         2.66821         6.09695
     2009.41546         3.70885         6.17717
     2009.41820         3.07649         6.03407
     2009.42094         4.97913         6.05358
     2009.42368         4.70777         6.08068
     2009.42642        -4.79058         6.09911
     2009.42916         4.67306         6.16416
     2009.43189         0.50470         6.03624
     2009.43463         5.30634         5.97336
     2009.43737         4.35898         6.02214
     2009.44010         2.21562         6.04708
     2009.44284         6.85827         6.17392
     2009.44558         2.82691         6.04816
     2009.44832         3.28855         6.00913
     2009.45106         4.77519         6.01998
     2009.45379         0.11683         6.16524
     2009.45653         5.16647         6.06117
     2009.45921         1.77710         6.30292
     2009.46167         4.52168         6.97289
     2009.46475         9.15540         6.37339
     2009.46748         3.14804         6.36689
     2009.47022         6.62468         6.09911
     2009.47296         8.34332         6.15223
     2009.47570         3.61497         6.15007
     2009.47843         4.14761         6.20861
     2009.48117        20.95325         6.27799
     2009.48391         4.58589         6.15982
     2009.48665        -5.84147         6.47963
     2009.48939       -10.25282         7.98761
     2009.49167         5.43271         7.54963
     2009.49760         1.83210         6.13923
     2009.49994         7.28465         7.37184
     2009.50262         8.63828         7.35883
     2009.50581         4.69603         6.11212
     2009.50855         5.06167         6.21620
     2009.51078         3.99319         7.67864
     2009.51397         7.52794         6.80052
     2009.51642         6.54951         7.16478
     2009.51950         9.86823         5.99396
     2009.52177        -8.45623         7.55614
     2009.53319         3.68344         6.56961
     2009.53593         2.50409         6.15766
     2009.53867         4.35273         6.15007
     2009.54141         5.10937         6.12080
     2009.54414        -1.13999         6.26715
     2009.54688         3.15665         6.14356
     2009.54962         1.82829         6.13272
     2009.55236        12.13094         6.09044
     2009.55509        18.22758         6.08177
     2009.55783         9.52522         6.12513
     2009.56057         8.48386         6.38098
     2009.56331         4.12950         6.31810
     2009.56605         2.11314         6.44169
     2009.56878         4.38679         6.08394
     2009.57152         9.10343         6.23788
     2009.57426         5.38207         6.15440
     2009.57700        14.45171         6.36689
     2009.57974         7.01235         6.23354
     2009.58247         4.57399         6.22704
     2009.58521         8.09664         6.34846
     2009.58795         1.51628         6.21403
     2009.59069         3.48892         6.25414
     2009.59342        -7.62344         6.55335
     2009.59616        -1.74780         6.34195
     2009.59890         7.54085         6.27474
     2009.60164        -2.40951         6.29967
     2009.60438         4.39813         6.13381
     2009.60711        -5.94723         6.26390
     2009.60985        -5.52259         6.72897
     2009.61259        -3.50695         6.06659
     2009.61533         6.54270         6.03407
     2009.61807        -0.40566         6.01889
     2009.62080         7.10198         6.06768
     2009.62354        -0.81738         6.08610
     2009.62622         4.28525         6.19668
     2009.62902         9.83890         6.40808
     2009.63175         2.45855         6.22704
     2009.63449        -1.97981         6.40700
     2009.63723         3.75283         6.44277
     2009.63997        -1.40253         6.44602
     2009.64271         4.89511         6.28124
     2009.64544         2.55575         6.26173
     2009.64818         6.19140         6.36255
     2009.65092         4.53204         6.09695
     2009.65366         2.65768         6.12296
     2009.65639        -5.29668         6.43844
     2009.65913        -3.30304         6.22921
     2009.66187         0.58461         6.11429
     2009.66461         2.08525         6.15766
     2009.66735        10.07289         6.27257
     2009.67008         2.42553         6.25306
     2009.67282         4.23317         6.44928
     2009.67556         6.49681         6.15440
     2009.67830         0.33646         6.57828
     2009.68104       -15.72290         6.63357
     2009.68377        -6.08926         6.19993
     2009.68651         0.96438         6.08936
     2009.68925         2.25002         6.32677
     2009.69199        -2.80834         6.40374
     2009.69415         0.43617         7.86510
     2009.69705        -4.57115         6.95013
     2009.70379         9.71643        10.47994
     2009.70568        -0.94913         6.13489
     2009.70841        -8.75149         6.20861
     2009.71115        -9.39084         6.13055
     2009.71389         8.35480         6.34304
     2009.71663        -8.82256         6.39832
     2009.71937         8.21908         6.09911
     2009.72210        -8.93628         6.08068
     2009.72484         0.64137         6.10887
     2009.72758         6.41201         6.09261
     2009.73032         6.44865         6.46879
     2009.73305         2.03429         6.14573
     2009.73579        -3.36607         6.39182
     2009.73853         6.33857         6.01998
     2009.74127         8.16922         6.23896
     2009.74401         5.21986         6.33545
     2009.74674        -0.37350         6.01239
     2009.74948         0.26014         6.10670
     2009.75222         5.14878         6.05358
     2009.75496         3.48342         6.03732
     2009.75770         5.34607         6.08502
     2009.76043        10.51171         5.98962
     2009.76317         5.20335         6.07852
     2009.76591         1.30499         6.04708
     2009.76865        -0.10037         6.16741
     2009.77138        -4.35272         6.07743
     2009.77412         9.59292         6.08177
     2009.77686        14.83656         6.00155
     2009.77960        16.57120         6.01455
     2009.78234        12.08584         6.09261
     2009.78507         6.53948         6.16416
     2009.78781        -5.14587         6.69428
     2009.79055         0.13077         6.33436
     2009.79306         3.34036         6.68669
     2009.79960        19.79189        10.97320
     2009.80150        -5.00967         6.23029
     2009.80424        -7.78702         6.28666
     2009.80698         6.73062         6.22921
     2009.80971        -3.87074         6.44277
     2009.81245        -1.19410         6.31702
     2009.81519        -2.24746         6.26281
     2009.81793        -6.47382         6.38857
     2009.82067         4.82183         6.11321
     2009.82340         1.87947         6.10995
     2009.82614        -2.29889         6.24872
     2009.82888        -1.34025         6.39507
     2009.83162       -11.63961         6.96097
     2009.83436        -5.09396         6.20102
     2009.83709        -9.04932         6.48397
     2009.83983         2.72732         6.07960
     2009.84257         9.02996         6.13597
     2009.84531        -1.04140         6.41892
     2009.84804         2.92224         6.45361
     2009.85078       -12.81011         6.42651
     2009.85352         1.85253         6.22812
     2009.85626         5.99717         6.24763
     2009.85900       -10.18119         6.29208
     2009.86173       -10.02455         6.31051
     2009.86447         8.61409         6.53167
     2009.86721        -4.40026         6.36797
     2009.86995        10.29338         6.16091
     2009.87269         4.59202         6.21294
     2009.87542        -6.52834         6.42001
     2009.87776        -2.37379         7.39027
     2009.88090        -4.16106         6.37989
     2009.88364         3.32259         6.19777
     2009.88637        -0.43577         6.26064
     2009.88900         3.57084         6.49047
     2009.89546        -3.63564        11.06427
     2009.89733       -19.13620         6.21186
     2009.90006       -15.35256         6.33003
     2009.90280       -10.68892         6.18367
     2009.90554        -1.50128         6.08502
     2009.90828        -2.48364         6.14356
     2009.91102        -4.28100         6.09695
     2009.91375       -19.03435         6.21620
     2009.91649         0.87729         6.11538
     2009.91923       -17.92607         6.12513
     2009.92197       -15.39843         6.14356
     2009.92470       -10.76179         6.11321
     2009.92744        -4.34815         6.06225
     2009.93018        -1.98150         6.03515
     2009.93292         6.47014         6.11212
     2009.93566         6.32578         6.03840
     2009.93839         5.02342         6.29750
     2009.94113        10.09806         6.02756
     2009.94387         1.03571         6.16850
     2009.94661         4.13735         6.16633
     2009.94935         3.40499         6.03515
     2009.95208        -5.15337         6.08827
     2009.95739       -19.23713         7.00650
     2009.96117       -25.90524        10.52330
     2009.96303       -18.99680         6.08827
     2009.96577       -14.14916         6.17934
     2009.96851       -15.11052         6.20644
     2009.97125        -9.46488         6.23137
     2009.97399        -1.47924         6.05575
     2009.97672        -3.98659         5.95710
     2009.97878        -2.78211         8.65758
     2009.99589       -16.43910         6.21403
     2009.99863       -19.42446         6.06117
     2010.00410       -12.57418         6.08177
     2010.00684       -13.90253         6.00480
     2010.00958       -12.94989         5.99504
     2010.01232       -26.60025         6.03949
     2010.01505        -9.21061         6.05900
     2010.01779        -0.74397         5.98962
     2010.02053       -25.17533         6.27040
     2010.02327       -19.94068         6.22270
     2010.02600       -23.38304         6.10995
     2010.02874        -5.88840         5.98203
     2010.03148       -11.81676         6.04925
     2010.03422       -13.01912         6.32569
     2010.03696       -17.46148         6.50890
     2010.03969       -11.80883         6.32352
     2010.04243        -8.56819         6.00046
     2010.04517         2.30345         6.00263
     2010.04791         2.00409         6.12622
     2010.05065        -5.44427         6.19018
     2010.05338         3.79937         6.26281
     2010.05612         6.98002         6.13489
     2010.05886       -10.41334         6.01239
     2010.06160       -14.62770         5.98420
     2010.06433       -14.69506         5.99287
     2010.06707       -11.45942         6.00805
     2010.15468       162.59912         5.96577
     2010.15742       158.03676         5.99613
     2010.16016       161.35640         5.96577
     2010.16290       156.21004         6.31485
     2010.16564       164.31869         6.14248
     2010.16822       159.52329         6.31593
     2010.17198       154.32917         9.35465
     2010.17385       159.97461         6.17825
     2010.17659       158.56825         5.93542
     2010.17824       165.56964        13.26498
     2010.18483       169.37619         6.02648
     2010.18754       168.58882         5.92241
     2010.19028       173.23046         6.02540
     2010.19301       161.51710         6.07743
     2010.19575       166.11175         5.94951
     2010.19849       167.64539         5.96469
     2010.20123       155.90903         5.99504
     2010.20397       160.02167         6.20752
     2010.20670       158.36531         6.14573
     2010.20944       153.37895         6.79944
     2010.21218       167.83760         6.11646
     2010.21492       166.44524         5.99829
     2010.21765       175.21588         5.99504
     2010.22039       166.90052         5.98637
     2010.22313       158.57116         5.98962
     2010.22587       160.12580         6.16741
     2010.22861       166.53045         6.06442
     2010.23134       162.21309         6.09369
     2010.23359       164.79761         7.75453
     2010.23956       161.57401         6.30401
     2010.24215       166.37562         6.70837
     2010.24589       171.68750         9.86959
     2010.24777       160.10494         6.18476
     2010.25051       168.71458         6.25956
     2010.25325       165.80722         6.14031
     2010.25598       169.72386         6.06768
     2010.25872       176.00051         6.05575
     2010.26146       163.05215         6.19126
     2010.26420       166.71579         6.45361
     2010.26694       169.27943         6.15332
     2010.26967       168.76807         6.21728
     2010.27241       164.98071         6.14248
     2010.27515       170.87736         6.03082
     2010.27789       170.00700         6.16308
     2010.28062       163.05164         6.02431
     2010.28336       161.54328         6.33219
     2010.28610       156.71092         6.20319
     2010.28884       164.24056         6.29425
     2010.29158       165.66721         6.15874
     2010.29431       163.68785         6.09153
     2010.29705       172.14149         6.12513
     2010.29979       169.92113         6.06334
     2010.30253       162.97177         6.35388
     2010.30527       170.10942         6.16633
     2010.30800       169.11606         6.14465
     2010.31074       166.32370         6.09803
     2010.31348       174.60434         5.99613
     2010.31622       178.39198         6.12080
     2010.31895       180.45062         6.52408
     2010.32169       184.44227         6.91761
     2010.32443       175.74591         6.18367
     2010.32717       174.49355         6.02540
     2010.32991       178.68319         6.36472
     2010.33264       174.46183         6.57937
     2010.33538       169.88947         6.38748
     2010.33812       174.09512         5.99829
     2010.34086       157.71576         5.96902
     2010.34360       170.60740         5.96685
     2010.34633       158.62104         6.15007
     2010.34907       161.01068         5.91048
     2010.35181       165.36732         5.96035
     2010.35455       169.66597         5.98312
     2010.35728       163.99961         5.96577
     2010.36002       172.81025         6.13272
     2010.36276       163.76689         5.95059
     2010.36550       162.14353         6.21511
     2010.36824       170.24418         6.17717
     2010.37097       175.51182         6.01022
     2010.37371       173.49746         5.97444
     2010.37645       173.16510         5.98420
     2010.37919       166.22174         6.28775
     2010.38193       165.67938         6.32677
     2010.38466       167.74403         6.28233
     2010.38740       168.66367         6.05033
     2010.39014       173.17431         6.07960
     2010.39288       166.59495         5.99938
     2010.39561       158.38859         6.08502
     2010.39835       160.73023         5.90506
     2010.40109       165.16088         5.91373
     2010.40383       163.47352         5.98745
     2010.40657       166.95916         5.94517
