# ================= DQRFIT RESULTS ================
# INPUT FILE: series/BCPR.rad
# OUTPUT: LDETRENDED
# FILTER FUNCTION: f(t)
# f(t)=+line(t)+annual(t)+jumps(t)
# line(t)=+P 1+P 2*t
# annual(t)=+P 3*sin(2*pi*t+P 4)
# jumps(t)=+P 5*heav(t-2012.8438  )
# heav(t)=(t<0?0:1)
# TOTAL OBSERVATIONS MTOT= 3967
# INITIAL TIME INTERVAL= 2020.7690 - 2009.0075 = 11.7615
# TOTAL OBSERVATIONS AFTER PREFILTER M= 3931
# TIME-SPAN= 2020.7690 - 2009.0075 = 11.7615
# OBSERVATIONS: USED M=  3931 REJECTED MTOT-M=    36 %USED=   99.0925
# N=  5 PARAMETERS
# MAXSIG= 175.00000
# MAXRES=  50.19362
# SCALE FACTOR FOR LENGTHS: SCL=  10.00000
# SCALE FACTOR FOR SIGMAS: SCLSIG=   1.00000
# CHI^2=   4418.800 DOF=  3926 CHI^2/DOF=   1.12552
# RMS=      6.092 SDEV=      6.091 MEAN=    0.14506
#  P #       PARAMETER +-    SIGMA %error PARAMETER NAME
# P 1 =     -3887.26369 +-   97.015   2.50 YZERO                              
# P 2 =         1.92775 +-    0.048   2.50 SLOPE                              
# P 3 =         5.69017 +-    0.129   2.26 ANNUAL AMPLITUDE                   
# P 4 =        -2.90445 +-    0.031   1.07 ANNUAL PHASE                       
# P 5 =         6.45304 +-    0.329   5.10 OFFSET 2012.8438                   
#       T            LDETRENDED       SIG_OBS
     2009.00752         4.66799         5.61750
     2009.01026         2.69371         5.66842
     2009.01300        10.04143         5.71616
     2009.01574        -4.78485         5.69176
     2009.01848         9.37187         5.70237
     2009.02121         9.08660         5.88909
     2009.02395         1.33632         5.77982
     2009.02669        -0.79396         5.70025
     2009.02943        -6.38624         5.74162
     2009.03216        -6.20952         5.76603
     2009.03490        -9.55279         5.72783
     2009.03764        -4.53907         5.64402
     2009.04038        -2.11035         5.67373
     2009.04312        -9.10763         5.72253
     2009.04585       -13.25790         5.75329
     2009.04859       -14.78418         5.72147
     2009.05133        -7.88946         5.67160
     2009.05407        -8.50974         5.66418
     2009.05681        -5.41402         5.72465
     2009.05954        -4.47229         5.69919
     2009.06228        -9.84857         5.74587
     2009.06502        -8.33185         5.68752
     2009.06776       -10.47213         5.69494
     2009.07049        -7.16641         5.74375
     2009.07323        -7.18768         5.74481
     2009.07597        -0.24196         5.74056
     2009.07871        -3.17124         5.72147
     2009.08145        -2.96052         5.77239
     2009.08418         2.67420         5.69070
     2009.08692        -4.06507         5.73950
     2009.08966        -0.67435         6.94575
     2009.09240        -5.21163         5.72677
     2009.09514         3.20909         9.92478
     2009.09787        -5.15818         5.70449
     2009.10061        -0.35446         5.65251
     2009.10335        -6.95974         5.73526
     2009.10609        -4.17902         5.70555
     2009.10882       -11.17130         5.70237
     2009.11162        -1.55568         5.79573
     2009.11430        -6.39685         5.79785
     2009.11704        -0.55913         5.76709
     2009.11978        -4.72641         5.67691
     2009.12251        -1.21269         5.70025
     2009.12525        -4.57696         5.67797
     2009.12799        -4.32424         5.71616
     2009.13073        -4.40252         5.73420
     2009.13347        -7.86580         5.69813
     2009.13620        -8.63108         5.70661
     2009.13894        -8.46435         5.72253
     2009.14168        -6.23163         5.72253
     2009.14442       -10.32191         5.71828
     2009.14715        -5.94219         5.78406
     2009.14989        -4.45046         5.77663
     2009.15263        -6.45474         7.24917
     2009.15537        -6.22302         5.77876
     2009.15811        -5.88630         5.81164
     2009.16084        -6.78658         5.72783
     2009.16358        -2.39685         5.71935
     2009.16632        -5.77413         5.72995
     2009.16906        -6.31841         5.80952
     2009.17180        -3.30769         5.70661
     2009.17453       -10.04597         5.67903
     2009.17750        -3.32568         6.57338
     2009.18001        -2.68752         5.71935
     2009.18275        -8.35480         5.70025
     2009.18548        -9.45708         5.69813
     2009.18822        -8.33336         5.72465
     2009.19096        -9.02063         5.71404
     2009.19370        -3.98391         5.65569
     2009.19644        -1.44419         5.65887
     2009.19917        -0.74047         5.63235
     2009.20191         2.22126         5.63129
     2009.20465        -3.62102         5.63872
     2009.20739        -3.22430         5.65357
     2009.21013         0.17742         5.68858
     2009.21286        -3.20186         5.80634
     2009.21560        -8.95113         5.65569
     2009.21834        -5.60141         5.75648
     2009.22108        -1.12869         5.61750
     2009.22381        -6.81797         5.62280
     2009.22655        -6.92025         5.64720
     2009.22929        -2.55152         7.88147
     2009.23203        -2.30480         5.61856
     2009.23448        -3.20053         6.39090
     2009.23842        -1.26412         9.84839
     2009.24372         0.77966         8.51271
     2009.24572        -1.13019         5.66206
     2009.24846         1.85653         5.65039
     2009.25119        -0.12775         5.81271
     2009.25393        -1.42202         5.78724
     2009.25667        -1.05030         5.73844
     2009.25941         0.95042         5.70237
     2009.26214        -1.29086         5.66524
     2009.26488        -4.39614         5.71616
     2009.26762        -5.57641         5.69176
     2009.27036        -2.40569         5.68327
     2009.27310        -7.52397         5.69919
     2009.27583        -2.89925         5.68221
     2009.27857        -2.29553         5.93471
     2009.28131        -2.24680         5.85832
     2009.28405        -6.83508         5.68964
     2009.28679        -0.82136         5.70131
     2009.28952         0.06836         5.72995
     2009.29226        -7.39192         5.77345
     2009.29500        -7.15919         5.71404
     2009.29774        -4.73647         5.72677
     2009.30047        -4.07975         5.71722
     2009.30321        -3.00403         5.75436
     2009.30595        -0.95230         5.70980
     2009.30869        -2.85858         5.76709
     2009.31143        -5.52186         5.77345
     2009.31416        -2.70914         5.74587
     2009.31690        -6.82442         5.72359
     2009.31964        -8.09969         5.70980
     2009.32238        -7.68697         5.75966
     2009.32512        -1.94825         5.93789
     2009.32785        -2.55753         5.93153
     2009.33059        -6.02081         5.75011
     2009.33333        -4.20308         5.77557
     2009.33607        -6.16036         5.77451
     2009.33880        -2.60064         5.74162
     2009.34091         3.20129         8.16367
     2009.65913         0.00185         6.19463
     2009.66187         7.01957         6.38453
     2009.66461         8.47129         5.81907
     2009.66700         9.25168         6.76434
     2009.67556         3.71818         5.81377
     2009.67830        13.46190         6.05990
     2009.68104        14.01962         5.94744
     2009.68377         4.57135         5.81589
     2009.68609        22.63988         6.80890
     2009.69199         6.39751         5.80316
     2009.69472         9.90423         5.96123
     2009.69746        11.90296         5.83392
     2009.70020        15.70568         6.04823
     2009.70294        12.56640         5.82756
     2009.70568        20.38312         5.81164
     2009.70841         7.85684         5.83074
     2009.71115         7.66057         5.87212
     2009.71389        10.78129         6.11082
     2009.71663        11.82001         5.82968
     2009.71937        12.68073         5.83180
     2009.72210         4.14446         5.77876
     2009.72484        17.75418         6.15856
     2009.72758         3.22090         6.13416
     2009.73037        10.81751         5.90500
     2009.73305        13.78434         6.07793
     2009.73579         8.81007         5.88060
     2009.73853         7.99879         5.78512
     2009.74127         6.11551         5.82225
     2009.74401         9.29523         5.88697
     2009.74674         7.46295         5.79679
     2009.74948        12.02568         5.82331
     2009.75222         6.17340         5.80528
     2009.75496         5.20712         5.77133
     2009.75770         2.87384         5.77133
     2009.76043         5.02256         5.82862
     2009.76317        13.74529         6.04823
     2009.76591         6.47301         5.82331
     2009.76865         9.72573         5.89015
     2009.77144         7.62634         6.09278
     2009.77452         0.95241         7.00516
     2009.77686         7.26990         5.91455
     2009.77960        10.72062         5.74269
     2009.78234        12.77134         5.76390
     2009.78507        19.49806         5.79149
     2009.78781         3.08479         6.24025
     2009.79055        -1.44049         6.08854
     2009.79329         2.65823         5.99518
     2009.79603         5.42595         6.01003
     2009.79876         6.34567         5.96760
     2009.80150        11.55740         6.19039
     2009.80424        11.08112         5.98457
     2009.80698         6.55084         6.06414
     2009.80971        11.11956         6.03762
     2009.81245        13.06828         6.08218
     2009.81519        12.48101         6.14053
     2009.81793        12.96073         6.10658
     2009.82067        10.88345         5.86893
     2009.82340        10.67117         5.87424
     2009.82614        15.45690         5.92940
     2009.82888        14.08762         5.89121
     2009.83162        19.19234         6.03337
     2009.83436         3.44106         5.91774
     2009.83709         4.73778         6.00473
     2009.83983         6.41251         5.95274
     2009.84257         7.94623         6.13946
     2009.84531        12.18895         6.00367
     2009.84804        13.94167         6.03231
     2009.85078        10.08339         5.95911
     2009.85352         7.35712         5.97927
     2009.85626         8.39484         6.01640
     2009.85900         2.17156         6.00155
     2009.86173         2.52628         5.94320
     2009.86447        10.65600         6.27314
     2009.86721        -1.98627         6.16174
     2009.86995         7.27645         5.99412
     2009.87269        10.33917         6.03125
     2009.87542        14.35789         5.98669
     2009.87816        14.38062         6.15220
     2009.88090         8.81434         6.19463
     2009.88364        11.14106         6.01216
     2009.88637        11.59878         5.95487
     2009.88911        12.49350         5.83392
     2009.89185        11.51623         5.85726
     2009.89459         2.99695         5.97290
     2009.89733         1.74067         5.91880
     2009.90006         1.41039         5.91667
     2009.90280         4.78111         5.83711
     2009.90537         1.26217         6.28056
     2009.90828         4.09556         5.87742
     2009.91102         9.84428         5.90713
     2009.91375         3.50400         5.80422
     2009.91649        -1.59628         5.81801
     2009.91923        -4.15755         5.80104
     2009.92197        -3.37383         6.00155
     2009.92470       -11.22711         5.79997
     2009.92744        -8.16339         5.82331
     2009.93018        -6.52966         5.73208
     2009.93292        -1.08594         5.82331
     2009.93566        -2.57522         5.79361
     2009.93839         1.21550         9.40281
     2009.94113         1.15722         5.82438
     2009.94387         1.94395         5.98882
     2009.94661         2.56767         5.93259
     2009.94935         2.10039         5.82225
     2009.95208        -1.80189         5.83074
     2009.95482        -4.29017         5.82438
     2009.95756        -1.38144         5.80740
     2009.96030        -1.38172         5.77982
     2009.96303        -1.51600         5.86681
     2009.96577         0.13772         5.86787
     2009.96851        -2.08156         5.94426
     2009.97125         2.84917         5.91774
     2009.97399         1.02489         5.89864
     2009.97672        -3.05839         5.79467
     2009.97946        -1.71767         5.80104
     2009.98220        -6.03094         5.92728
     2009.98494        -1.43622         5.83605
     2009.98767        -7.04350         5.77345
     2009.99041        -3.21878         5.80422
     2009.99315         0.15594         5.82544
     2009.99589        -4.10233         5.82438
     2009.99863        -3.36261         5.75966
     2010.00136       -10.27389         5.78618
     2010.00410         2.14583         5.91774
     2010.00684       -10.22945         5.77663
     2010.00958       -15.55972         7.53350
     2010.01232       -14.59200         5.79467
     2010.01505       -10.88428         5.82756
     2010.01779        -9.20656         5.80846
     2010.02053        -5.49384         5.99942
     2010.02327        -7.35111         5.80634
     2010.02600        -3.20639         5.80952
     2010.02874        -3.36667         5.80210
     2010.03148        -0.96595         5.94001
     2010.03422        -5.84122         5.93577
     2010.03696        -5.17050         6.17660
     2010.03969        -0.88278         5.95487
     2010.04243        -1.32006         5.82438
     2010.04517         8.37666         5.82119
     2010.04791         0.73539         5.82756
     2010.05065        -0.95689         5.92622
     2010.05338        -0.41317         5.94426
     2010.05612        -4.80545         5.85939
     2010.05886        -4.11073         5.78512
     2010.06160       -13.28600         5.77133
     2010.06433        -7.49228         5.76284
     2010.06707       -15.84956         5.81801
     2010.06981       -12.13384         5.88166
     2010.07255        -6.90812         5.85939
     2010.07529        -9.60939         5.90076
     2010.07802        -6.71867         5.86575
     2010.08076        -7.13895         5.75966
     2010.08350        -6.96023         5.97715
     2010.08624        -1.02050         5.78618
     2010.08898         1.62622         6.02807
     2010.09171        -0.22106         5.73950
     2010.09445         3.67166         5.93471
     2010.09993        -3.43489         5.82862
     2010.10266         0.49283         5.78406
     2010.10540        -0.08245         5.88485
     2010.10814         0.18327         6.08005
     2010.11173         0.87334         9.10788
     2010.11362         2.73272         5.81589
     2010.11635         8.69844         5.91455
     2010.11909         3.70016         5.79679
     2010.12183        -2.32012         5.79149
     2010.12457         3.97360         5.80740
     2010.12731         0.18833         5.91667
     2010.13004        -2.96495         5.85408
     2010.13278        -8.17423         5.87212
     2010.13552        -6.67551         5.86787
     2010.13826        -4.05178         5.78937
     2010.14099        -5.35006         5.73526
     2010.14373        -5.64734         5.86151
     2010.14647        -1.92962         5.92622
     2010.14921         0.67810         5.82650
     2010.15195        -0.65417         5.78194
     2010.15468        -1.33045         5.78618
     2010.15742        -0.84873         5.80634
     2010.16016        -1.21301         5.73526
     2010.16290        -1.26529         5.95274
     2010.16564         0.89144         5.77876
     2010.16837         1.74216         5.76921
     2010.17111         0.98288         5.73632
     2010.17385         1.67360         6.00261
     2010.17659         0.67832         5.78300
     2010.17932         1.28005         5.72253
     2010.18206         2.88577         5.67585
     2010.18480         4.80649         5.75011
     2010.18754        -2.26979         5.92516
     2010.19028         7.29094         5.85196
     2010.19301         4.57366         5.71935
     2010.19575         4.18838         5.68646
     2010.19849        -1.49790         5.71722
     2010.20123        -1.64718         5.75223
     2010.20397         2.05955         5.90182
     2010.20670        -0.61973         5.89970
     2010.20944        -5.63401         5.73526
     2010.21218        -2.78229         5.69494
     2010.21492         1.04343         5.69919
     2010.21765         6.25716         5.69494
     2010.22039        -1.71112         5.73632
     2010.22313         0.00260         5.73102
     2010.22587         3.29432         5.76709
     2010.22861         4.66204         5.72889
     2010.23134         1.53177         5.70980
     2010.23408        -4.43351         5.71510
     2010.23682         1.66821         5.81801
     2010.23956         8.06493         5.82438
     2010.24230         6.41966         5.99200
     2010.24503         2.84638         5.83923
     2010.24777         2.30510         5.74162
     2010.25051         7.40282         5.94956
     2010.25325         8.96754         5.81907
     2010.25598         4.45327         5.84029
     2010.25872         9.94699         5.78830
     2010.26146         6.91471         5.86363
     2010.26420         5.79243         5.92834
     2010.26694         4.80515         5.86681
     2010.26967         3.97488         5.89864
     2010.27241         4.59560         5.83923
     2010.27515        -0.21968         5.79149
     2010.27789         3.39704         5.92516
     2010.28062        -0.74724         5.86469
     2010.28336        -1.47151         5.97502
     2010.28610        -1.98279         5.97396
     2010.28884         4.03693         5.77982
     2010.29158         0.65065         5.96229
     2010.29431         6.08138         5.98351
     2010.29705         7.08510         5.79467
     2010.29979         5.32782         5.90500
     2010.30253        10.92754         5.82119
     2010.30527        12.63626         5.92940
     2010.30800         8.58299         5.69282
     2010.31074         5.33971         5.75754
     2010.31348         9.41043         5.76921
     2010.31622         9.49715         5.77345
     2010.31895        11.81787         5.91031
     2010.32169        12.92160         6.09703
     2010.32443         5.58432         5.85514
     2010.32717         3.29604         5.83074
     2010.32991         3.91976         5.79043
     2010.33264        10.41048         5.75117
     2010.33538         9.00821         5.90925
     2010.33812         7.72593         5.84135
     2010.34086         1.58865         5.81164
     2010.34360         1.51937         5.73208
     2010.34633        -2.52890         5.79467
     2010.34907        -1.99718         5.67160
     2010.35181        -0.77746         5.70131
     2010.35455         5.11526         5.73632
     2010.35728         3.37698         5.74375
     2010.36002        11.09171         5.84559
     2010.36276         6.29243         5.69494
     2010.36550         0.16615         5.95168
     2010.36824         3.57887         5.94850
     2010.37097         8.36059         5.68752
     2010.37371         7.64032         5.72041
     2010.37645        11.23904         5.70661
     2010.37919         4.58576         5.96548
     2010.38193         8.66448         5.96123
     2010.38466         0.03920         5.90288
     2010.38740         6.25193         5.82119
     2010.39014         4.13765         5.87318
     2010.39288         0.97637         5.86681
     2010.39561        -3.82191         5.84665
     2010.39835         2.02982         5.71298
     2010.40109         2.63254         5.67479
