# ================= DQRFIT RESULTS ================
# INPUT FILE: series/BCRK.rad
# OUTPUT: LDETRENDED
# FILTER FUNCTION: f(t)
# f(t)=+line(t)+annual(t)
# line(t)=+P 1+P 2*t
# annual(t)=+P 3*sin(2*pi*t+P 4)
# heav(t)=(t<0?0:1)
# TOTAL OBSERVATIONS MTOT= 4156
# INITIAL TIME INTERVAL= 2022.7488 - 2010.6530 = 12.0958
# TOTAL OBSERVATIONS AFTER PREFILTER M= 4132
# TIME-SPAN= 2022.7488 - 2010.6530 = 12.0958
# OBSERVATIONS: USED M=  4132 REJECTED MTOT-M=    24 %USED=   99.4225
# N=  4 PARAMETERS
# MAXSIG= 175.00000
# MAXRES=  35.31564
# SCALE FACTOR FOR LENGTHS: SCL=  10.00000
# SCALE FACTOR FOR SIGMAS: SCLSIG=   1.00000
# CHI^2=   8140.956 DOF=  4128 CHI^2/DOF=   1.97213
# RMS=      8.344 SDEV=      8.345 MEAN=   -0.02584
#  P #       PARAMETER +-    SIGMA %error PARAMETER NAME
# P 1 =     -3333.65291 +-   76.669   2.30 YZERO                              
# P 2 =         1.65625 +-    0.038   2.30 SLOPE                              
# P 3 =         4.88100 +-    0.183   3.76 ANNUAL AMPLITUDE                   
# P 4 =         2.60630 +-    0.046   1.75 ANNUAL PHASE                       
#       T            LDETRENDED       SIG_OBS
     2010.65297        14.83247         8.58745
     2010.65571        16.15694         8.28131
     2010.65845         9.99140         8.17458
     2010.66119         8.90987         8.25041
     2010.66392        12.80733         8.15913
     2010.66666        10.67580         8.20969
     2010.66940        12.53826         8.19003
     2010.67214        10.88073         8.10858
     2010.67488        16.70019         8.20407
     2010.67761        15.10166         8.12824
     2010.68035         7.39212         8.12824
     2010.68309         6.94059         8.32765
     2010.68583        19.43505         8.23216
     2010.68856         5.89352         8.19565
     2010.69130         8.72799         8.09453
     2010.69404         5.56745         8.43017
     2010.69678         7.11892         8.21390
     2010.69952         6.90938         8.11981
     2010.70225         5.45285         8.22935
     2010.70499         9.96231         8.17598
     2010.70773         7.46178         8.06926
     2010.71047         7.13724         8.16475
     2010.71321         9.76871         8.07066
     2010.71594         6.07217         8.17598
     2010.71868         9.14964         8.17037
     2010.72142        10.50411         8.19845
     2010.72416        11.45657         8.24620
     2010.72689        14.30504         8.22514
     2010.72963        15.46450         8.41191
     2010.73237         9.54697         8.10577
     2010.73511        12.44843         8.16896
     2010.73785         8.38090         8.28974
     2010.74058        18.73936         8.31080
     2010.74332        11.94883         8.08470
     2010.74606        12.57529         8.28693
     2010.74880         9.76776         8.27710
     2010.75154        14.28523         8.20267
     2010.75427        14.31069         8.25182
     2010.75701        13.98616         8.27990
     2010.75975        16.01962         8.16475
     2010.76249         5.12709         8.20267
     2010.76522         4.11655         8.13526
     2010.76796        15.60902         8.08892
     2010.77070        11.81748         8.10156
     2010.77344        10.53895         8.11279
     2010.77618        14.01141         9.24749
     2010.77891         4.45288         8.17037
     2010.78165         1.92535         8.06645
     2010.78439         6.20881         8.10717
     2010.78713        15.62328         8.16896
     2010.78987        17.44574         8.05521
     2010.79260        15.09921         8.22935
     2010.79534        12.24267         8.03696
     2010.79808        13.52914         8.13526
     2010.80082        11.76560         8.01730
     2010.80355        17.48907         8.08611
     2010.80629        14.09753         8.04960
     2010.80903        16.38500         8.45264
     2010.81177        17.21147         8.20688
     2010.81451        20.15993         8.02432
     2010.81724        19.96140         8.05381
     2010.81998         9.96786         8.06645
     2010.82272        15.53333         8.05802
     2010.82546        21.89379         8.07347
     2010.82820        21.58726         8.05802
     2010.83093        20.41172         8.32765
     2010.83367        16.51719         8.30378
     2010.83641        12.27665         8.10296
     2010.83915        14.64212         8.14228
     2010.84188        20.40059         8.16194
     2010.84462        22.48905         8.08470
     2010.84736        20.07952         8.18301
     2010.85010        18.90598         8.09173
     2010.85284        16.15145         8.18160
     2010.85557        12.04591         8.09734
     2010.85831         9.24838         8.04538
     2010.86105         9.65184         8.33748
     2010.86379        12.96431         8.31923
     2010.86653        13.23477         8.15211
     2010.86926         8.67524         8.21109
     2010.87200         9.70071         8.10015
     2010.87474         5.40417         8.24761
     2010.87748         0.08264         8.28693
     2010.88021         5.82210         8.23497
     2010.88295         3.96357         8.32765
     2010.88569         5.01303         8.20548
     2010.88843        -2.79850         8.52987
     2010.89117        18.13296         8.56639
     2010.89390        12.56543         8.19003
     2010.89664        15.12789         8.28833
     2010.89938        15.14136         8.24339
     2010.90212        16.35083         8.13666
     2010.90485        16.73129         8.20267
     2010.90759        18.93876         8.27288
     2010.91033        11.40022         8.25041
     2010.91307         4.76569         8.30940
     2010.91581         8.10615         8.16896
     2010.91854         6.44362         8.23918
     2010.92128         6.36108         8.30659
     2010.92402        10.32655         8.24620
     2010.92676         8.74001         8.27007
     2010.92950        -1.05552         8.25744
     2010.93223        -1.08305         8.17598
     2010.93497         2.85241         8.21671
     2010.93771        -1.50012         8.32344
     2010.94045        -6.99366         8.48915
     2010.94318        -2.76119         8.20548
     2010.94592        -3.94173         8.28833
     2010.94866        -0.73226         8.22092
     2010.95140        -4.70580         8.56217
     2010.95414       -19.58133         8.23778
     2010.95687       -30.07887         8.29676
     2010.95961       -28.21940         8.45545
     2010.96235       -29.80993         8.31080
     2010.96509       -24.82447         8.25744
     2010.96783       -22.60200         8.34591
     2010.97056       -23.48054         8.27710
     2010.97330       -24.40107         8.28974
     2010.97604       -30.73061         8.35714
     2010.97878       -31.05914         8.31642
     2010.98151       -30.20068         8.34029
     2010.98425       -27.99521         8.30940
     2010.98699       -16.30575         8.32063
     2010.98973       -18.24728         8.53549
     2010.99247       -17.19282         8.54813
     2010.99520       -16.43635         8.59167
     2010.99794       -27.54088         8.44421
     2011.00342       -12.37595         8.31782
     2011.00616        -5.65049         8.26024
     2011.00889         3.88398         8.43157
     2011.01163        -2.13956         8.28974
     2011.01437        -8.96909         8.18301
     2011.01711        -9.00263         8.40629
     2011.01984       -13.83416         8.25182
     2011.02258       -17.01970         8.14790
     2011.02532       -18.73323         8.32484
     2011.02806       -16.75676         8.41332
     2011.03080       -20.25230         8.14228
     2011.03353       -14.33883         8.12824
     2011.03627        -6.94537         8.26305
     2011.03901        -7.69390         8.16475
     2011.04175        -4.97644         8.18441
     2011.04449        -8.75097         8.19986
     2011.04722        -8.76551         8.45825
     2011.04996       -11.07804         8.45545
     2011.05270        -3.18258         8.21952
     2011.05544        -1.52311         8.23637
     2011.05817         2.65236         8.25322
     2011.06091        -2.80018         8.20267
     2011.06365         0.57629         8.25884
     2011.06639         0.89675         8.22373
     2011.06913         0.08022         8.87674
     2011.07186        -7.80432         8.26727
     2011.07460       -20.87885         8.21250
     2011.07734       -16.86039         8.19284
     2011.08008       -16.18092         8.24199
     2011.08282       -14.97246         8.21109
     2011.08555       -17.18899         8.32063
     2011.08829        -9.90352         8.25884
     2011.09103         3.91494         8.10296
     2011.09377         2.32841         8.22654
     2011.09650        -5.69813         8.34450
     2011.09924        -2.48166         8.22935
     2011.10198        -3.40420         8.14930
     2011.10472        -1.88873         8.13245
     2011.10746         3.69573         8.11841
     2011.11019         4.07920         8.05240
     2011.11293         7.85966         8.12262
     2011.11567        11.60213         8.23356
     2011.11841        11.44360         8.21531
     2011.12115         2.09906         8.24901
     2011.12388        -2.53547         8.52987
     2011.12662         2.09199         8.54251
     2011.12936         4.48946         8.29676
     2011.13210         5.02892         8.71525
     2011.13483        10.60439         8.16615
     2011.13757         9.31585         8.22233
     2011.14031         7.58732         8.15773
     2011.14305         6.07778         8.35574
     2011.14579        -3.65475         8.37680
     2011.14852         3.44472         8.21250
     2011.15126        10.60218         8.08470
     2011.15361        17.78529         9.44269
     2011.15678         4.27604         8.22092
     2011.15948         1.80958         8.18301
     2011.16221        16.38204         8.92730
     2011.16495        14.36851         8.34310
     2011.16769        15.56997         8.12402
     2011.18138        -3.15570         8.10717
     2011.18412        -3.17323         7.99061
     2011.18685        -2.73477         8.86832
     2011.18959         2.62070         9.53256
     2011.19233        -0.74984         8.11279
     2011.19507         6.21463         8.17177
     2011.19780         5.36409         8.13526
     2011.20054         5.89156         8.12402
     2011.20328         9.64302         8.37961
     2011.20602         3.31749         8.40349
     2011.20876        -1.24804         8.18722
     2011.21149        -4.45558         8.12683
     2011.21423        -1.34911         8.01308
     2011.21697         2.49735         8.32203
     2011.21971         5.97082         8.29114
     2011.22245        -1.31472         8.12122
     2011.22518        -1.77925         8.03836
     2011.22792         5.77721         8.05802
     2011.23066         1.59668         8.03977
     2011.23340         1.73014         8.11139
     2011.23613         1.14461         8.14930
     2011.23887         1.17608         8.05943
     2011.24161         6.97054         8.06083
     2011.24435        12.66901         8.11700
     2011.24709         3.84447         8.24620
     2011.24982         2.67994         8.30097
     2011.25256         3.32640         8.10296
     2011.25530         5.74687         8.05521
     2011.25804         9.48433         8.17739
     2011.26078         5.81380         9.32051
     2011.26351         0.09426         8.16194
     2011.26625         2.39473         8.10717
     2011.26899         8.05020         8.36136
     2011.27173        -3.34734         8.22935
     2011.27446         3.19913         8.37540
     2011.27720        -3.39141         9.06492
     2011.27994        -7.90094         8.60992
     2011.28268        -5.00348         8.10015
     2011.28542        -8.83301         8.05521
     2011.28815        -7.21355         8.09594
     2011.29089        -3.56908         8.16054
     2011.29363        -4.49962         8.63941
     2011.29637        -2.25315         8.13385
     2011.29911        -3.80169         8.22935
     2011.30184         3.42278         8.46106
     2011.30458         0.93325         8.15492
     2011.30732         2.73471         8.14369
     2011.31006         3.85018         8.12122
     2011.31279         0.94364         8.11279
     2011.31553         5.09411         8.07909
     2011.31827         0.48657         8.15071
     2011.32101         1.74504         8.25744
     2011.32375        -6.85450         8.21952
     2011.32648        -8.10303         8.36557
     2011.32922        -2.80057         8.40770
     2011.33196         2.65690         8.59869
     2011.33470        -0.73463         8.25603
     2011.33744        -3.54017         8.26727
     2011.34017        -4.36170         8.42876
     2011.34291         1.21776         8.48213
     2011.34565         1.90923         8.32625
     2011.34839        -4.29731         8.27569
     2011.35112         0.60416         8.21250
     2011.35386        -4.52438         8.33046
     2011.35660        -4.51791         8.10296
     2011.35934        -8.91245         8.09032
     2011.36208        -9.81598         8.13245
     2011.36481        -7.06151         8.21671
     2011.36755        -0.04105         8.18862
     2011.37029         1.09242         8.35433
     2011.37303         4.27188         8.36978
     2011.37577         1.39535         8.29114
     2011.37850         1.14081         8.26867
     2011.38124        -4.69772         8.18160
     2011.38398        -0.44726         8.35574
     2011.38672         0.45421         8.39225
     2011.38945        -5.34733         8.27850
     2011.39219        -0.87186         8.28974
     2011.39493        -5.33639         8.29816
     2011.39767         0.63107         8.21671
     2011.40041        -3.45146         8.39787
     2011.40314       -10.49500         9.56486
     2011.40588         9.07647         8.87393
     2011.40862        -4.40107         8.25463
     2011.41136        -2.07660         8.45123
     2011.41410         1.93886         8.35855
     2011.41683        -2.62567         8.41472
     2011.41957        -1.49121         8.27288
     2011.42231        -7.02074         8.30940
     2011.42505         3.35473         8.41472
     2011.42778        -5.50581         8.37961
     2011.43052        -5.99234         8.31080
     2011.43326        -3.80988         8.35433
     2011.43600        -3.09741         8.34310
     2011.43874        -0.12795         8.46247
     2011.44147         3.03252         8.41753
     2011.44421         2.91298         8.33046
     2011.44695         5.38245         8.34872
     2011.44969         0.08791         8.34170
     2011.45243        -4.86762         8.39085
     2011.45516        -4.04815         8.37119
     2011.45790        -5.10469         8.43157
     2011.46064        -1.27922         8.26446
     2011.46338        -4.28876         8.35714
     2011.46611        -4.42429         8.40910
     2011.46885         0.67217         8.56920
     2011.47159        -3.35936         8.38102
     2011.47433         0.91910         8.49055
     2011.47707         3.51057         8.27710
     2011.47980         6.37403         8.34310
     2011.48254        -2.38050         8.49055
     2011.48528         4.96797         8.43298
     2011.48802         0.38543         8.34029
     2011.49076         3.16390         8.23497
     2011.49349         3.59836         8.38382
     2011.49623         8.50883         9.01296
     2011.49897         5.44629         8.48915
     2011.50171         1.48776         8.39366
     2011.50444         1.35322         8.26165
     2011.50718        -1.26731         8.49617
     2011.50992        -3.70785         8.41051
     2011.51266        -6.43738         8.68716
     2011.51540         0.01909         8.34591
     2011.51813        -1.91645         8.30097
     2011.52087         0.05802         8.37259
     2011.52361         4.42948         8.81917
     2011.52635        -7.88305         8.31923
     2011.52908        -2.24959         8.40489
     2011.53182         0.64588         8.31361
     2011.53456         4.39334         8.29114
     2011.53730         1.26181         8.27429
     2011.54004        -1.65273         8.31782
     2011.54277         1.97574         8.44562
     2011.54551         6.12121         8.37821
     2011.54825         4.52067         8.31361
     2011.55099         4.85814         8.29395
     2011.55373         3.73360         8.37119
     2011.55646         4.40907         8.35293
     2011.55920         1.63453         8.38804
     2011.56194         3.96500         8.36557
     2011.56468         7.19046         8.22092
     2011.56741         9.92693         8.29535
     2011.57015        -1.04361         8.49898
     2011.57289        -0.88114         8.38944
     2011.57563         6.80732         8.44562
     2011.57837         4.42779         8.39366
     2011.58110         0.72426         8.39506
     2011.58384         6.01072         8.30799
     2011.58658         8.63319         8.62116
     2011.58932         5.67465         8.34591
     2011.59206         7.70212         8.54673
     2011.59479         6.46358         8.95539
     2011.59753         8.22105         8.35574
     2011.60027         7.69151         8.40068
     2011.60301         2.42998         8.33046
     2011.60574         3.86144         8.47370
     2011.60848         8.77891         8.46949
     2011.61122         9.82238         8.48915
     2011.61396         9.25184         8.45123
     2011.61670        12.17531         8.55937
     2011.61943         8.83177         8.50179
     2011.62217        10.14924         8.49055
     2011.62491         6.91670         8.35433
     2011.62765         6.38517         8.38944
     2011.63039        14.45363         8.38242
     2011.63312        15.70810         8.47370
     2011.63586        16.70256         8.33327
     2011.63860        19.14603         8.36136
     2011.64134        18.01650         8.55656
     2011.64407         9.93596         8.30237
     2011.64681         4.73143         8.38663
     2011.64955         8.71289         8.72227
     2011.65229         3.08236         8.54673
     2011.65503        10.55082         8.44562
     2011.65776         7.15929         8.57341
     2011.66050         4.29775         8.63660
     2011.66324        10.35322         8.44000
     2011.66598        12.50068         8.52847
     2011.66872        10.82515         8.51021
     2011.67145         7.52962         8.52847
     2011.67419        10.57108         8.40489
     2011.67693        15.46155         8.28833
     2011.67967        14.65501         8.45123
     2011.68240        13.36548         8.40068
     2011.68514         8.17594         8.41332
     2011.68788        10.91741         8.79529
     2011.69062         5.18687         9.21097
     2011.69336         5.95134         8.49055
     2011.69609         6.50980         8.97083
     2011.69883        16.33327         8.74614
     2011.70157        12.96374         8.36416
     2011.70431         8.58220         8.35574
     2011.70705        11.21367         8.50038
     2011.70978        12.82413        10.39342
     2011.71252        13.77360         8.40910
     2011.71526        14.46906         8.44562
     2011.71800        19.45053         8.65626
     2011.72073        21.88699         8.35714
     2011.72347        18.50146         8.30799
     2011.72621        15.65692         8.38242
     2011.72895        10.70339         8.36697
     2011.73169        12.41486         8.39506
     2011.73442        10.63632         9.03965
     2011.73716        16.11479         8.47089
