# ================= DQRFIT RESULTS ================
# INPUT FILE: series/BCSM.rad
# OUTPUT: LDETRENDED
# FILTER FUNCTION: f(t)
# f(t)=+line(t)+annual(t)
# line(t)=+P 1+P 2*t
# annual(t)=+P 3*sin(2*pi*t+P 4)
# heav(t)=(t<0?0:1)
# TOTAL OBSERVATIONS MTOT= 3228
# INITIAL TIME INTERVAL= 2022.3205 - 2010.9541 = 11.3664
# TOTAL OBSERVATIONS AFTER PREFILTER M= 3172
# TIME-SPAN= 2022.3205 - 2010.9541 = 11.3664
# OBSERVATIONS: USED M=  3172 REJECTED MTOT-M=    56 %USED=   98.2652
# N=  4 PARAMETERS
# MAXSIG= 175.00000
# MAXRES=  40.29352
# SCALE FACTOR FOR LENGTHS: SCL=  10.00000
# SCALE FACTOR FOR SIGMAS: SCLSIG=   1.00000
# CHI^2=  29997.076 DOF=  3168 CHI^2/DOF=   9.46877
# RMS=     17.336 SDEV=     17.338 MEAN=   -0.15657
#  P #       PARAMETER +-    SIGMA %error PARAMETER NAME
# P 1 =     -6411.98687 +-  233.563   3.64 YZERO                              
# P 2 =         3.18554 +-    0.116   3.64 SLOPE                              
# P 3 =         9.37237 +-    0.449   4.79 ANNUAL AMPLITUDE                   
# P 4 =         2.89330 +-    0.066   2.27 ANNUAL PHASE                       
#       T            LDETRENDED       SIG_OBS
     2010.95414       -10.81490        19.99832
     2010.95687       -16.62962        19.80138
     2010.95961        -8.15234        20.81376
     2010.96235       -21.40706        20.14294
     2010.96509        -8.04679        19.95216
     2010.96783        -4.67751        19.99832
     2010.97056         0.01477        20.47527
     2010.97330       -13.59895        20.06601
     2010.97604       -16.89167        22.03846
     2010.97878        -5.21139        32.24224
     2010.98151       -11.39212        19.94908
     2010.98425         2.14316        20.33065
     2010.98699        -8.81856        19.95524
     2010.98973        -5.68428        20.28449
     2010.99247        -0.16700        21.12147
     2010.99520        -4.75572        20.44142
     2010.99794        -8.17244        19.95524
     2011.00068       -11.75417        19.85984
     2011.00342        -1.75189        20.49066
     2011.00616         1.25239        20.12140
     2011.00889         0.20967        20.71221
     2011.01163        -5.16405        19.75522
     2011.01437        -2.80577        20.25679
     2011.01711         1.77150        21.38303
     2011.01984        -2.06922        19.58598
     2011.02258        -2.40294        19.73368
     2011.02532        -4.88166        19.54598
     2011.02806        -6.37738        20.48758
     2011.03080         0.28590        28.04195
     2011.03353        -2.47882        19.94908
     2011.03627        -5.89055        20.21679
     2011.03901        -5.36527        19.89062
     2011.04175         2.00201        20.19217
     2011.04449        -7.99171        20.95838
     2011.04722        -8.65143        21.32148
     2011.04995        -4.47811        20.34295
     2011.05270        -2.61288        20.01986
     2011.05544       -11.46660        20.10294
     2011.05817        -5.44332        19.64137
     2011.06091        -5.92004        19.74907
     2011.06365        -3.51076        19.72445
     2011.06639        -3.88148        19.78599
     2011.06913        -5.14420        21.05070
     2011.07186        -3.10293        20.05986
     2011.07460        -3.68765        19.95524
     2011.07734        -4.28737        19.70291
     2011.08008        -4.62809        19.74907
     2011.08276        -6.44463        20.21679
     2011.08566        -7.26588        21.49996
     2011.08829        -2.30726        20.03832
     2011.09103        -5.51998        20.86299
     2011.09342        -4.84961        25.39561
     2011.10015       -12.26002        32.07608
     2011.10201        -5.67595        20.01678
     2011.10472        -1.09358        19.49982
     2011.10746        -3.95031        20.60143
     2011.11019        -8.59203        19.90908
     2011.11293        -1.65475        19.70599
     2011.11567        -0.77647        20.15525
     2011.11841         0.88481        19.61367
     2011.12115        -5.71891        20.15217
     2011.12388        -7.64264        21.06608
     2011.12662        -9.97336        20.77068
     2011.12936        -6.15808        20.13679
     2011.13210       -11.36080        19.83215
     2011.13483       -14.56652        21.21994
     2011.13757       -22.50224        19.60136
     2011.14031       -22.41396        19.62290
     2011.14305       -22.17069        20.25679
     2011.14579       -19.68641        20.23833
     2011.14852       -19.75113        19.50597
     2011.15126       -15.19785        19.65060
     2011.15400       -11.56857        19.64137
     2011.15674       -12.53729        19.62906
     2011.15948        -6.54102        19.94293
     2011.16221       -14.22974        21.22609
     2011.16495       -13.24946        20.04755
     2011.16769       -14.18918        20.07524
     2011.17043       -15.66090        19.64444
     2011.17316       -12.52362        19.77368
     2011.17590       -21.60434        19.54905
     2011.17864        -7.99207        19.81984
     2011.18138       -18.15179        20.36142
     2011.18412       -25.19351        20.01986
     2011.18685       -21.65523        20.50912
     2011.18959       -14.37695        19.76138
     2011.19233       -16.39367        19.43212
     2011.19507        -6.56240        19.73060
     2011.19780       -16.79612        20.30911
     2011.20054       -21.71784        19.83523
     2011.20328       -13.13356        19.69676
     2011.20602       -16.48728        21.17070
     2011.20876       -23.39200        20.25987
     2011.21149       -31.82772        19.91523
     2011.21423       -26.80145        19.79522
     2011.21697       -23.54117        19.69676
     2011.21971       -23.76689        20.04755
     2011.22245       -21.63461        20.74606
     2011.22518       -10.97733        21.29071
     2011.22745        -9.88354        27.59884
     2011.23694        -0.25879        26.78648
     2011.23887        -5.13994        20.02601
     2011.24161        -9.72366        20.22295
     2011.24435        -2.96138        20.08448
     2011.24709       -14.84710        19.96447
     2011.24982       -17.88583        20.33988
     2011.25256        -0.75455        19.70291
     2011.25530        -5.90127        20.26295
     2011.25804        -6.86999        20.92761
     2011.26078       -15.01371        20.77683
     2011.26337       -13.55396        21.30302
     2011.26702         0.42541        26.46338
     2011.26899         0.99312        20.11832
     2011.27173        -2.78660        20.43219
     2011.27446         0.07668        21.05685
     2011.27720        -9.40304        20.89684
     2011.27994        -6.06276        19.68752
     2011.28268        -6.41948        20.06601
     2011.28542       -15.23121        19.80446
     2011.28815       -16.81793        19.79215
     2011.29089        -1.86065        19.69368
     2011.29363        -8.65837        19.73060
     2011.29637        -3.79009        19.85677
     2011.29911        -4.16781        19.90600
     2011.30184        -5.83554        19.86908
     2011.30458        -4.53726        19.62906
     2011.30732        -4.35198        19.54905
     2011.31379        -5.42160        34.91935
     2011.31553        -7.44714        20.35834
     2011.31827        -9.03386        19.69676
     2011.32101       -11.53059        20.02601
     2011.32375       -12.81831        20.04447
     2011.32648        -7.40003        19.53982
     2011.32922       -11.43075        19.57059
     2011.33196        -2.60847        19.83830
     2011.33470       -15.10619        20.38296
     2011.33744       -13.51192        20.38296
     2011.34017        -6.76164        20.71837
     2011.34291        -6.73636        20.76145
     2011.34565        -6.87608        20.21371
     2011.34839       -14.76880        20.16140
     2011.35112       -12.75152        20.34911
     2011.35386       -18.47825        20.63221
     2011.35660       -10.80297        19.69060
     2011.35934       -12.87969        20.09678
     2011.36090       -20.60565        62.94284
     2011.36481       -20.11313        20.52451
     2011.36755       -24.48485        20.36142
     2011.37029       -12.68457        20.40142
     2011.37303        -9.22730        23.47856
     2011.37577        -7.77902        20.89069
     2011.37850       -18.27274        20.75221
     2011.38124       -16.82446        20.31526
     2011.38398       -25.37418        20.36757
     2011.38672       -12.86890        20.41065
     2011.38945       -12.80563        20.33680
     2011.39219       -19.70035        20.35834
     2011.39493       -12.13607        20.25372
     2011.39767       -11.36079        20.81068
     2011.40041       -12.64151        20.37065
     2011.40314       -20.64623        20.20141
     2011.40588       -16.36795        20.26910
     2011.40862        -8.96968        21.06916
     2011.41136       -16.19040        20.27526
     2011.41410       -14.32912        20.48758
     2011.41683       -11.56684        20.93377
     2011.41957       -11.93656        20.38296
     2011.42231       -14.48728        20.41988
     2011.42505       -13.49701        20.83222
     2011.42778       -14.50173        22.54003
     2011.43052       -13.12245        20.71529
     2011.43326       -16.12717        20.23833
     2011.43600       -15.44389        20.58913
     2011.43874       -13.49161        20.59528
     2011.44147       -12.03033        20.57989
     2011.44421       -16.29206        20.30295
     2011.44695       -14.07778        20.63836
     2011.44969       -19.60450        20.53681
     2011.45243       -14.04322        20.70298
     2011.45516       -20.27294        20.37680
     2011.45790       -12.45466        20.65990
     2011.46064       -11.36939        20.93069
     2011.46338       -18.36311        20.41373
     2011.46611        -9.09083        20.37065
     2011.46885        -6.93255        20.40450
     2011.47159       -10.64727        20.93992
     2011.47433       -19.64499        21.17686
     2011.47707        -9.91271        20.48143
     2011.47980        -7.97044        20.51220
     2011.48254       -16.70016        20.81991
     2011.48528        -9.94488        20.70913
     2011.48802        -7.21660        20.86299
     2011.49076        -4.36032        20.85991
     2011.49349        -7.28804        20.62605
     2011.49623        -5.92777        20.53374
     2011.49897        -5.28649        20.61990
     2011.50171        -8.81121        20.62913
     2011.50444       -10.52393        20.47835
     2011.50718        -9.51565        20.70298
     2011.50992        -3.01037        20.84453
     2011.51266        -5.35509        20.69990
     2011.51540       -14.19782        24.40785
     2011.51813        -2.63154        20.37065
     2011.52087        -3.93826        20.75221
     2011.52361        -3.70298        31.22064
     2011.52635        -4.57070        20.85068
     2011.52908        -8.07742        20.75529
     2011.53182        -9.08213        20.31218
     2011.53547       -11.76076        45.81550
     2011.53730       -18.56259        20.57066
     2011.54004        -7.11431        20.53989
     2011.54277       -20.39103        20.30603
     2011.54551       -10.37675        20.48758
     2011.54825        -9.11147        20.33680
     2011.55099       -10.38920        21.39226
     2011.55373        -6.66392        20.44142
     2011.55528       -29.16388       113.43867
     2011.56279        -3.95278        34.59933
     2011.56470        -9.37188        21.69074
     2011.56741       -11.06653        20.68452
     2011.57013        -1.01117        21.42611
     2011.57289       -15.86197        20.79837
     2011.57563        -5.01769        20.54912
     2011.57837         2.99059        20.97684
     2011.58110       -14.52813        20.26295
     2011.58384        -1.92585        20.94915
     2011.58658        -1.78358        26.71878
     2011.58932        -4.45830        20.38911
     2011.59206        -2.21502        20.47219
     2011.59479        -3.77074        20.28449
     2011.59645       -31.11003        73.49435
     2011.60102        -7.50256        30.89138
     2011.60301        -2.16791        20.43219
     2011.60574        -1.81963        20.85991
     2011.60848        -2.72035        21.38610
     2011.61122        -1.48607        21.77382
     2011.61396         6.22721        21.18609
     2011.61670        -4.28851        21.23532
     2011.61943       -11.95823        21.19840
     2011.62217        -0.87396        21.85998
     2011.62491        -2.02868        26.81417
     2011.62767        -2.04746        21.96153
     2011.63039        -0.13512        30.14979
     2011.63312        -4.85384        20.98915
     2011.63502         8.03210        33.16846
     2011.64134         4.08399        21.81998
     2011.64407       -10.11173        21.29687
     2011.64681        -2.78745        20.81683
     2011.64955        -0.91717        22.27847
     2011.65229        -4.41989        20.93992
     2011.65503        -4.01361        20.97992
     2011.65764        -7.55894        24.22015
     2011.68315        -1.47419        34.32547
     2011.68512         2.61051        21.15224
     2011.68788         1.30373        21.03223
     2011.69062        -2.24299        21.00146
     2011.69336         0.95328        21.20763
     2011.69609         4.17756        21.65074
     2011.69883        -2.48516        20.97992
     2011.70157         4.06512        21.45072
     2011.70431         0.75740        21.05685
     2011.70710        -8.04351        21.89075
     2011.70978         4.41895        20.80453
     2011.71252         6.33423        21.24148
     2011.71521         2.26466        21.14609
     2011.71878       -14.04871        38.15035
     2011.72073        18.34207        21.24763
     2011.72347         6.83635        21.87229
     2011.72621         5.41862        21.55227
     2011.72895         4.47790        20.83222
     2011.73169        18.29618        21.92460
     2011.73442        -2.69054        21.57996
     2011.73716        11.55074        21.93999
     2011.73990        -4.65498        21.77690
     2011.74236         8.15219        21.84767
     2011.74630       -13.20936        56.96397
     2011.74764         2.26035        24.38631
     2011.75181       -24.02493        58.80102
     2011.75359        -1.15159        21.98307
     2011.75633         3.48169        21.81690
     2011.75906         4.82397        21.79229
     2011.76180        -7.78476        21.46303
     2011.76454         8.97952        21.73074
     2011.76728        -8.74320        21.40764
     2011.77002         0.65708        21.42303
     2011.77275         7.65036        21.43534
     2011.77549        -1.12836        21.52765
     2011.77823        -3.98108        21.78921
     2011.78097       -15.02781        21.18609
     2011.78349         3.32915        22.50003
     2011.79267         2.18692        43.28609
     2011.79466         0.41559        21.43534
     2011.79739         8.31386        21.60458
     2011.80013         9.85714        23.28162
     2011.80287        13.92542        21.63535
     2011.80561        15.02770        21.28456
     2011.80835         6.37698        20.94300
     2011.81114         1.38908        21.69997
     2011.81382       -10.17146        22.43233
     2011.81652        12.03895        22.06307
     2011.82010       -12.43745        46.78172
     2011.82206        21.85330        25.75564
     2011.82477        11.02565        21.83229
     2011.82751         3.39493        21.77998
     2011.83025        10.39421        22.00461
     2011.83299        -0.06352        21.11839
     2011.83571         2.25281        22.78005
     2011.83846         7.53604        21.01992
     2011.84120         3.25732        21.13070
     2011.84394         7.94560        20.77683
     2011.84668        -0.15512        20.82607
     2011.84941         3.28716        22.46310
     2011.85215        -2.45957        25.86026
     2011.85489         3.68871        22.70312
     2011.85763        11.67399        22.94621
     2011.86036        20.86127        21.05685
     2011.86310        12.74155        20.88761
     2011.86584        12.47883        20.86607
     2011.86858        17.91910        21.08762
     2011.87110        14.03706        22.48157
     2011.87405         9.57166        21.01377
     2011.87679        10.01994        21.25071
     2011.87953         7.37922        21.40457
     2011.88227         4.06350        20.78299
     2011.88501         2.05978        20.73683
     2011.88774        -3.52595        21.10916
     2011.89048        -0.79567        21.01992
     2011.89322       -11.69439        20.84453
     2011.89596        -6.33911        20.76452
     2011.89869         4.22917        21.14301
     2011.90087       -10.42777        24.65402
     2011.90781        -9.57287        47.66486
     2011.90965        16.79728        20.81991
     2011.91238         1.78356        21.37380
     2011.91512         2.44384        20.85684
     2011.91786         5.02112        21.11532
     2011.92060         3.70140        20.77068
     2011.92334         0.81867        23.02314
     2011.92607         5.12195        21.50304
     2011.92881        10.44223        21.45072
     2011.93155         1.39051        21.29379
     2011.93429         4.13079        21.26917
     2011.93702         3.06407        21.47842
     2011.93976        12.04934        21.56150
     2011.94250        12.02062        21.25071
     2011.94524         8.69890        21.39534
     2011.94798        11.48218        21.49073
     2011.95071         7.77246        20.81683
     2011.95345         8.30374        21.08762
     2011.95619        11.13402        21.32456
     2011.95893         4.53429        20.55528
     2011.96167         6.60657        20.82299
     2011.96440         1.38685        20.42911
     2011.96714         8.15813        20.66913
     2011.96988         8.51941        20.27526
     2011.97262         9.47069        20.07832
     2011.97535         0.66496        20.19833
     2011.97809         1.90924        20.50297
     2011.98083         4.08652        20.33988
     2011.98357         6.08380        20.12756
     2011.98631         4.45508        20.19525
     2011.98904         6.40236        21.25071
     2011.99178         9.04664        20.37680
     2011.99452         3.56791        20.30295
     2011.99726         7.91519        19.87831
     2012.00000        -2.45753        20.03524
     2012.00273         6.80575        20.08140
     2012.00539         9.97530        21.90306
     2012.00825        -3.46683        20.77683
     2012.01095         2.22058        20.05370
     2012.01368        -1.44414        20.58913
     2012.01642        -0.18886        20.01062
     2012.01916         9.50342        20.26295
     2012.02190         9.06170        21.21071
     2012.02464         9.14098        20.22602
     2012.02737         4.05226        19.97985
     2012.03011         9.28253        19.99216
     2012.03285        13.46281        20.71529
     2012.03559         3.11909        20.02601
     2012.03833         1.37437        19.98293
     2012.04106         9.66665        19.92754
     2012.04380         6.77993        20.57374
     2012.04654        14.02220        21.28148
     2012.04928        -4.28052        20.38911
     2012.05201         1.62376        20.07832
     2012.05475        15.00204        20.11525
     2012.05706         8.74170        25.79872
     2012.06108         3.00989        34.92859
     2012.06297         5.09688        20.29987
     2012.06554         6.34767        22.06923
     2012.07118        -1.66129        20.01062
     2012.07392        -2.66201        19.96754
