# ================= DQRFIT RESULTS ================
# INPUT FILE: series/BCSS.rad
# OUTPUT: LDETRENDED
# FILTER FUNCTION: f(t)
# f(t)=+line(t)+annual(t)+jumps(t)
# line(t)=+P 1+P 2*t
# annual(t)=+P 3*sin(2*pi*t+P 4)
# jumps(t)=+P 5*heav(t-2012.8438  )
# heav(t)=(t<0?0:1)
# TOTAL OBSERVATIONS MTOT= 3548
# INITIAL TIME INTERVAL= 2022.7239 - 2009.1179 = 13.6060
# TOTAL OBSERVATIONS AFTER PREFILTER M= 3512
# TIME-SPAN= 2022.7239 - 2009.1179 = 13.6060
# OBSERVATIONS: USED M=  3512 REJECTED MTOT-M=    36 %USED=   98.9853
# N=  5 PARAMETERS
# MAXSIG= 175.00000
# MAXRES=  28.23829
# SCALE FACTOR FOR LENGTHS: SCL=  10.00000
# SCALE FACTOR FOR SIGMAS: SCLSIG=   1.00000
# CHI^2=   3387.407 DOF=  3507 CHI^2/DOF=   0.96590
# RMS=      5.768 SDEV=      5.768 MEAN=   -0.06840
#  P #       PARAMETER +-    SIGMA %error PARAMETER NAME
# P 1 =      3271.32908 +-   66.069   2.02 YZERO                              
# P 2 =        -1.61782 +-    0.033   2.03 SLOPE                              
# P 3 =         3.33808 +-    0.129   3.85 ANNUAL AMPLITUDE                   
# P 4 =        -2.93260 +-    0.053   1.82 ANNUAL PHASE                       
# P 5 =       -11.26711 +-    0.332   2.95 OFFSET 2012.8438                   
#       T            LDETRENDED       SIG_OBS
     2009.11794       -40.96651         9.27077
     2009.13710       -43.80252         8.86094
     2009.16722       -45.80779         9.30418
     2009.21275       -34.13013         6.51204
     2011.23887        -4.96523         6.36167
     2011.24161        -2.84880         6.39902
     2011.24435        -1.75137         6.45406
     2011.24709        -5.36994         6.48747
     2011.24982         2.15149         6.48158
     2011.25256         6.68892         6.43637
     2011.25530         2.90235         7.37494
     2011.25804         5.04778         6.90909
     2011.26078         4.96121         6.60148
     2011.26351         6.42664         6.39509
     2011.26625         2.24306         6.43440
     2011.26899         1.25649         6.39018
     2011.27173        -2.72708         6.43342
     2011.27446         1.42235         6.63391
     2011.27720         1.25078         6.71745
     2011.27994         0.59521         6.33416
     2011.28268         3.22464         6.39902
     2011.28542        -9.75893         6.35774
     2011.28815        -9.92050         6.30860
     2011.29089        -1.03507         6.37936
     2011.29426        -1.48663         7.72187
     2011.29637        -2.41821         6.32728
     2011.29911        -2.69878         6.36855
     2011.30184         0.76965         6.34693
     2011.30458        -0.14292         6.34693
     2011.30646        -0.47488        12.40492
     2011.31279        -3.13264         6.33416
     2011.31553        -6.89721         6.34693
     2011.31827        -1.85078         6.32924
     2011.32101        -2.20335         6.33219
     2011.32375        -4.52792         6.32728
     2011.32648        -4.63749         6.31548
     2011.32922        -3.90106         6.30467
     2011.33196         1.05137         6.38919
     2011.33470        -5.51520         6.41671
     2011.33744        -2.42477         6.61819
     2011.34017        -3.37034         6.61032
     2011.34291        -1.06991         6.59263
     2011.34565        -1.02948         6.50516
     2011.34839       -12.38606         6.42064
     2011.35112        -5.77363         6.44423
     2011.35386        -4.61920         6.46487
     2011.35660       -12.59977         6.31941
     2011.35934        -9.97834         6.30959
     2011.36208       -13.47391         6.37936
     2011.36481        -9.63448         6.74595
     2011.36755        -1.33805         6.49533
     2011.37029        -4.66462         6.52482
     2011.37303        -0.72419         6.50516
     2011.37577         0.13924         6.48158
     2011.37850        -9.46133         6.52678
     2011.38124        -6.34290         6.50615
     2011.38398        -7.30947         6.51696
     2011.38672        -5.21104         6.42654
     2011.38945        -1.12462         6.48158
     2011.39219        -5.37619         6.44030
     2011.39493        -5.81576         6.47961
     2011.39767        -5.05633         6.46290
     2011.40041         1.88910         6.45701
     2011.40314        -7.50347         6.59362
     2011.40588         0.91896         6.44423
     2011.40862         0.85139         6.44226
     2011.41136        -7.68118         6.48158
     2011.41410        -6.39975         6.46192
     2011.41683        -4.02032         6.46782
     2011.41957         3.15811         6.44619
     2011.42231        -3.54346         6.46978
     2011.42505        -1.56703         6.57199
     2011.42778        -6.52060         6.54349
     2011.43052        -5.70917         6.45111
     2011.43326        -5.03575         6.50221
     2011.43600         0.66068         6.51499
     2011.43874        -2.45689         6.45701
     2011.44147         1.39854         6.49337
     2011.44421         2.61497         6.47470
     2011.44695        -0.45160         6.46192
     2011.44969        -1.26317         6.47961
     2011.45243        -2.16774         6.46487
     2011.45516         1.05569         6.55037
     2011.45790         0.68012         6.50025
     2011.46064        -4.82545         6.49533
     2011.46338        -4.52802         6.47273
     2011.46611        -1.51259         6.56511
     2011.46885         5.35984         6.58575
     2011.47159         0.24727         6.50320
     2011.47433        -1.39731         6.51794
     2011.47707         3.91712         6.55430
     2011.47980         7.25255         6.53760
     2011.48254         5.47298         6.51303
     2011.48528         4.68941         6.50615
     2011.48802         1.23684         6.51008
     2011.49076         1.56827         6.52187
     2011.49349         1.13670         6.50615
     2011.49623         4.57313         6.52875
     2011.49897         3.49456         6.48059
     2011.50171         0.24699         6.48747
     2011.50444         1.13642         6.49927
     2011.50718        13.29985         6.71843
     2011.50992         5.23128         6.55922
     2011.51266        -2.53529         6.48256
     2011.51540        -0.97987         6.45995
     2011.51813         1.11856         6.48747
     2011.52087         1.36399         6.48256
     2011.52361        -2.43758         6.48846
     2011.52635         2.42085         6.49730
     2011.52908         4.23828         6.66634
     2011.53182        -3.51029         6.54349
     2011.53456        -0.64186         8.34202
     2011.53730        -2.06443         6.47568
     2011.54004        -8.30900         6.46389
     2011.54277        -2.96157         6.46782
     2011.54551         5.26286         6.45995
     2011.54825        -2.81771         6.68698
     2011.55099         4.95572         6.50221
     2011.55373        -4.77785         6.56020
     2011.55646        -7.10343         6.64669
     2011.55920         3.52100         6.53268
     2011.56194         5.36743         6.70762
     2011.56468         4.64886         6.89337
     2011.56741         2.45429         6.51499
     2011.57015         0.59172         6.67912
     2011.57289         3.02615         7.46438
     2011.57563        11.35558         6.50615
     2011.57837         3.85801         6.49632
     2011.58110        -0.03656         6.51499
     2011.58384         2.80787         6.49042
     2011.58658         3.21230         6.76167
     2011.58932        10.25973         7.08993
     2011.59206         0.81716         6.55430
     2011.59479         8.29659         6.53956
     2011.59753        12.20001         6.51106
     2011.60027         9.90844         6.48846
     2011.60301        11.62287         6.71941
     2011.60574         5.61130         6.67912
     2011.60848         6.55873         6.74005
     2011.61122         6.28316         7.25406
     2011.61396         2.18959         6.68698
     2011.61670        12.71502         6.62408
     2011.61943         0.68445         9.89288
     2011.62217        18.48088         7.02703
     2011.62491         3.93331         6.61032
     2011.62765         1.27374         6.55725
     2011.63039         5.31417         6.61032
     2011.63312         8.62960         6.74791
     2011.63586        11.16203         6.74988
     2011.63860         5.81246         6.60737
     2011.64202         5.60999         9.90860
     2011.64407        20.35531         6.76266
     2011.64681         4.63174         6.49337
     2011.64955         7.80517         7.16757
     2011.65229         7.47860         6.71647
     2011.65503         1.99203         6.73612
     2011.65776        -4.36454         6.68010
     2011.66050        11.12889         6.86880
     2011.66227         9.25575        14.40197
     2011.66951        26.85947        13.37495
     2011.67145        10.13561         6.69976
     2011.67419        13.57304         6.82752
     2011.67693         6.49347         6.51892
     2011.67967         0.69190         6.66339
     2011.68240        -1.17168         6.71941
     2011.68514         0.28175         6.72040
     2011.68788        14.88918         6.87764
     2011.69062        -5.39739         6.64177
     2011.69336         3.33204         6.61131
     2011.69609         7.70047         6.69681
     2011.69883        16.54090         7.01229
     2011.70157         4.50733         7.11352
     2011.70431         1.51776         6.60541
     2011.70705         1.59119         6.83342
     2011.70978         7.92862         6.78330
     2011.71252         0.97805         7.08993
     2011.71526        11.30048         6.85995
     2011.71800         3.03491         7.13514
     2011.72073        -3.65066         6.98084
     2011.72347        -4.80524         6.72040
     2011.72621        26.62419         7.03096
     2011.72895        -5.16438         6.53661
     2011.73169         4.32105         6.55332
     2011.73442        -0.01352         6.77150
     2011.73716         2.96091         6.65160
     2011.73990        -4.67766         6.55037
     2011.74264         0.63377         6.67420
     2011.74503        11.20365         7.69239
     2011.74851       -18.39373         9.19018
     2011.75085        -2.49794         7.10271
     2011.75359         0.60349         7.21081
     2011.75633         4.12692         6.81180
     2011.75906         1.43635         6.68207
     2011.76180         1.74178         6.69386
     2011.76454         0.45920         6.71450
     2011.76728         7.84663         7.13514
     2011.77002        14.36806         7.13317
     2011.77275        14.45649         6.69681
     2011.77549        -1.62708         6.73710
     2011.77823         5.28735         6.79018
     2011.78097         2.58678         6.74005
     2011.78371        -2.00179         6.70074
     2011.78644         5.34664         6.70074
     2011.78918         9.36407         6.79902
     2011.79192         3.60750         6.82261
     2011.79466         1.86793         6.96413
     2011.79739         8.76336         6.85013
     2011.80287        -0.74778         6.83440
     2011.80561        -0.10836         6.97101
     2011.80835        11.68407         6.88551
     2011.81108         2.49950         6.74791
     2011.81382        -8.15207         7.70222
     2011.81656         1.10336         7.13612
     2011.82203         2.94022         6.90025
     2011.82477         2.73265         6.04423
     2011.82751        -4.25192         5.49288
     2011.83025        -3.70549         5.32580
     2011.83299        -4.38306         5.40246
     2011.83532        -2.20528         6.33416
     2011.83846       -14.38020         5.32285
     2011.84120         1.61323         5.24521
     2011.84394        -0.35434         5.25209
     2011.84668        -3.84891         5.23833
     2011.84941        -0.80149         5.28845
     2011.85215        -7.36506         5.32580
     2011.85489        -0.67863         5.44767
     2011.86036         9.73223         5.31597
     2011.86310         8.99166         5.34054
     2011.86584        11.64309         5.37494
     2011.86801        27.65060         7.09190
     2011.92060        -4.27732         5.38673
     2012.07666        -2.77285         5.14398
     2012.07939         0.33058         5.16855
     2012.08213        -2.40199         5.18329
     2012.08487        -7.27656         5.11450
     2012.09034        -4.70970         5.15086
     2012.09308       -21.69427         5.09091
     2012.09622        -6.32320         6.38231
     2012.09861       -11.77832         6.53563
     2012.10130       -17.69899         5.29337
     2012.10346         0.60452         7.12826
     2012.10677        -8.14113         5.18035
     2012.10997        -5.00596         6.52973
     2012.11225        -6.74927         5.17642
     2012.11498        -5.40984         5.19214
     2012.11772        -1.87141         5.13514
     2012.12046         1.77302         5.16069
     2012.12320       -11.87955         5.20393
     2012.12594        -8.86112         5.14693
     2012.12867        -9.95869         5.15676
     2012.13141       -11.06026         5.15479
     2012.13415        -4.69883         5.17347
     2012.13689        -4.07040         5.15283
     2012.13963        -2.13298         5.34349
     2012.14236         0.55945         5.30615
     2012.14510        -9.10012         5.16560
     2012.14784       -12.79369         5.11548
     2012.15058        -1.42226         5.13710
     2012.15331        -7.34083         5.19902
     2012.15605        -4.96040         5.17150
     2012.15879        -3.83597         5.19804
     2012.16153       -18.34654         5.11352
     2012.16427        -8.80311         5.27666
     2012.16700        -2.91368         5.20295
     2012.16974        -8.68925         5.10664
     2012.17248        -5.06482         5.11646
     2012.17522        -4.16939         5.09288
     2012.17796        -4.07496         5.14890
     2012.18069        -2.67354         5.34841
     2012.18343        -4.36011         5.16266
     2012.18617        -8.91668         5.44963
     2012.18891        -3.27025         5.12924
     2012.19164        -2.43482         5.12728
     2012.19438         5.11361         5.19214
     2012.19712         6.48404         5.14300
     2012.19986        -1.85553         5.18723
     2012.20260        -2.34510         5.35332
     2012.20533         0.50133         5.12826
     2012.20807        -1.97624         5.16757
     2012.21081        -3.27181         5.14693
     2012.21355        -2.34038         5.15479
     2012.21629        -0.09495         5.14202
     2012.21902         0.43448         5.14791
     2012.22176        -5.04410         5.15872
     2012.22450        -9.82067         5.11745
     2012.22724        -4.45724         5.10467
     2012.22997        -2.63981         5.13317
     2012.23271        -3.84638         5.10958
     2012.23545         2.60905         5.12531
     2012.23819        -0.18652         5.15872
     2012.24093         0.77291         5.14398
     2012.24366         3.58334         5.14202
     2012.24640        -2.77023         5.10369
     2012.24914         3.72520         5.10172
     2012.25188        -4.90437         6.09533
     2012.25439        -5.65931         5.70418
     2012.26009        -9.30308         5.12236
     2012.26283        -8.26665         5.09484
     2012.26557       -12.54023         5.30418
     2012.26830       -13.71680         5.07617
     2012.27104        -3.61137         6.88452
     2012.27378        -5.12294         5.11843
     2012.27652        -7.28851         5.12138
     2012.27926        -1.78408         5.19214
     2012.28199       -11.33865         5.07912
     2012.28473        -8.07722         5.09386
     2012.28747         0.96521         5.11646
     2012.29021        -5.77336         5.09484
     2012.29295        -8.09393         5.09976
     2012.29568        -8.40350         5.08403
     2012.29842        -7.42507         5.10074
     2012.30116        -2.56764         5.13219
     2012.30937        -8.42136         5.12236
     2012.31211        -5.63593         5.44472
     2012.31485        -7.27550         5.27470
     2012.31759        -8.94607         5.29632
     2012.32032        -0.85164         5.26683
     2012.32306        -5.16921         5.05062
     2012.32580        -5.99378         5.08698
     2012.32854        -5.42735         5.06536
     2012.33128        -5.63592         5.18428
     2012.33401        -4.83449         5.16364
     2012.33675        -3.88106         5.06339
     2012.33949        -5.06063         5.04275
     2012.34223        -6.23820         5.05946
     2012.34496        -7.14777         5.08796
     2012.34770        -3.75135         5.15185
     2012.35044        -1.63592         5.15185
     2012.35318        -5.95549         5.08993
     2012.35592        -1.51806         5.08305
     2012.35865        -3.59363         5.10172
     2012.36139        -1.10520         5.14595
     2012.36413        -1.59377         5.15971
     2012.36687        -4.18534         5.09288
     2012.36961        -2.78191         5.07322
     2012.37234         1.27252         5.07617
     2012.37508        -3.12705         5.09386
     2012.37782        -0.79962         5.21081
     2012.38056        -5.56719         5.19411
     2012.38329        -2.19276         5.17642
     2012.38603        -1.82033         5.22162
     2012.38877        -3.81791         5.20885
     2012.39151         0.61552         5.20885
     2012.39425        -1.98405         5.18919
     2012.39698        -2.12862         5.18821
     2012.39972        -3.13219         5.29337
     2012.40246         1.95024         5.08403
     2012.40520        -0.42533         5.09288
     2012.40794        -0.68590         5.08010
     2012.41067        -0.27147         5.16167
     2012.41341        -4.68004         5.09681
     2012.41615         2.59539         5.07814
     2012.41889         2.60282         5.22162
     2012.42162         0.78225         5.11941
     2012.42436        -1.84832         5.06831
     2012.42710        -1.59889         5.08600
     2012.42984         2.81853         5.08895
     2012.43258         2.90696         5.15086
     2012.43531        -4.27261         5.10369
     2012.43805        -3.55918         5.10467
     2012.44079        -4.52175         5.13219
     2012.44353        -3.86832         5.13415
     2012.44626        -1.53889         5.07519
     2012.44900        -2.35846         5.11253
     2012.45174         1.02297         5.10467
     2012.45448        -1.44660         5.20197
     2012.45995        -0.45574         5.19509
     2012.46269         1.12869         5.12433
     2012.46543        -2.08488         5.17150
     2012.46817         0.26055         5.22162
     2012.47091         0.03398         5.12924
     2012.47364        -0.01260         5.13022
     2012.47638        -5.39617         5.10074
     2012.47912         1.51326         5.12236
     2012.48186        -1.80031         5.11352
     2012.48459        -0.95288         5.10172
     2012.48733        -1.85745         5.10958
     2012.49007        -6.60402         5.09976
     2012.49281         0.27241         5.10467
     2012.49555        -1.13416         5.12728
     2012.49828        -2.07973         5.12138
     2012.50102         2.07970         5.14300
     2012.50376         1.77513         5.08108
     2012.50650         0.16156         5.06929
     2012.50924        -2.10201         5.22064
     2012.51197        -0.28158         5.27863
     2012.51471        -0.48716         5.15479
     2012.51745        -0.90173         5.13219
     2012.52019        -2.69130         5.10664
     2012.52292       -10.46087         5.20000
