# ================= DQRFIT RESULTS ================
# INPUT FILE: series/BCTE.rad
# OUTPUT: LDETRENDED
# FILTER FUNCTION: f(t)
# f(t)=+line(t)+annual(t)+jumps(t)
# line(t)=+P 1+P 2*t
# annual(t)=+P 3*sin(2*pi*t+P 4)
# jumps(t)=+P 5*heav(t-2012.8438  )
# heav(t)=(t<0?0:1)
# TOTAL OBSERVATIONS MTOT= 3437
# INITIAL TIME INTERVAL= 2022.7488 - 2009.1950 = 13.5538
# TOTAL OBSERVATIONS AFTER PREFILTER M= 3341
# TIME-SPAN= 2022.7488 - 2011.9124 = 10.8364
# OBSERVATIONS: USED M=  3341 REJECTED MTOT-M=    96 %USED=   97.2069
# N=  5 PARAMETERS
# MAXSIG= 175.00000
# MAXRES= 127.93888
# SCALE FACTOR FOR LENGTHS: SCL=  10.00000
# SCALE FACTOR FOR SIGMAS: SCLSIG=   1.00000
# CHI^2=   3104.219 DOF=  3336 CHI^2/DOF=   0.93052
# RMS=     14.042 SDEV=     14.022 MEAN=   -0.78188
#  P #       PARAMETER +-    SIGMA %error PARAMETER NAME
# P 1 =    -11054.49522 +-  149.643   1.35 YZERO                              
# P 2 =         5.51485 +-    0.074   1.35 SLOPE                              
# P 3 =         9.42041 +-    0.238   2.52 ANNUAL AMPLITUDE                   
# P 4 =        -3.03282 +-    0.036   1.17 ANNUAL PHASE                       
# P 5 =       -50.46526 +-    0.503   1.00 OFFSET 2012.8438                   
#       T            LDETRENDED       SIG_OBS
     2011.91238         5.53725         5.57656
     2011.91512         7.77415         5.87366
     2011.91786         5.42206         5.70775
     2011.92060         4.37996         5.66627
     2011.92334         4.32086         5.68074
     2011.92607         0.48276         5.61804
     2011.92881         9.94766         5.66723
     2011.93155         5.63956         5.62093
     2011.93429         5.58046         5.72897
     2011.93702         1.27336         5.58041
     2011.93931        -6.64422         6.91161
     2011.94598         6.28698         8.40583
     2011.94798         8.68797         5.43958
     2011.95071        22.68287         5.61128
     2011.95345         6.98777         5.64022
     2011.95619        11.19867         5.58910
     2011.95893       -34.77543         5.49842
     2011.96167       -21.55653         5.50421
     2011.96440        -7.55962         5.98074
     2011.96714       -11.69372         6.80068
     2011.96988        13.88418         5.46369
     2011.97262         3.81708         5.52061
     2011.97535        -1.11302         5.53990
     2011.97809         1.74288         5.56305
     2011.98357       -24.59832         5.80614
     2011.98631        17.52858         5.56787
     2011.98904        10.10549         5.45308
     2011.99178       -18.91561         5.88620
     2011.99452         8.54429         5.47527
     2011.99726         1.95119         5.41257
     2012.00000        -1.55491         5.46080
     2012.00273         8.71299         5.46659
     2012.00547        -2.62211         5.87752
     2012.00821       -37.17521         5.66144
     2012.01095        14.09170         5.43572
     2012.01368         4.68660         5.38942
     2012.01642         9.93450         5.51386
     2012.01916         8.48240         5.44151
     2012.02190         0.74330         5.52447
     2012.02464        -6.79680         5.45308
     2012.03559       -21.06119         5.53218
     2012.04106       -12.27239         5.50903
     2012.04380        -8.90949         5.48588
     2012.04654        -8.71259         5.71064
     2012.04928         5.35431         5.56016
     2012.05201        12.20621         5.57270
     2012.05475        13.23111         5.55437
     2012.05703        -5.69447         7.12769
     2012.07392       -22.89758         5.81289
     2012.07666        15.49232         5.80807
     2012.07939        -7.32178         5.62093
     2012.08213        10.67513         5.51289
     2012.08487        14.25703         5.38942
     2012.08761         5.73393         5.47430
     2012.09034        -7.76817         5.49070
     2012.09308        -1.03627         5.49456
     2012.09582         2.75563         5.70871
     2012.09867         2.40590         6.12254
     2012.10130        -5.34257         5.60357
     2012.10415        -1.46229         5.76852
     2012.10677        -3.02676         5.52832
     2012.11042        -2.83890         9.31452
     2012.11248        -1.77022         6.08106
     2012.11498        -0.48206         5.43668
     2012.11772        -1.31916         5.34408
     2012.12046         3.53274         5.32672
     2012.12320       -10.86836         5.39810
     2012.12594       -14.95446         5.39810
     2012.12867       -28.55655         5.65855
     2012.13141        -4.80865         5.36144
     2012.13415        -4.07075         5.51386
     2012.13689        -1.98785         5.40292
     2012.13963         4.25405         5.57077
     2012.14236        -3.04005         5.56402
     2012.14510        -3.68315         5.44633
     2012.14784        -5.58725         5.45212
     2012.15058        -2.48135         5.37302
     2012.15331        -6.82744         5.35758
     2012.15605        -5.73554         5.68942
     2012.15851        -5.25707         6.23347
     2012.16198         5.19674         7.10068
     2012.16427        -0.14584         5.47334
     2012.16700         0.81206         5.56787
     2012.16974        -6.98804         5.47430
     2012.17248       -12.59714         5.64890
     2012.17522        -4.25123         5.48009
     2012.17767        -1.62876         6.12640
     2012.20082        -8.53745        11.50328
     2012.20260         2.83278         5.63154
     2012.20533        -4.16432         5.52929
     2012.20807         3.46858         5.42511
     2012.21081        -1.54052         5.40678
     2012.21355        -4.87962         5.48106
     2012.21629         1.82228         5.53315
     2012.22176        -5.53491         5.38556
     2012.22450       -11.29401         5.37012
     2012.22724        -9.71611         5.41160
     2012.22997        -7.62721         5.36048
     2012.23271        -3.58431         5.47623
     2012.23545        -3.20841         5.44151
     2012.23819         1.85149         5.40196
     2012.24093        -0.49661         5.38942
     2012.24366         4.87429         5.49167
     2012.24640        -2.90980         5.47238
     2012.24914        -3.37390         5.43861
     2012.25188        -1.29200         5.50710
     2012.25444        -6.15016         5.91418
     2012.26009       -13.32930         5.41353
     2012.27652        -9.22889         5.44537
     2012.27926        -8.39199         5.52254
     2012.28199       -12.45509         5.46176
     2012.28473        -8.88919         5.40292
     2012.28747        -9.62029         5.39424
     2012.29021        -7.92739         5.46852
     2012.29295       -16.96848         5.42607
     2012.29568       -11.76458         5.43572
     2012.29842       -11.18768         5.29778
     2012.30116       -11.46278         5.44537
     2012.30954       -15.20102         5.93733
     2012.31211       -17.53018         5.88910
     2012.31485        -8.71728         5.53701
     2012.31759        -6.11737         5.43475
     2012.32032        -5.79047         5.56016
     2012.32306       -10.89557         5.43765
     2012.32580       -16.38167         5.35855
     2012.32854       -15.17177         5.37109
     2012.33128        -4.31987         5.43475
     2012.33401        -8.18397         5.46466
     2012.33675        -9.13707         5.33540
     2012.33949       -14.62016         5.39520
     2012.34223       -14.77126         5.37012
     2012.34496       -19.97336         5.38652
     2012.34770        -9.60546         5.50324
     2012.35044        -7.97956         5.43572
     2012.35318       -11.09366         5.42511
     2012.35592       -11.44276         5.39328
     2012.35865       -17.58786         5.39520
     2012.36766        -8.72250         8.15213
     2012.36961       -12.77025         5.47720
     2012.37234       -10.90435         5.44537
     2012.37508        -9.19445         5.39328
     2012.37782        -9.53855         5.47238
     2012.38056       -10.69465         5.36723
     2012.38329       -10.72175         5.41353
     2012.38603        -9.70684         5.35662
     2012.38877       -11.41994         5.43090
     2012.39151       -12.93604         5.46273
     2012.39425       -11.75014         5.39424
     2012.39698       -12.92224         5.53604
     2012.41070        -7.28587         5.45501
     2012.41341        -7.31483         5.42607
     2012.41695        15.17864         8.37014
     2012.41889        -6.14603         5.61900
     2012.42165       -10.31626         5.48685
     2012.42436       -10.32323         5.42318
     2012.42712        -9.30643         5.40003
     2012.42984        -9.90343         5.45212
     2012.43259        -7.40863         5.48009
     2012.43531       -16.89262         5.47238
     2012.43807       -12.71283         5.39135
     2012.44079       -14.07682         5.48106
     2012.44355        -6.22303         5.69617
     2012.44626       -11.33502         5.47913
     2012.44902        -9.34622         5.50228
     2012.45174        -7.27722         5.44633
     2012.45527        -6.54167         8.25342
     2012.45722        -2.10841         5.56595
     2012.46292        -3.92687         5.85341
     2012.46630       -14.40551         8.77722
     2012.46817        -7.05181         5.40389
     2012.47092       -10.31001         5.46948
     2012.47364         2.22799         5.42993
     2012.47640        -5.46021         5.47141
     2012.47912         1.29879         5.51482
     2012.48188        -3.88741         5.48492
     2012.48459        -7.55040         5.51193
     2012.48735        -2.17161         5.45212
     2012.49007        -1.54960         5.44537
     2012.49283        -2.38080         5.45115
     2012.49555        -4.66180         5.55533
     2012.50650        -5.86919         5.39424
     2012.50925        -3.65140         5.50903
     2012.51197         0.68661         5.56595
     2012.51473         1.24041         5.51193
     2012.51745       -15.22959        14.10972
     2012.52020        -1.05077         5.77817
     2012.52292         0.72021         5.62479
     2012.52568         1.73404         8.95471
     2012.52840         2.18302         5.54086
     2012.54209         2.26952         5.54762
     2012.54483         4.69542         5.45694
     2012.54758         7.04525         5.40967
     2012.55030         0.86423         5.52061
     2012.55306        13.33605         5.52640
     2012.55578         1.07003         5.47913
     2012.56673         7.00663         5.40582
     2012.56948         7.68545         5.50421
     2012.57221        10.83743         5.39906
     2012.57496        10.27126         5.43283
     2012.57768        10.64824         5.47238
     2012.58043        10.61106         5.43186
     2012.58316        11.38704         5.51675
     2012.58591         7.91186         5.50131
     2012.58863         8.63984         5.59681
     2012.60041        -2.85811         8.86403
     2012.60324        12.15931        10.50198
     2012.60506        10.39525         5.50131
     2012.60781        10.47407         5.43475
     2012.61054         9.47205         5.35083
     2012.61328        10.13190         5.48588
     2012.61601        10.74585         5.46466
     2012.61876        19.88370         5.53025
     2012.62149        17.45066         5.45115
     2012.62360        10.70002         7.34087
     2012.70459       -17.99666        19.36023
     2012.73174       -62.65439        14.61422
     2012.79199       -39.79664        13.29557
     2012.79945       -34.80277         6.62608
     2012.84685       -44.00217        13.30425
     2012.84873       -47.20855         6.56917
     2012.85147       -52.13865         6.57206
     2012.85420       -50.84275         6.66659
     2012.85694       -43.55184         6.67431
     2012.85968       -40.00994         6.65502
     2012.86242       -43.66404         6.67045
     2012.86516       -44.04414         6.57013
     2012.86789       -52.63824         7.06017
     2012.87063       -52.21634         7.55792
     2012.87337       -44.39544         6.77560
     2012.87611       -47.62654         6.72833
     2012.87885       -39.97063         6.59425
     2012.88078       -47.02333         9.21709
     2012.88512       -39.98024        13.00425
     2012.88706       -43.48293         6.84312
     2012.88980       -36.25903         6.95309
     2012.89253       -33.73213         6.63187
     2012.89527       -46.66923         6.78814
     2012.89801       -63.06433         7.29554
     2012.90075       -47.62843         6.61547
     2012.90349       -56.61352         6.59039
     2012.90622       -44.26462         6.64730
     2012.90896       -35.25872         6.84409
     2012.91170       -36.18882         6.66370
     2012.91444       -38.39392         6.70904
     2012.91718       -36.16402         6.70421
     2012.91991       -28.57512         6.58267
     2012.92265       -38.39922         6.56627
     2012.92539       -41.84231         6.53058
     2012.92813       -43.35341         6.55759
     2012.93086       -53.61551         6.90389
     2012.93360       -55.18461         6.76499
     2012.93634       -44.33271         6.48524
     2012.93908       -50.67281         6.74376
     2012.94182       -43.59091         6.58074
     2012.94455       -38.10301         6.50454
     2012.94729       -47.16311         6.79875
     2012.95003       -38.86920         6.73026
     2012.95277       -37.92130         6.59232
     2012.95551       -59.43540         6.59039
     2012.95824       -43.02050         6.47077
     2012.96098       -47.34060         6.80743
     2012.96372       -41.20570         6.77656
     2012.96646       -26.38580         6.50743
     2012.96919       -43.51190         6.74376
     2012.97193       -48.97899         6.74762
     2012.97467       -45.59409         6.56048
     2012.97741       -45.07419         6.60003
     2012.98015       -44.16129         6.50357
     2012.98288       -47.33639         6.57302
     2012.98562       -44.57849         6.55952
     2012.98836       -42.14459         6.55759
     2012.99110       -52.87169         6.55470
     2012.99384       -66.12679         6.53444
     2012.99657       -61.78888         6.66370
     2012.99931       -57.35498         6.52962
     2013.00205       -54.05408         6.54601
     2013.00479       -42.27818         6.64055
     2013.00752       -58.99028         6.56820
     2013.01026       -54.50038         6.54505
     2013.01300       -51.28348         6.47560
     2013.01574       -49.70058         6.50839
     2013.01848       -35.01868         6.55566
     2013.02121       -62.52877         6.59232
     2013.02395       -53.40087         6.81515
     2013.02669       -56.62397         6.69264
     2013.02943       -47.99007         6.52383
     2013.03216       -52.56817         6.53637
     2013.03490       -57.41927         6.61065
     2013.03764       -67.23537         6.75438
     2013.04038       -69.80247         6.74762
     2013.04313       -57.25064         6.74762
     2013.04585       -55.39666         6.80550
     2013.04859       -51.34676         6.74859
     2013.05133       -52.47786         6.63669
     2013.05407       -63.03096         6.55084
     2013.05681       -51.87006         6.43122
     2013.05954       -57.68016         6.68492
     2013.06228       -66.20226         6.72351
     2013.06502       -54.24336         6.58460
     2013.06776       -44.99945         6.54312
     2013.07049       -56.60155         6.70421
     2013.07323       -55.20265         6.62319
     2013.07597       -49.66075         6.63862
     2013.07871       -54.71585         6.58171
     2013.08145       -56.84695         6.53830
     2013.08418       -58.81805         6.49585
     2013.08692       -64.45512         6.63766
     2013.08967       -65.82830         6.56048
     2013.09240       -61.00534         6.48428
     2013.09512       -44.74734         9.75825
     2013.09787       -49.01854         6.80840
     2013.10061       -51.11664         7.09586
     2013.10335       -50.83274         6.80743
     2013.10609       -55.36284         6.43894
     2013.10882       -61.96394         6.50936
     2013.11156       -74.51204         6.81032
     2013.11430       -60.85913         6.63766
     2013.11702       -59.90813         6.80647
     2013.11978       -56.10533         6.97335
     2013.12251       -60.01743         6.60100
     2013.12525       -65.47453         6.65020
     2013.12799       -64.39363         6.64730
     2013.13073       -67.64473         6.60389
     2013.13347       -56.09083         6.68106
     2013.13620       -57.20592         7.41322
     2013.13894       -61.69902         9.20166
     2013.14168       -57.78412         8.96918
     2013.14442       -53.95822         8.19458
     2013.14715       -50.03532         8.37207
     2013.14907       -62.32388        13.28882
     2013.15351       -58.49434        10.48848
     2013.15537       -73.40462         6.70421
     2013.15811       -68.33072         6.70325
     2013.16084       -65.42281         6.67528
     2013.16358       -65.01691         6.74955
     2013.16632       -65.35101         6.67624
     2013.16906       -59.41811         6.68492
     2013.17180       -67.22621         6.85180
     2013.17453       -68.44731         6.63283
     2013.17727       -61.08041         6.88557
     2013.18001       -67.54751         6.98107
     2013.18275       -61.98260         6.72447
     2013.18548       -66.34570         6.69457
     2013.18822       -63.13780         6.74087
     2013.19096       -63.58590         6.57688
     2013.19370       -59.82300         6.61933
     2013.19644       -67.50310         6.60003
     2013.19917       -62.84620         6.63283
     2013.20191       -57.12030         6.66177
     2013.20465       -68.15940         6.68106
     2013.20739       -60.78749         6.91547
     2013.21013       -62.58059         6.58267
     2013.21286       -61.82269         6.58749
     2013.21560       -51.22879         6.52672
     2013.21834       -60.89089         8.05085
     2013.22108       -69.58599         6.62511
     2013.22381       -70.38109         6.59135
     2013.22655       -69.36019         6.62608
     2013.22929       -61.21329         6.58846
     2013.23203       -60.24438         6.49875
     2013.23477       -65.76148         6.58267
     2013.23750       -71.11258         6.84023
     2013.24024       -67.78768         6.94923
     2013.24298       -69.65278         6.85373
     2013.24572       -58.57688         6.75245
     2013.24846       -59.53298         6.91836
     2013.25119       -54.44508         6.86627
     2013.25393       -67.55617         6.75534
     2013.25667       -66.84727         7.06209
     2013.25941       -54.90037         6.81708
     2013.26214       -51.87647         6.75631
     2013.26488       -56.70157         6.71483
     2013.26762       -65.44567         6.89425
     2013.27036       -66.82177         6.85084
     2013.27310       -59.16387         7.10357
     2013.27583       -60.95097         7.18846
     2013.27857       -54.09406         7.24538
     2013.28131       -59.66216         6.81418
     2013.28405       -69.21726         6.84312
     2013.28679       -69.11936         6.87110
     2013.28952       -65.74346         6.88267
     2013.29226       -59.27856         6.80743
     2013.29500       -55.17566         6.73701
     2013.29774       -65.30376         6.88942
     2013.30047       -71.67785         6.93380
     2013.30321       -76.63295         6.80164
     2013.30595       -72.49605         6.75245
     2013.30869       -63.80815         6.73605
     2013.31143       -74.07925         6.92512
     2013.31416       -63.45835         7.08428
