# ================= DQRFIT RESULTS ================
# INPUT FILE: series/BEA2.rad
# OUTPUT: LDETRENDED
# FILTER FUNCTION: f(t)
# f(t)=+line(t)+annual(t)+jumps(t)
# line(t)=+P 1+P 2*t
# annual(t)=+P 3*sin(2*pi*t+P 4)
# jumps(t)=+P 5*heav(t-2003.9398  )
# heav(t)=(t<0?0:1)
# TOTAL OBSERVATIONS MTOT= 2254
# INITIAL TIME INTERVAL= 2010.8802 - 2003.0335 =  7.8467
# TOTAL OBSERVATIONS AFTER PREFILTER M= 2236
# TIME-SPAN= 2010.8802 - 2003.0335 =  7.8467
# OBSERVATIONS: USED M=  2236 REJECTED MTOT-M=    18 %USED=   99.2014
# N=  5 PARAMETERS
# MAXSIG= 175.00000
# MAXRES=  32.36110
# SCALE FACTOR FOR LENGTHS: SCL=  10.00000
# SCALE FACTOR FOR SIGMAS: SCLSIG=   1.00000
# CHI^2=   3929.386 DOF=  2231 CHI^2/DOF=   1.76127
# RMS=      8.119 SDEV=      8.120 MEAN=    0.02896
#  P #       PARAMETER +-    SIGMA %error PARAMETER NAME
# P 1 =      -977.93025 +-  165.142  16.89 YZERO                              
# P 2 =         0.48296 +-    0.082  17.07 SLOPE                              
# P 3 =         6.46856 +-    0.244   3.77 ANNUAL AMPLITUDE                   
# P 4 =        -2.73759 +-    0.049   1.80 ANNUAL PHASE                       
# P 5 =         7.32828 +-    0.996  13.59 OFFSET 2003.9398                   
#       T            LDETRENDED       SIG_OBS
     2003.03353       -24.16568         8.36090
     2003.03627       -15.70400         8.46176
     2003.03901       -17.31732         8.69799
     2003.04175       -20.70465         8.62765
     2003.04449       -19.55497         8.43389
     2003.04722       -14.16129         8.73250
     2003.04996       -19.06561         9.04703
     2003.05270       -10.25193         8.64889
     2003.05544        -9.59326         8.98598
     2003.05817       -13.50358         8.33303
     2003.06091        -9.63190         8.82142
     2003.06365        -5.77822         8.89839
     2003.06639        -5.70055         9.51152
     2003.06913         0.69513         8.85194
     2003.07186        -7.63619         8.63694
     2003.07460       -10.20551         8.73250
     2003.07734         3.77217         8.59448
     2003.08008         2.65184        10.54801
     2003.08282        -0.85148         8.84530
     2003.08555        -3.60180         8.95678
     2003.08829         7.19388        12.91162
     2003.09103        -0.78845         9.07357
     2003.09377         1.24223         9.28989
     2003.09650        -1.35409         8.81345
     2003.09924        -3.58341         9.15983
     2003.10198        -4.68474         9.21823
     2003.10472        -9.27006         8.78160
     2003.10746        -4.18738         9.08551
     2003.11019        -3.32170         9.96009
     2003.11293        -2.67802         9.65485
     2003.11567        -9.12735         9.15585
     2003.11841       -15.56667         8.81611
     2003.12115       -16.34699         9.00987
     2003.12388        -8.96431         9.66547
     2003.12662       -16.77564         8.55864
     2003.12936       -10.04596         8.91431
     2003.13210        -8.25228         9.39739
     2003.13483        -9.52460         9.03906
     2003.13757        -4.25092         8.52414
     2003.14031        -9.72325         8.34763
     2003.14305        -9.39857         8.78956
     2003.14579       -12.95889         8.40204
     2003.14852        -1.76721         8.59580
     2003.15126        -5.88854         8.54935
     2003.15400        -8.69686         9.47171
     2003.38798        12.57214        56.47325
     2003.38945         4.01143         8.78027
     2003.39219         4.14510         8.43788
     2003.39493        14.75178         8.08751
     2003.39767         7.82546         8.05964
     2003.40041         6.27714         8.84928
     2003.40314         4.11582         9.53541
     2003.40588         2.09449        10.77362
     2003.40862        12.17517         8.79487
     2003.41136         4.38785         8.18439
     2003.41410         4.21953         8.20032
     2003.41683        -0.15680         9.50356
     2003.41957        -3.70712         8.81213
     2003.42231        -4.99644         8.52812
     2003.42505        -1.03176         8.32507
     2003.42778         7.57691         8.54006
     2003.43052        -0.03841         8.23482
     2003.43326         3.44627         8.98465
     2003.43600         0.60295         8.34763
     2003.43874         7.67963         8.24411
     2003.44147        12.77830         8.13396
     2003.44421         6.93498         8.12733
     2003.44695         1.83166         8.14193
     2003.44969         2.61034         8.73648
     2003.45243         4.28801         8.46176
     2003.45516        -0.79331         9.61238
     2003.45790        -1.37963         9.71988
     2003.46064         1.56605        10.02645
     2003.46338        -0.14527         8.11804
     2003.46611         6.67040         8.09415
     2003.46885         4.65008         8.69534
     2003.47159        -1.74724         8.22023
     2003.47433         6.59144         8.15387
     2003.47707         1.88111         9.49161
     2003.47980         4.43979         8.25473
     2003.48254        -0.16553         8.34100
     2003.48528         3.36715         8.96873
     2003.48802        -1.87817         8.91830
     2003.49076         1.78550         8.40072
     2003.49349         0.43218         8.27198
     2003.49623         2.80386         8.25739
     2003.49897         9.00154         8.17112
     2003.50171         9.92921         8.44584
     2003.50444         5.42089         9.02048
     2003.50718         1.46057         8.40602
     2003.50992         0.54125         8.21890
     2003.51266         4.01392         8.31976
     2003.51430        10.15013        16.27854
     2003.94078        14.66216        21.27650
     2003.94251        12.72133         8.53343
     2003.94524        13.78300         8.28260
     2003.94798        14.86068         8.58651
     2003.95072        10.24136         8.32640
     2003.95346        16.79104         8.39939
     2003.95619        19.82571         8.19634
     2003.95893         7.87839         8.16449
     2003.96167         3.48707         8.15254
     2003.96441        20.89775         8.25871
     2003.96715        15.69443         8.75771
     2003.97015         6.82197        10.94880
     2003.97262        11.94278         8.43788
     2003.97536         9.97446         8.02647
     2003.97810        11.29914         7.99992
     2003.98084         8.25181         7.96144
     2003.98357         5.84649         7.90835
     2003.98631        -6.89883         7.98532
     2003.98905        -6.09715         7.98665
     2003.99179        -5.57747         7.97073
     2003.99452         0.47820         7.90039
     2003.99726        -3.26312         8.04903
     2004.00274       -14.56976         8.28393
     2004.00548        -9.65709         8.98332
     2004.00821       -15.87841         8.50556
     2004.01095       -18.05873         8.54670
     2004.01369       -11.82905         8.68605
     2004.01643         0.34662         9.29785
     2004.01916         2.30330         8.23217
     2004.02090        10.19146        16.01975
     2004.03111        12.92654        18.17634
     2004.03285        -1.31331         8.32374
     2004.03559         3.41837         8.22288
     2004.03833         1.65205        11.36419
     2004.04654        35.53808        15.93482
     2004.04928        -4.34124        15.15712
     2004.05202         3.47444        17.33759
     2004.05476       -41.76789        18.20022
     2004.06571       -12.06118        21.40391
     2004.06845        -8.84150        12.43784
     2004.07118       -43.21682        16.24138
     2004.07392         2.26086        11.90964
     2004.07666        -3.31046        13.10140
     2004.07940       -32.81279        15.53270
     2004.08487         0.76057        11.87779
     2004.09035         0.61192        19.89895
     2004.09572         3.48033        20.00777
     2004.11797        -0.92241        26.60758
     2004.12347        -1.02607        10.03574
     2004.12594        -2.40827         8.21757
     2004.12868        -4.23959         8.27198
     2004.13142         1.37309         8.21094
     2004.13415        -1.39423         8.26269
     2004.13689         3.26745         8.01983
     2004.13963         0.18512         8.11140
     2004.14237        -1.01220         8.26668
     2004.14511         0.98948         8.10742
     2004.14784         2.23616         8.33038
     2004.15058        -2.27917         8.30118
     2004.15332        -3.30449         8.18572
     2004.15606        -1.39581         8.23881
     2004.15880        -4.63713         8.43655
     2004.16153         1.77454         8.28127
     2004.16427        -9.72278         8.35957
     2004.16701        -8.04010         8.37948
     2004.16975        -1.22742         8.53210
     2004.17248         7.61426         8.30251
     2004.17522         7.62093         8.34100
     2004.17796         2.12361         8.16847
     2004.18070         4.49429         8.17378
     2004.18344         0.07097         8.15652
     2004.18617        -1.17736         9.28724
     2004.18891         4.73032         9.34430
     2004.19165        -4.46900         8.67676
     2004.19439        -3.16932         8.43124
     2004.19713         3.75436         8.25606
     2004.19986        -2.13397         8.36621
     2004.20260         2.00271         8.26800
     2004.20534         2.76239         8.16316
     2004.20808        -4.69093         8.81080
     2004.21081        -2.90226         9.13064
     2004.21355        -8.90858         8.43124
     2004.21629       -19.42890         8.46973
     2004.21903       -15.61122         9.03110
     2004.22177       -10.95555         8.47769
     2004.22450        -3.01687         8.47105
     2004.22724         3.97581         8.34763
     2004.22998         3.42449         8.46575
     2004.23272        -5.68783         8.46707
     2004.23546        -2.10016         8.62500
     2004.23819        -1.00748         8.69401
     2004.24093        -4.34880         8.24942
     2004.24367         1.55288         8.40337
     2004.24641        -4.49345         8.15122
     2004.24914        -5.61277         8.46442
     2004.25188        -5.68009         8.26402
     2004.25462         5.60359         9.23946
     2004.25736         2.90327         8.34630
     2004.26010         1.26694         8.81080
     2004.26283        -9.04938         9.18770
     2004.26557         0.62430         8.30251
     2004.26831        -0.70402         8.44318
     2004.27105        -7.11535         8.41797
     2004.27379        -6.48567         8.27464
     2004.27652        -4.54999         8.15387
     2004.27926        -6.35231         8.41133
     2004.28200        -7.76764         8.40337
     2004.28474        -3.15296         8.41133
     2004.28747        -4.35228         8.12600
     2004.29021        -0.58660         9.11206
     2004.29295        -0.42392         8.06893
     2004.29569         4.51975         8.21492
     2004.29843        -2.34357         8.08088
     2004.30116        -3.09889         8.03443
     2004.30390        -1.03721         8.10875
     2004.30664         1.17046         8.10079
     2004.30938         0.36614         8.54272
     2004.31211         2.50582         8.29189
     2004.31485        -3.32050         8.34498
     2004.31759         0.74918         8.10079
     2004.32033         2.40785         8.12733
     2004.32307        -4.19747         8.08221
     2004.32580        -1.23179         8.04770
     2004.32854         0.44189         8.18439
     2004.33128         2.55656         8.49096
     2004.33402         6.68224         8.15918
     2004.33676        -4.50608         8.39275
     2004.33949        -5.15140         9.00058
     2004.34223         8.62828         8.72984
     2004.34497         0.76695         8.48963
     2004.34771         7.94463         8.62367
     2004.35044        -3.70469         8.44451
     2004.35318         3.53299         8.56661
     2004.35592        -1.08934         8.44318
     2004.35866         0.72234         8.39806
     2004.36140        -7.92998         8.66349
     2004.36413        -2.78630         8.57722
     2004.36687         2.32237         8.37550
     2004.36961         0.83705         8.56395
     2004.37235         0.69373         8.48167
     2004.37509         0.39141         8.41797
     2004.37782        -1.16491         8.16183
     2004.38056        -1.87524         8.21226
     2004.38330         2.06944         8.31843
     2004.38604        -0.76088         8.40735
     2004.38877         3.93080         8.08619
     2004.39151        11.83747         8.09282
     2004.39425        11.93615         8.09150
     2004.39699        13.98283         8.48432
     2004.39973        12.26951         8.14591
     2004.40246        15.13519         8.30384
     2004.40520        14.54786         8.33701
     2004.40794         7.39854         8.38612
     2004.41068         7.61022         8.23482
     2004.41342         9.02390         8.22952
     2004.41615         5.11457         8.18970
     2004.41889         6.14325         8.11273
     2004.42163         6.37693         8.02647
     2004.42437         3.34761         8.07822
     2004.42710         6.67928         8.17378
     2004.42984         6.07396         8.06761
     2004.43258         8.82264         8.08353
     2004.43532         5.58832         8.07026
     2004.43806         7.51900         8.17112
     2004.44079         3.52567         8.09946
     2004.44353         7.54535         8.24810
     2004.44627         9.59103         8.03841
     2004.44901         7.88371         8.01319
     2004.45175        10.89238         8.57324
     2004.45448         5.10506         8.55997
     2004.45722        -0.35926         8.30914
     2004.45996        -4.36358         8.40868
     2004.46270        -4.91990         8.26004
     2004.46543        -2.08123         8.04637
     2004.46817         5.02545         8.07159
     2004.47091        -0.12887         8.12069
     2004.47365         6.77781         8.20430
     2004.47639        13.94848         8.15254
     2004.47912         2.54016         8.07026
     2004.48186        -1.70216         8.16316
     2004.48437        10.89663         8.87185
     2004.48734         3.28019         8.10742
     2004.49008         8.08087         8.21492
     2004.49281         6.73155         8.66349
     2004.49555         7.47823         8.07822
     2004.49829         6.11691         8.08619
     2004.50103         5.78058         8.10079
     2004.50376        10.80326         8.09282
     2004.50650         3.42594         8.16847
     2004.50924         7.37362         8.09946
     2004.51198         9.20929         8.15254
     2004.51472         4.16097         8.39673
     2004.51745        10.31265         8.18307
     2004.52019         7.09133         8.15918
     2004.52293         4.75801         8.02779
     2004.52567         5.22368         8.11804
     2004.52841         5.57436         8.00789
     2004.53114         4.55204         8.00789
     2004.53388        10.98772         8.02647
     2004.53662         8.11939         8.00656
     2004.53936        10.73507         8.44451
     2004.54209        11.61675         8.53741
     2004.54483         4.80143         7.95215
     2004.54757        13.82710         8.15254
     2004.55031        22.07978         8.23881
     2004.55305        18.23646         7.99860
     2004.55578         8.87214         8.44849
     2004.55852        10.59882         9.69865
     2004.56126         8.96249         8.11538
     2004.56400         9.43317        14.63025
     2004.56674         9.08785         8.43124
     2004.56947         8.94453        12.64885
     2004.57221        18.72320         8.04106
     2004.57495         9.52588         7.91764
     2004.57769         8.28256         7.95480
     2004.58042         9.99124         8.22819
     2004.58316        10.04792         7.97471
     2004.58590        12.51959         8.02116
     2004.58864        15.09527         8.11406
     2004.59138        13.45695         8.08751
     2004.59411        11.23563         8.27066
     2004.59685        14.59130         8.21890
     2004.59959        10.34798         8.63694
     2004.60233        15.47766         8.04770
     2004.60507        12.36834         7.98267
     2004.60780        14.28802         8.06628
     2004.61054         8.22369         8.08884
     2004.61328         8.36837         7.96940
     2004.61602         8.23605         8.32640
     2004.61875        10.08973         7.98931
     2004.62149        10.79340         7.98532
     2004.62423        15.08708         8.12069
     2004.62697        12.40476         8.01319
     2004.62971        14.27044         8.11406
     2004.63244        10.14111         8.06761
     2004.63518        11.27279         8.83203
     2004.63792        18.12147         8.33701
     2004.64066        12.74715         8.39806
     2004.64339        18.92983         7.98267
     2004.64613        18.19650         8.02912
     2004.64887        16.19318         7.96940
     2004.65161        14.27286         7.96940
     2004.65435        19.51754         7.95878
     2004.65708        14.48321         8.20297
     2004.65982        11.29389         8.27331
     2004.66256        14.33657        10.53341
     2004.66530        11.39425         8.87052
     2004.66804        14.88693         8.04770
     2004.67077        18.40560         7.97205
     2004.67351        18.59628         8.00125
     2004.67625        21.04296         7.93357
     2004.67899        16.52064         8.11671
     2004.68172        10.11831         8.41001
     2004.68446        16.03299         8.21890
     2004.68720        12.06867         8.18439
     2004.68994        17.49335         7.94020
     2004.69268        19.68902         7.99860
     2004.69541        19.31370         8.01054
     2004.69815        20.92238         8.00789
     2004.70089        22.22206         8.06097
     2004.70363        21.65674         8.69136
     2004.70637        21.15541         7.93357
     2004.70910        20.28509         8.12600
     2004.71184        17.56777         8.19634
     2004.71458        13.99445         8.06230
     2004.71732        16.34512         8.02248
     2004.72005        24.79380         8.05699
     2004.72279        20.46748         8.25606
     2004.72553        26.00216         8.13396
     2004.72827        27.14684         8.07955
     2004.73101        20.82851         8.01319
     2004.73374        20.87219         7.99196
     2004.73648        24.88287         7.95878
     2004.73922        22.10755         8.10875
     2004.74196        17.29722         7.99594
     2004.74470        15.22890         8.18041
     2004.74743        10.66158         7.92030
     2004.75017        12.90526         7.91366
     2004.75291        15.62993         8.12069
     2004.75565        17.58761         8.47902
     2004.75838        17.94529         8.12069
     2004.76112        22.32397         7.90570
     2004.76386        24.22565         8.20563
     2004.76660        22.37332         7.88314
     2004.76934        22.23900         8.18439
     2004.77207        23.36168         8.18307
     2004.77481        24.26636         8.03974
     2004.77755        19.95903         8.15785
     2004.78029        13.35371         8.02779
     2004.78303        19.04239         9.08817
     2004.78576        17.25807         8.48300
     2004.78850        15.47975         8.14856
     2004.79124        14.82642         7.92826
     2004.79398        17.52210         7.95480
     2004.79671        15.45878         7.94817
     2004.79945        16.51446         8.08353
     2004.80219        12.03613         8.45911
