# ================= DQRFIT RESULTS ================
# INPUT FILE: series/BFIR.rad
# OUTPUT: LDETRENDED
# FILTER FUNCTION: f(t)
# f(t)=+line(t)+annual(t)+jumps(t)
# line(t)=+P 1+P 2*t
# annual(t)=+P 3*sin(2*pi*t+P 4)
# jumps(t)=+P 5*heav(t-2011.2964  )
# heav(t)=(t<0?0:1)
# TOTAL OBSERVATIONS MTOT= 3869
# INITIAL TIME INTERVAL= 2020.9500 - 2008.4408 = 12.5092
# TOTAL OBSERVATIONS AFTER PREFILTER M= 3662
# TIME-SPAN= 2020.9500 - 2008.4408 = 12.5092
# OBSERVATIONS: USED M=  3662 REJECTED MTOT-M=   207 %USED=   94.6498
# N=  5 PARAMETERS
# MAXSIG= 175.00000
# MAXRES= 210.98182
# SCALE FACTOR FOR LENGTHS: SCL=  10.00000
# SCALE FACTOR FOR SIGMAS: SCLSIG=   1.00000
# CHI^2=   2927.044 DOF=  3657 CHI^2/DOF=   0.80039
# RMS=     19.809 SDEV=     19.808 MEAN=    0.37424
#  P #       PARAMETER +-    SIGMA %error PARAMETER NAME
# P 1 =      2450.36855 +-   64.113   2.62 YZERO                              
# P 2 =        -1.37254 +-    0.032   2.32 SLOPE                              
# P 3 =         4.73554 +-    0.127   2.67 ANNUAL AMPLITUDE                   
# P 4 =        -2.95218 +-    0.037   1.26 ANNUAL PHASE                       
# P 5 =       316.21841 +-    0.297   0.09 OFFSET 2011.2964                   
#       T            LDETRENDED       SIG_OBS
     2008.44079       -10.83021         5.28200
     2008.44353        -4.55146         5.07981
     2008.44626        -1.11070         5.15138
     2008.44900        -9.18994         5.13349
     2008.45174        -9.34918         5.11739
     2008.45448        -0.16542         5.06281
     2008.45762        -1.90312         5.75348
     2008.45995         0.52709         5.00734
     2008.48733        -1.35333         4.94114
     2008.49007        -3.96957         5.01182
     2008.49281        -4.45281         5.07534
     2008.49555       -14.71706         5.26321
     2008.49828        -7.55030         5.24532
     2008.50102       -15.05154         5.38757
     2008.50376        -5.09578         5.14691
     2008.50650        -3.58603         5.07623
     2008.50924        -4.41727         5.11828
     2008.51197        -0.73651         5.02971
     2008.51471        -1.25375         5.03329
     2008.52019         0.28376         5.09412
     2008.52292        -3.98948         5.33926
     2008.52566        -4.92172         5.26500
     2008.52840         0.97804         4.99482
     2008.53114         2.20279         5.13259
     2008.53388        -1.90145         5.14423
     2008.53661        -2.03069         5.13170
     2008.53924        -0.44909         5.26232
     2008.54175         1.81736         5.98877
     2008.54483         3.46958         5.15496
     2008.54757         4.97234         5.11560
     2008.55030         2.26710         5.05655
     2008.55304         4.95286         5.11470
     2008.55578         1.31661         5.06729
     2008.55852         5.19737         4.99392
     2008.56125        -2.05087         5.08071
     2008.56399         1.43189         5.09323
     2008.56673        -2.70435         5.05565
     2008.56947         5.82840         4.98319
     2008.57221         8.95816         5.06281
     2008.57460         1.31345         6.33679
     2008.57728         4.70613         6.72149
     2008.58042         4.48744         5.02971
     2008.58316         0.30919         5.23101
     2008.58590         8.67895         4.92414
     2008.58863         8.82971         5.11739
     2008.59137         0.38247         5.06639
     2008.59411         8.46922         4.94561
     2008.59685        -1.66902         5.09412
     2008.59958         0.59774         5.34552
     2008.60232         6.56850         5.32226
     2008.60506         0.72626         5.17912
     2008.60780         1.81001         5.12544
     2008.61054         5.29377         5.00466
     2008.61327         8.37153         5.01182
     2008.61601         6.91529         5.06281
     2008.61875         6.63304         4.98766
     2008.62149         5.63280         5.03239
     2008.62423         7.12556         5.02524
     2008.62696        -0.56168         5.21759
     2008.62970         0.43808         5.34999
     2008.63244         3.57083         5.06550
     2008.63518         8.11659         5.18269
     2008.63791         0.90435         5.36252
     2008.64065         5.68511         5.10844
     2008.64339         2.27786         5.16480
     2008.64613         2.26262         5.28468
     2008.64887         4.95538         5.27216
     2008.65160         5.32214         5.10844
     2008.65434         0.18790         5.20685
     2008.65708        13.30365         5.24621
     2008.65982         5.93741         5.18717
     2008.66256         6.93017         5.17106
     2008.66529        10.63293         5.11560
     2008.66803         3.86969         5.07892
     2008.67077         4.23744         5.14512
     2008.67339        10.62804         5.33479
     2008.67624         8.29796         5.51550
     2008.67898         3.21372         5.25158
     2008.68172         2.81447         5.19701
     2008.68446         7.67923         5.12812
     2008.68720         4.41099         5.17912
     2008.68993         7.66775         5.19075
     2008.69256         6.03735         5.28290
     2008.69541         9.69926         5.12812
     2008.69815         7.68602         5.13349
     2008.70089         6.63978         5.19343
     2008.70362         7.18254         5.12723
     2008.70636        12.34429         5.10039
     2008.70910         6.99305         5.20327
     2008.71184         2.12581         5.29721
     2008.71457         1.58557         5.12723
     2008.71731        -1.19667         5.15407
     2008.72005         2.17108         5.09681
     2008.72279        -1.21216         5.22295
     2008.72518        -5.04587         5.98698
     2008.72826         8.81036         5.05834
     2008.73100         2.99011         5.15764
     2008.73351         3.14456         5.48598
     2008.73648         5.52963         5.07176
     2008.73921         4.85839         5.09234
     2008.74469         7.06690         5.02703
     2008.74743         3.46566         5.15943
     2008.75017         2.88342         5.11202
     2008.75290        10.25818         5.03508
     2008.75564         7.48994         5.20506
     2008.75838         5.02169         5.16838
     2008.76112         6.75745         5.11381
     2008.76386         6.25521         5.06192
     2008.76659        -0.76903         5.16301
     2008.76933         3.56872         5.08071
     2008.77207         6.84348         4.96619
     2008.77481         2.60224         4.99392
     2008.77754         5.26500         4.93756
     2008.78028         2.27276         5.00108
     2008.78302         5.67751         4.94651
     2008.78576        -0.33273         4.98408
     2008.78850         2.47103         5.10844
     2008.79123        -0.14721         5.12633
     2008.79397         0.40154         5.13349
     2008.79671        -2.88170         5.17643
     2008.79945         0.23406         5.03955
     2008.80219        -2.33518         5.24800
     2008.80492        -1.49442         5.14244
     2008.80766         2.91733         5.04671
     2008.81040         0.00809         5.18538
     2008.81314         8.01985         4.97782
     2008.81587         3.59861         5.10128
     2008.81861         1.43436         4.98408
     2008.82135         0.31212         5.08428
     2008.82409        -0.85212         5.12096
     2008.82683         2.19664         5.11828
     2008.82956        -0.49260         5.14154
     2008.83230       -10.14485         5.28379
     2008.83504         2.75591         5.14244
     2008.83778        -5.08933         5.37147
     2008.84052         2.01143         5.19075
     2008.84325        14.18419         5.00734
     2008.84599         8.84194         5.09055
     2008.84873         3.56270         5.05029
     2008.85147        -9.52954         5.18001
     2008.85420        -3.96578         5.36162
     2008.85694        10.04597         5.07086
     2008.85968        -0.79127         5.07623
     2008.86242         3.26249         5.12812
     2008.86516         8.43825         5.06460
     2008.86789         0.85701         5.23101
     2008.87063        -4.09524         5.25874
     2008.87337        -5.18848         5.11291
     2008.87611        -2.92772         5.10486
     2008.87885        -0.60496         5.14333
     2008.88158         0.02179         5.11739
     2008.88432        -2.79545         5.07265
     2008.88706         1.10931         5.12007
     2008.88980         2.67507         5.07892
     2008.89253         6.68583         4.97961
     2008.89527        -5.68442         5.25516
     2008.89801         4.18934         5.15675
     2008.90075        -1.66990         5.23101
     2008.90349        -3.03414         5.06729
     2008.90622        -5.91639         5.10039
     2008.90896         4.54437         5.11828
     2008.91170        -2.05787         5.18001
     2008.91444         3.04489         5.08249
     2008.91718         2.10765         5.14512
     2008.91991         1.17740         5.09860
     2008.92265        -0.16684         5.10039
     2008.92539        -1.36508         5.16749
     2008.92813         0.44468         5.17554
     2008.93086        -1.22456         5.16570
     2008.93360        -0.89681         5.16301
     2008.93634        -3.05105         5.12454
     2008.93908        -9.35629         5.07086
     2008.94182        -8.68153         5.17733
     2008.94455        -9.04978         5.21222
     2008.94729        -5.80302         5.24353
     2008.95003         6.84174         5.00108
     2008.95277         4.91250         4.99124
     2008.95824        -3.54599         5.04850
     2008.96098        -4.33223         5.16480
     2008.96372         2.77253         5.04581
     2008.96646        -7.15371         5.16928
     2008.96919       -10.50296         5.09502
     2008.97193         1.13080         5.06639
     2008.97467       -18.85144         5.27753
     2008.97741        -0.09168         5.08518
     2008.98015        -6.08192         5.25606
     2008.98283         5.03676         5.27395
     2009.00479        -0.25810         5.11202
     2009.00667        10.54948        12.90708
     2009.01574         2.00793         5.05208
     2009.01848         3.02569         5.04671
     2009.02121        -1.60456         5.20327
     2009.02395        -8.65780         5.16301
     2009.02669       -13.07504         5.03776
     2009.02943       -14.97228         5.08697
     2009.03216       -11.16553         5.09860
     2009.03490       -12.11077         5.00287
     2009.03764        -8.87601         4.99124
     2009.04038        -5.07025         4.95456
     2009.04312        -5.19049         4.92951
     2009.04585        -6.81374         4.95635
     2009.04859       -11.77698         5.12454
     2009.05133        -6.36722         5.00108
     2009.05407        -5.21646         4.96708
     2009.05681        -3.31071         5.00019
     2009.05937        -2.63018         5.50835
     2009.06228        -5.67119         4.97603
     2009.06502        -7.18543         5.05208
     2009.06776        -9.69267         5.06281
     2009.07049        -9.52892         4.99392
     2009.07209         8.25228        14.58634
     2009.07597        -1.87940         4.97961
     2009.07871        -6.11464         4.98766
     2009.08145        -2.57789         4.97782
     2009.08418        -6.85313         5.02971
     2009.08692        -4.42637         5.01271
     2009.08926        -3.45516         6.22854
     2009.09240        -5.24685         5.03329
     2009.09514        -0.77410         5.02703
     2009.09787         2.33766         5.04224
     2009.10061         4.43742         4.98587
     2009.10335        -3.02382         4.98050
     2009.10609         0.09394         5.06013
     2009.10882        -4.58131         5.09770
     2009.11156        -1.76855         5.01540
     2009.11430        -2.94379         5.09591
     2009.11704         2.13097         5.07713
     2009.11978         2.97872         4.97335
     2009.12251         1.56248         4.99571
     2009.12525         1.31624         4.97335
     2009.12799         3.63800         5.01092
     2009.13073         4.88576         5.00377
     2009.13347         0.87951         4.97603
     2009.13620        -5.48873         4.97693
     2009.13894        -3.78197         4.99482
     2009.14168        -4.25521         5.01003
     2009.14442        -5.33546         5.09681
     2009.14715        -3.66170         5.11381
     2009.14989        -8.66194         5.28290
     2009.15263         1.19082         4.98319
     2009.15537         0.24358         5.13349
     2009.15811        -3.04367         5.09323
     2009.16084        -3.71691         5.06997
     2009.16358         4.92285         5.08607
     2009.16632        -3.63939         5.07981
     2009.16906        -1.30264         5.21132
     2009.17180        -5.32288         5.14870
     2009.17453        -7.28512         5.14512
     2009.17727         5.47464         5.10754
     2009.18001        -8.07960         5.04045
     2009.18275        -7.26685         5.04045
     2009.18548        -6.17009         5.04402
     2009.18822        -9.48733         5.13349
     2009.19096        -3.50057         4.97693
     2009.19370        -2.23281         4.96619
     2009.19644         1.53394         4.94293
     2009.19917         0.19470         5.01987
     2009.20191         0.15546         5.11202
     2009.20465        -7.53078         5.13796
     2009.20625       -14.97359        13.13164
     2009.20898        -8.52683        12.80241
     2009.21195        -9.16776         8.37390
     2009.21469         2.64100         8.38106
     2009.21743         1.60675         8.24776
     2009.22016         7.13951         8.12698
     2009.22290        -8.95373         8.44279
     2009.22564        -5.73297         8.34259
     2009.22838        -5.15922         8.44458
     2009.23112        -7.15046         8.52510
     2009.23385        -6.56670         8.42400
     2009.23659        -8.82294         8.66466
     2009.23933        -0.32418         8.41416
     2009.24207        -5.85943         8.46426
     2009.24480        -7.75567         8.68524
     2009.24754        -6.31891         8.77381
     2009.25028        -9.89815         8.63514
     2009.25302       -13.13940         8.99837
     2009.25576         1.27736         8.62351
     2009.25849        -6.49388         8.86149
     2009.26123        -6.84812         8.79797
     2009.26397         2.62264         8.69508
     2009.26671        -2.64861         8.59041
     2009.26945        -5.84185         8.79439
     2009.27310         0.98616         5.05834
     2009.27583        -3.80708         5.11202
     2009.27857        -5.60832         5.12902
     2009.28131        -2.34056         5.06013
     2009.28405        -6.52181         5.13796
     2009.28679        -1.09705         5.19522
     2009.28952        -4.98829         5.07713
     2009.29226       -14.29453         5.21580
     2009.29500        -8.58178         5.21311
     2009.29774        -9.61702         5.21222
     2009.30047        -7.96626         5.22832
     2009.30321        -7.37950         5.24711
     2009.30595        -2.21674         5.24621
     2009.30869         0.98501         5.20059
     2009.31143         0.72977         5.15943
     2009.31416        -5.35647         5.26590
     2009.31690        -7.45771         5.19433
     2009.31964        -3.57296         5.15586
     2009.32238        -1.97120         5.07713
     2009.32512        -4.17144         5.24085
     2009.32785        -8.69668         5.15675
     2009.33059        -1.15192         5.02613
     2009.33333        -2.06017         5.06102
     2009.33607        -7.14941         5.12902
     2009.33880         1.13935         5.10307
     2009.34154        -7.53689         5.12902
     2009.34428        -4.74114         5.04045
     2009.34702        -3.38138         5.01719
     2009.34976        -1.63562         4.95903
     2009.35249        -1.90886         4.93040
     2009.35523        -7.21310         5.04134
     2009.35797        -5.96435         5.11470
     2009.36071        -6.51459         5.22385
     2009.36344        -2.26983         5.02166
     2009.36618        -1.29007         4.97782
     2009.36892         0.09469         5.01092
     2009.37166        -7.41556         5.07176
     2009.37440        -8.10480         5.00198
     2009.37713       -15.23604         5.10933
     2009.37987        -6.15828         5.24621
     2009.38261        -3.34053         5.03687
     2009.38535        -5.46477         5.05834
     2009.38809        -8.26801         5.05565
     2009.39111        -8.73486         5.57723
     2009.39356        -6.15549         5.00555
     2009.39630        -2.46074         5.02971
     2009.39904         2.78302         5.02166
     2009.40177        -1.93722         5.06013
     2009.40451         2.62254         4.96887
     2009.40725        -2.80571         4.97603
     2009.40999         1.59905         4.97872
     2009.41273        -5.13919         5.07355
     2009.41546         0.77757         5.09770
     2009.41820        -9.54067         5.15317
     2009.42094        -6.29992         5.10576
     2009.42368        -1.69916         5.08249
     2009.42642        -3.13840         5.04313
     2009.42915        -0.54464         5.08786
     2009.43189        -3.86189         5.03239
     2009.43463         3.00987         5.01271
     2009.43737         4.20563         5.01808
     2009.44010        -7.72261         5.06818
     2009.44284        -3.40785         5.05297
     2009.44558         2.77890         4.99750
     2009.44832         0.69166         5.11381
     2009.45106        -0.68758         5.08339
     2009.45379        -2.60182         5.04581
     2009.45653        -1.19106         5.04224
     2009.45927        -0.68731         5.04671
     2009.46201         3.67945         5.00555
     2009.46475         0.90021         5.25516
     2009.46748        -5.31003         5.24621
     2009.47022        -1.63528         5.08965
     2009.47296        -7.51952         5.12812
     2009.47570         2.05524         5.04671
     2009.47843        -1.35500         5.13259
     2009.48117        -3.60524         5.16122
     2009.48391         2.00951         5.04045
     2009.48665        -4.86473         5.15049
     2009.48939        -5.43097         5.19075
     2009.49212         4.46879         5.10844
     2009.49486        -5.39846         5.21401
     2009.49760         0.61930         5.11828
     2009.50034         0.17006         5.02971
     2009.50308         1.10682         5.07355
     2009.50581         5.28858         5.03060
     2009.50855         0.24433         5.08786
     2009.51129         0.36109         5.13528
     2009.51403         2.34485         5.07802
     2009.51676         1.00061         5.05476
     2009.51950         3.60336         5.01361
     2009.52224         1.16712         5.00555
     2009.52498        -6.40712         5.13975
     2009.52772         0.20364         5.06192
     2009.53045         5.85440         5.10218
     2009.53319         1.24615         5.08071
     2009.53593         3.78391         4.98677
     2009.53867         1.79967         5.05834
     2009.54141         4.50943         5.04045
     2009.54414         0.05419         5.14065
     2009.54688        -2.44006         5.10486
     2009.54962         3.79570         5.08339
     2009.55236         1.48846         5.04581
     2009.55509        12.09822         5.10307
     2009.55783         5.72097         5.01003
     2009.56057        -3.00527         5.32494
     2009.56331         1.26849         5.37147
