# ================= DQRFIT RESULTS ================
# INPUT FILE: series/BFLO.rad
# OUTPUT: LDETRENDED
# FILTER FUNCTION: f(t)
# f(t)=+line(t)
# line(t)=+P 1+P 2*t
# heav(t)=(t<0?0:1)
# TOTAL OBSERVATIONS MTOT=  436
# INITIAL TIME INTERVAL= 2019.4767 - 2006.4394 = 13.0373
# TOTAL OBSERVATIONS AFTER PREFILTER M=  436
# TIME-SPAN=    0.0000 -    0.0000 =  0.0000
# OBSERVATIONS: USED M=   436 REJECTED MTOT-M=     0 %USED=  100.0000
# N=  2 PARAMETERS
# MAXSIG= 175.00000
# MAXRES=  20.58070
# SCALE FACTOR FOR LENGTHS: SCL=  10.00000
# SCALE FACTOR FOR SIGMAS: SCLSIG=   1.00000
# CHI^2=    713.473 DOF=   434 CHI^2/DOF=   1.64395
# RMS=      7.355 SDEV=      7.363 MEAN=    0.09959
#  P #       PARAMETER +-    SIGMA %error PARAMETER NAME
# P 1 =      3672.74770 +-  185.908   5.06 YZERO                              
# P 2 =        -1.82159 +-    0.092   5.06 SLOPE                              
#       T            LDETRENDED       SIG_OBS
     2006.43943        -6.78502         7.52887
     2006.44217        -3.20803         7.53015
     2006.44491        -5.63205         7.48913
     2006.44764        -6.44306         7.50451
     2006.45038        -1.16207         7.52118
     2006.45312        -7.91909         7.51477
     2006.45586        -6.03010         7.55067
     2006.45859       -10.06311         7.61221
     2006.46133        -5.76612         7.70966
     2006.46407        -7.20514         7.72504
     2006.46681        -7.98815         7.66094
     2006.46955        -4.59116         7.72504
     2006.47228        -5.62518         7.65837
     2006.47502        -5.30619         7.65581
     2006.47776       -10.81420         7.66350
     2006.48050        -9.23021         7.76864
     2006.48324       -15.64623         7.88660
     2006.48597        -3.06624         7.94301
     2006.48871       -10.84325         7.68017
     2008.61602         3.16683         7.40450
     2008.61876        -0.13718         7.43912
     2008.62150        -2.40820         7.33655
     2008.62423         0.58679         7.45066
     2008.62697         3.38878         7.43656
     2008.62971         6.66177         7.46989
     2008.63245        -1.57925         7.43656
     2008.63519         5.58874         7.36091
     2008.63792        11.45173         7.68017
     2008.64066         4.16671         7.46733
     2008.64340         3.36570         7.42630
     2008.64614         5.10069         7.44425
     2008.64888         2.48668         7.43271
     2008.65161         7.92066         7.45066
     2008.65435         3.36165         7.50195
     2008.65709         5.00564         7.66863
     2008.65983         1.53162         7.48271
     2008.66256         3.93161         7.59554
     2008.66530        -1.92740         7.58016
     2008.66804        -0.00541         7.58401
     2008.67078        -3.43243         7.47502
     2008.67352         2.84356         7.48400
     2008.67625         1.81855         8.06610
     2008.67899         3.43854         7.53528
     2008.68173         2.67252         7.47887
     2008.68447         2.99451         7.48143
     2008.68721         2.35350         7.45707
     2008.68994         3.55748         7.47630
     2008.69268        -1.05953         7.53657
     2008.69542         1.60846         7.46861
     2008.69795         3.44607         8.18149
     2009.51677        -4.54037         7.31347
     2009.51951       -14.41238         7.33142
     2009.52225       -14.12640         7.33911
     2009.52499       -15.76641         7.40450
     2009.52773       -26.07542         7.66478
     2009.53046       -18.03943         7.35578
     2009.53320       -16.69745         7.27757
     2009.53594       -12.49746         7.27629
     2009.53868       -19.33047         7.45322
     2009.54141       -15.16649         7.35706
     2009.54415       -12.60950         7.29424
     2009.54689       -17.00151         7.38783
     2009.54963       -16.75352         7.30706
     2009.55237       -15.84454         7.33655
     2009.55510        -7.73855         7.37886
     2014.58180         5.76301         7.53015
     2014.58454         8.14500         7.49425
     2014.58727         6.05799         7.71863
     2014.59001         8.01397         7.55452
     2014.59275         7.16996         7.48656
     2014.59549         3.13895         7.51605
     2014.59823         7.76594         7.74171
     2014.60096         2.69992         7.64170
     2014.60370         4.86591         7.56606
     2014.60644         0.96790         7.62247
     2014.60918        10.95089         7.74684
     2014.63382        10.32977         7.59554
     2014.63656         9.36976         7.54682
     2014.63929         4.17574         7.63145
     2014.64203         2.11873         7.51861
     2014.65024         2.23969         7.41732
     2014.67762         3.60657         7.43912
     2014.68036         2.82655         7.40578
     2014.68310        -0.25546         7.48528
     2014.68584         0.39253         7.55323
     2014.71048         8.79041         7.57118
     2014.71321        -2.79260         7.71607
     2014.71595         7.61939         7.48784
     2014.75154         5.60622         7.55580
     2014.75428         6.55021         7.34039
     2014.77892         2.41909         7.36732
     2014.78166         6.30208         7.27629
     2014.78440         7.71507         7.36988
     2015.71527        14.95973         7.20961
     2015.71801        17.55972         7.22115
     2015.72074        20.58070         7.28270
     2015.72348        16.66069         7.23141
     2015.72622        10.79668         7.25577
     2015.72896         9.05566         7.21602
     2015.73170         9.77965         7.19295
     2015.73443        18.10964         7.38527
     2015.73717        11.73563         7.25577
     2015.73991        12.80961         7.47502
     2015.74265        13.28360         7.50323
     2015.74538        18.21359         7.72761
     2015.74812         7.80757         7.60837
     2015.75086         7.91456         7.56990
     2015.75360         9.87855         7.32629
     2015.75634        17.23954         7.23269
     2015.75907        13.07852         7.19936
     2015.76181         8.17451         7.21346
     2015.76455         9.00150         7.29552
     2015.76729        11.46049         7.27372
     2015.77003         7.97047         7.23910
     2015.77276        17.61546         7.16730
     2015.77550        13.66445         7.27757
     2015.77824        16.56043         7.52503
     2015.78098        11.96242         7.52118
     2015.78371        12.51941         7.35706
     2015.78645        17.45740         7.76607
     2015.78919        10.90038         7.73402
     2015.79193         9.86137         7.29552
     2015.79467         9.82836         7.72120
     2015.79740        14.39134         7.50451
     2015.80014        17.39833         8.03020
     2015.80288        13.92332         7.55708
     2015.80562        14.31731         7.83403
     2015.80836         7.71829         7.38399
     2015.81109        10.42128         7.29424
     2015.81383         8.77627         7.52759
     2015.81657        12.25526         7.46220
     2015.81931        11.22224         7.66350
     2015.82204         8.34323         7.25962
     2015.82478        12.76522         7.76992
     2015.82752        11.39920         7.32629
     2015.83026         9.40719         7.55067
     2015.83300         3.97318         7.33527
     2015.83573         6.92517         7.21987
     2015.83847        12.21515         7.36860
     2015.84121        14.75214         7.67889
     2015.84395        10.37313         7.89942
     2015.84669         7.11712         7.50579
     2015.84942        10.80410         7.85582
     2015.85216        13.34409         7.40835
     2015.85490        14.98808         7.61221
     2015.85764        14.33406         7.79556
     2015.86037        11.01905         8.33279
     2015.86279         9.43945         8.56486
     2018.62834        -0.69585         7.09935
     2018.63108         0.28513         7.03909
     2018.63382         2.25012         7.25834
     2018.63656        -1.58889         7.11730
     2018.63929        -0.09991         7.36604
     2018.64203        -0.87592         7.36347
     2018.64477        -1.58393         7.09037
     2018.64751        -3.49794         7.04165
     2018.65024         0.64304         7.10319
     2018.65298         3.60903         7.07242
     2018.65572         0.97102         7.14935
     2018.65846        -2.56500         7.03267
     2018.66120         7.14999         7.35450
     2018.66393        -1.07902         7.07755
     2018.66667        -0.53803         7.05960
     2018.66941        -0.36405         7.00831
     2018.67215        -0.50206         7.04293
     2018.67488        -0.07507         7.08011
     2018.67762        -0.25108         7.10704
     2018.68036        -5.00010         7.20705
     2018.68310        -5.94211         7.15576
     2018.68584         4.51488         7.06729
     2018.68857         3.29386         7.08396
     2018.69131         3.55385         7.10960
     2018.69405         0.09684         7.34424
     2018.69679         5.75783         7.05960
     2018.69953         0.73681         7.16346
     2018.70226         2.07780         7.26859
     2018.70500        -6.52921         7.29167
     2018.70774        -0.42422         7.09550
     2018.71048        -3.79224         7.06088
     2018.71321         2.28675         7.11730
     2018.71595        -1.09226         7.10960
     2018.71869        -9.58028         7.12884
     2018.72143        -6.14329         7.15576
     2018.72417         0.63870         7.11217
     2018.72690        -3.86431         7.07755
     2018.72964         0.06967         7.08909
     2018.73238        -2.19134         7.09678
     2018.73512        -2.47035         7.12755
     2018.73760        -0.06683         7.94942
     2018.74059        -5.60538         7.03139
     2018.74333         2.37561         7.10832
     2018.74607         3.02960         7.10832
     2018.74881         0.69758         7.10960
     2018.75154        -1.38743         7.12371
     2018.75428         4.73756         7.19423
     2018.75702         0.26855         7.18525
     2018.75976        -3.49147         6.98267
     2018.76250        -0.32848         7.05960
     2018.76523        -4.95649         7.24680
     2018.76797         5.35649         7.07242
     2018.77071         4.75448         7.24039
     2018.77345         1.44747         7.09294
     2018.77619         3.21846         7.10191
     2018.77892         3.36044         7.05319
     2018.78166         4.91243         7.21731
     2018.78440         2.08542         7.09037
     2018.78714        -0.96160         7.14679
     2018.78987        -3.90361         7.20833
     2018.79261        -2.76462         7.05319
     2018.79535         4.58137         7.00960
     2018.79809        -1.98665         7.06088
     2018.80083         1.57434         7.10960
     2018.80356         1.56333         7.14038
     2018.80630         0.78932         7.21346
     2018.80904        -0.71970         6.99293
     2018.81178        -0.92371         7.42758
     2018.81452        -1.82172         7.09422
     2018.81725        -3.42074         7.16089
     2018.81999         5.63825         7.17371
     2018.82273         2.76824         7.11217
     2018.82547         4.30823         7.13140
     2018.82820         2.33421         7.07627
     2018.83094        -2.57380         7.11602
     2018.83368         0.17419         7.13525
     2018.83642         6.58618         7.12114
     2018.83916         2.54316         7.09678
     2018.84189         2.79215         7.18782
     2018.84463         0.32814         7.21218
     2018.84737         0.39912         7.07755
     2018.85011         2.01611         7.09806
     2018.85285         3.01510         7.06858
     2018.85558        -2.37591         7.16858
     2018.85832        -1.29693         7.08268
     2018.86106         0.41306         7.07883
     2018.86380        -0.16595         7.12627
     2018.86653         4.35003         7.02755
     2018.86927        -4.03198         7.13268
     2018.87201        -0.80099         7.10704
     2018.87475         2.18100         7.11602
     2018.87749         3.76098         7.20577
     2018.88022         2.60997         7.12499
     2018.88296         4.03396         7.12499
     2018.88570         3.42395         7.18141
     2018.88844         6.41393         7.23654
     2018.89118         4.91292         7.21602
     2018.89391         4.42691         7.24936
     2018.89665         0.01389         7.33655
     2018.89939         1.65288         7.20833
     2018.90213         2.25987         7.15063
     2018.90486         7.35286         7.23013
     2018.90760         2.44584         7.16346
     2018.91034         4.07983         7.10960
     2018.91308        13.64982         7.35322
     2018.91582         2.37880         7.17756
     2018.91855         9.26579         7.10576
     2018.92129         5.55378         7.14422
     2018.92403         4.04077         7.13268
     2018.92677         2.22675         7.11345
     2018.92951         3.99474         7.08524
     2018.94319         1.93668         8.26740
     2018.94867         3.17765         7.01729
     2018.95141         4.02564         7.21602
     2018.95415         7.23663         7.19679
     2018.95688         6.59961         7.04934
     2018.96236        11.99359         7.04421
     2018.96510         7.62958         7.15704
     2018.96784         3.21156         7.12114
     2018.97057        10.56655         7.23782
     2018.97331         1.75754         7.10576
     2018.98700         0.58547         7.21346
     2018.98974         0.19346         7.21859
     2018.99248         1.06745         7.16217
     2018.99521         2.02743         7.21602
     2018.99795        -3.81558         7.21090
     2019.00069        -3.72359         7.20577
     2019.00343        -4.11460         7.16987
     2019.00616        -3.22962         7.15576
     2019.00890        -0.66663         7.08268
     2019.01164         1.93236         7.05575
     2019.01438         0.31535         7.07755
     2019.01712         3.35133         7.08011
     2019.01985        -5.07168         7.06216
     2019.02259        -5.30369         7.18782
     2019.02533        -3.01971         7.31347
     2019.02807         0.83128         7.14935
     2019.03081        -3.59873         8.20201
     2019.03354        -9.87674         7.13012
     2019.03628        -4.41676         7.16987
     2019.03902         0.78423         7.18269
     2019.04176        -7.03878         7.12243
     2019.04449       -16.68480         8.03789
     2019.06092        -1.91087         7.18012
     2019.06366        -4.16488         7.70838
     2019.06640        -1.61090         7.18910
     2019.06914        -3.40891         7.25449
     2019.07187        -2.28392         7.22243
     2019.07461        -0.02194         7.11089
     2019.07735        -0.27495         7.09422
     2019.08009        -1.51596         7.08653
     2019.08282        -3.09297         7.21987
     2019.08556        -4.40599         7.04037
     2019.08830        -3.99900         7.06986
     2019.09104         3.52199         7.06858
     2019.09378        -5.30302         7.08268
     2019.09651         6.61896         7.03780
     2019.09925         3.89395         7.05062
     2019.10199        -1.83706         7.09806
     2019.10473         0.20592         7.06858
     2019.10747        -0.73709         7.00190
     2019.11020        -1.79410         7.05575
     2019.11294         3.68589         7.13397
     2019.12663         2.77082         7.80710
     2019.12937        -2.62519         7.88788
     2019.13484        -0.08822         7.05575
     2019.13758         2.37077         7.09550
     2019.14032         5.21076         7.10063
     2019.14306        -0.25625         7.09935
     2019.14580        -3.12427         7.05832
     2019.14853         0.67272         7.08653
     2019.15127         3.90071         7.11602
     2019.15401        -1.62931         7.11089
     2019.15675        -4.12532         7.12499
     2019.15948       -13.40833         7.08909
     2019.16222        -8.03134         7.18269
     2019.16496       -11.25236         7.08268
     2019.16770       -18.32237         7.10576
     2019.17317        -6.76940         7.10704
     2019.17591        -8.99141         8.04430
     2019.18413        -7.69445         7.11602
     2019.18686        -1.45046         7.10191
     2019.18960        -4.38747         7.07499
     2019.19234        -3.85248         7.14550
     2019.19508        -1.60050         7.10319
     2019.19781        -8.54351         7.13525
     2019.20055        -5.29152         7.25705
     2019.20329       -13.09754         7.11602
     2019.20603        -8.37655         7.07755
     2019.20877       -11.04256         7.10319
     2019.21150       -10.42457         7.08268
     2019.21424        -6.25059         7.12243
     2019.21698        -6.60160         7.06473
     2019.21972        -7.17861         7.20833
     2019.22246       -22.80662         7.07755
     2019.22519        -5.50764         7.03011
     2019.22793        -8.51565         7.07242
     2019.23067        -8.61066         7.11986
     2019.23341        -6.94168         7.15192
     2019.23614        -5.13269         7.10832
     2019.23888       -10.11570         7.08781
     2019.24162        -9.34971         7.22756
     2019.24436        -6.42873         7.28526
     2019.24710        -5.95074         7.09550
     2019.24983        -8.13975         7.09806
     2019.25257        -3.68377         7.23397
     2019.25531        -5.50778         7.14294
     2019.25805        -4.96579         7.10832
     2019.26079         6.02620         7.12627
     2019.26352        -3.03782         7.26859
     2019.26626        -4.11883         7.19807
     2019.26900       -12.48484         7.37117
     2019.27174        -0.33585         7.55323
     2019.27447        -7.21387         7.08396
     2019.27721        -5.23088         7.18269
     2019.27995        -0.28689         7.10960
     2019.28269        -6.45091         7.13525
     2019.28543         0.49608         7.11473
     2019.28816        -1.17293         7.05319
     2019.29090        -6.18894         6.99421
     2019.29364        -6.16196         7.09165
     2019.29638        -4.58297         7.29295
     2019.29911         2.81402         7.23013
     2019.30185        -3.70600         7.20064
     2019.30459       -11.91601         7.01088
     2019.30733        -7.31602         7.02113
     2019.31007        -2.26903         7.34424
     2019.31280        -5.40805         7.24167
     2019.31554         5.25394         7.29167
     2019.31828        -5.42407         7.01472
     2019.32102        -1.24908         7.08524
     2019.32376       -11.85410         7.06345
     2019.32649       -11.79511         7.11730
     2019.32923        -6.76712         7.08781
     2019.33197        -7.41714         7.15833
     2019.33471        -8.04815         7.18653
     2019.33744        -4.25816         7.14935
     2019.34018        -5.75117         7.15961
     2019.34292        -1.24719         7.11089
     2019.34566        -3.07820         7.17243
     2019.34840       -12.52221         7.17115
     2019.35113        -5.13822         7.05704
     2019.35387        -6.93624         7.02370
     2019.35661        -4.78925         7.06729
     2019.35935        -1.90426         7.02370
     2019.36209        -2.57628         7.01857
     2019.36482        -1.00629         7.08140
     2019.36756        -4.12130         7.10448
