# ================= DQRFIT RESULTS ================
# INPUT FILE: series/BILI.rad
# OUTPUT: LDETRENDED
# FILTER FUNCTION: f(t)
# f(t)=+line(t)+annual(t)
# line(t)=+P 1+P 2*t
# annual(t)=+P 3*sin(2*pi*t+P 4)
# heav(t)=(t<0?0:1)
# TOTAL OBSERVATIONS MTOT= 3096
# INITIAL TIME INTERVAL= 2008.9446 - 1999.6769 =  9.2676
# TOTAL OBSERVATIONS AFTER PREFILTER M= 3077
# TIME-SPAN= 2008.9446 - 1999.6769 =  9.2676
# OBSERVATIONS: USED M=  3077 REJECTED MTOT-M=    19 %USED=   99.3863
# N=  4 PARAMETERS
# MAXSIG= 175.00000
# MAXRES=  22.23230
# SCALE FACTOR FOR LENGTHS: SCL=  10.00000
# SCALE FACTOR FOR SIGMAS: SCLSIG=   1.00000
# CHI^2=   8593.651 DOF=  3073 CHI^2/DOF=   2.79650
# RMS=      6.621 SDEV=      6.622 MEAN=    0.02112
#  P #       PARAMETER +-    SIGMA %error PARAMETER NAME
# P 1 =      1044.48609 +-   92.258   8.83 YZERO                              
# P 2 =        -0.52159 +-    0.046   8.82 SLOPE                              
# P 3 =         9.07166 +-    0.167   1.84 ANNUAL AMPLITUDE                   
# P 4 =        -2.07372 +-    0.013   0.61 ANNUAL PHASE                       
#       T            LDETRENDED       SIG_OBS
     1999.67693         4.25396         6.43232
     1999.67967         9.15744         6.35968
     1999.68241         7.01585         6.76573
     1999.68515         9.00385         6.65156
     1999.68789         1.19171         6.46868
     1999.69062         8.75225         6.72660
     1999.69336         4.42994         6.61191
     1999.69610         0.27720         8.86355
     1999.69884         5.80849         6.95423
     1999.70157         6.47705         6.61674
     1999.70431         9.62292         6.61412
     1999.70705         7.00730         7.28927
     1999.70979         8.99726         7.13087
     1999.71253         7.43704         6.64656
     1999.71800        -1.34974         6.75505
     1999.72074         8.99522         6.87543
     1999.72348         5.38198         7.35060
     1999.72621         4.03139         6.76579
     1999.72895         2.27015         6.89631
     1999.73169         1.34561         6.65598
     1999.73443         2.00119         6.90410
     1999.73717         7.66509         8.15887
     1999.73990        -2.18283         7.26189
     1999.74264         3.14926         6.91050
     1999.74538        -0.18508         7.36999
     1999.74812         7.43272         7.27072
     1999.75086         7.44382         7.10705
     1999.75359         5.91307         6.94008
     1999.75633         8.37712         6.86051
     1999.75907         6.40507         6.73324
     1999.76181        16.16922         6.76779
     1999.76454         4.72146         6.89732
     1999.76728        11.00636         6.83810
     1999.77002        10.32828         6.81006
     1999.77276         9.16682         7.51766
     1999.77550         7.40262         6.46268
     1999.77823         6.89278         7.84353
     1999.78097         7.98483         6.78853
     1999.78371         0.62875         6.96613
     1999.78645         3.28406         6.82193
     1999.78919        -5.90690         6.87790
     1999.79192         0.55919         6.88504
     1999.79466        12.54826         6.47841
     1999.79740         5.45675         6.75237
     1999.80014        -2.89267         6.63068
     1999.80287        -2.54863         6.81616
     1999.80561         5.49690         8.70262
     1999.80835         6.85134         6.86998
     1999.81109        -0.18796         7.15625
     1999.81383        -1.00486         6.76530
     1999.81656         4.73997         6.56056
     1999.81930        -3.66383         7.23068
     1999.82204         0.73072         7.13607
     1999.82478         5.36972         6.96606
     1999.82752         1.48520         6.49489
     1999.83025         5.86858         6.73203
     1999.83299         7.34744         6.66195
     1999.83573         6.47387         6.38089
     1999.83847        10.23648         6.35422
     1999.84120         9.26393         6.54656
     1999.84394         0.64069         6.67335
     1999.84668         2.02523         6.46158
     1999.84942        -4.40659         7.42137
     1999.85216         0.42217         7.31752
     1999.85489         8.95036         7.08725
     1999.85763         0.40530         6.41532
     1999.86037        -2.63931         6.78321
     1999.86311        -3.57730         6.40488
     1999.86585        -7.00283         8.71747
     1999.86858        -4.17967         6.41330
     1999.87132         1.58569         6.29417
     1999.87406        -3.50307         7.54908
     1999.87680        -0.93233         6.36687
     1999.87953         6.01246         6.73156
     1999.88227        -4.04016         6.79169
     1999.88501        -4.42791         6.46369
     1999.88775        -4.12607         6.80825
     1999.89049        -4.04348         6.65925
     1999.89322        -8.02422         7.64068
     1999.89596         5.44246         7.29200
     1999.89870       -11.75526         7.36013
     1999.90144       -11.55693         6.90461
     1999.90418        -8.53247         6.85734
     1999.90691         2.97953         6.50014
     1999.90965        -1.92117         6.50850
     1999.91239        -4.89139         7.10197
     1999.91513        -0.32598         6.79226
     1999.91786        -3.85640         6.72074
     1999.92060        -4.25270         7.17628
     1999.92334         6.36437         7.10599
     1999.92608        -4.10182         6.46408
     1999.92882        -1.89125         7.25930
     1999.93155        -0.46480         6.62758
     1999.93429        -3.71364         7.52647
     1999.93703       -10.89478         6.97845
     1999.93977       -12.27804         6.73347
     1999.94251       -18.11169         6.74569
     1999.94524       -13.37419         6.85649
     1999.94798       -12.40943         7.64233
     1999.95072       -10.93307         7.01229
     1999.95346        -0.57740         6.97565
     1999.95619        -7.65770         6.87553
     1999.95893        -9.10210         7.66724
     1999.96167        -1.83210         7.26970
     1999.98357        -2.87854         6.73416
     1999.98631        -1.50523        17.09774
     1999.98905        -3.37082         6.78579
     1999.99179        -7.67013         6.67594
     1999.99452       -10.36663         6.45340
     2000.00274       -12.50039         6.45567
     2000.00548       -14.02774         6.41813
     2000.02738       -22.28551         7.20601
     2000.03012       -21.08055         6.51965
     2000.03285       -13.97678         6.35703
     2000.03559       -17.54524         6.47239
     2000.03833       -22.06357         6.47821
     2000.04107       -16.99301         6.30679
     2000.04381       -20.28432         6.35569
     2000.04654       -18.04022         6.57450
     2000.04928       -21.82236         6.44769
     2000.05202       -22.14817         6.51226
     2000.05476       -19.41418         6.65384
     2000.06297       -19.70974         6.31285
     2000.06571        -9.47662         6.37655
     2000.07940       -16.79414         6.74061
     2000.08214       -14.27927         7.02517
     2000.08487       -16.04624         6.90076
     2000.08761       -14.90583         6.67812
     2000.09582       -20.91750         6.81494
     2000.09856       -31.60850         6.98104
     2000.10130       -26.85409         6.90599
     2000.10404       -24.99515         6.47611
     2000.10678       -14.79841         6.54025
     2000.10951        -5.28814         6.46712
     2000.11225        -1.35923         6.74704
     2000.11499       -15.91577         8.89022
     2000.11773        -9.46205         6.43991
     2000.12047        -6.10289         9.18884
     2000.12320        -6.91440         6.33571
     2000.12594        -5.17608         6.28867
     2000.13415        -7.69269         6.31640
     2000.13689       -13.05022         6.49504
     2000.13963       -13.92243         7.18169
     2000.14237       -14.77754         6.29292
     2000.14511        -4.00925         6.56121
     2000.14784       -10.38943         6.76598
     2000.15058        -8.72064         6.19306
     2000.15332        -6.98341         6.20510
     2000.15606        -9.25324         6.20555
     2000.15880        -5.72461         6.92483
     2000.16153         4.09839         6.24318
     2000.16427         4.20953         7.63911
     2000.16701         1.27511         6.38994
     2000.17522        -5.29236         6.46594
     2000.17796        -1.18718         6.91106
     2000.18070        -4.61276         7.18338
     2000.18344        -1.79961         8.21727
     2000.18617        -5.77336         6.65302
     2000.18891        -5.47813         8.37172
     2000.19165        -4.91425         7.35937
     2000.19439        -0.04838         7.10091
     2000.19713        -7.75876         6.95413
     2000.19986       -25.40152         7.33532
     2000.20260        -6.06496         6.95193
     2000.20534        -1.42476         6.69527
     2000.20808        -7.27811         6.86963
     2000.21081        -3.76850         6.57188
     2000.21355        -5.49741         6.48373
     2000.21629        -2.58502         6.86820
     2000.21903        -1.41075         6.54759
     2000.22177         5.03846         6.66565
     2000.22450        -9.99958         7.27356
     2000.22724        -3.46197         6.97611
     2000.22998         1.44452         6.72487
     2000.23272        -3.98385         7.15670
     2000.23546         3.61621         7.25973
     2000.23819        10.01262         6.54571
     2000.24093         4.90410         6.68296
     2000.24367         2.19943         6.65564
     2000.24641        -5.02731         7.99349
     2000.24914        -1.07996         7.06522
     2000.25188        -4.45727         7.49197
     2000.25462         1.10345         6.92961
     2000.25736         4.23156         7.16592
     2000.26010         6.59926         6.60417
     2000.26283         1.80789         8.33052
     2000.26557        -2.07713         7.26052
     2000.26831        -2.55978         6.73102
     2000.27105        -4.48530         6.82642
     2000.27379        -4.93992         7.24515
     2000.27652        -8.50232         6.55518
     2000.27926        -1.62502         6.88264
     2000.28200        -2.99282         6.70258
     2000.28474        -6.95846         6.53914
     2000.28747        -9.32093         6.43070
     2000.29021        -2.21629         7.45782
     2000.29295        -4.50464         6.39319
     2000.29569        -4.30359         6.28359
     2000.29843        -3.12557         7.04587
     2000.30116         1.46542         6.69658
     2000.30390         0.04980         6.73497
     2000.30664        -0.70795         6.33171
     2000.30938         3.89364         6.32426
     2000.31211        -4.27253         7.00565
     2000.31485        -8.19622         6.55278
     2000.31759        -2.53514         6.33983
     2000.32033        -3.69590         6.63847
     2000.32307        -1.46832         6.54471
     2000.32580        -3.01513         6.32607
     2000.32854        -1.84769         6.51864
     2000.33128         1.29756         6.58723
     2000.33402        -4.01914         6.74228
     2000.33676        -4.44119         6.77289
     2000.33949         3.29244         6.39514
     2000.34223         1.37904         6.42586
     2000.34497        -0.12489         6.44919
     2000.34771         3.95804         6.42335
     2000.35044         3.53670         6.39475
     2000.35318        -2.67132         6.42648
     2000.35592        -0.72097         6.38629
     2000.40246        10.63573         6.60339
     2000.40520         3.25130         6.53242
     2000.40794        -2.36257         6.66373
     2000.41068        -0.95056         6.44408
     2000.41342         1.39679         6.40431
     2000.41615        -0.60213         6.54911
     2000.41889         4.46736         6.26208
     2000.42163        -4.82029         6.29066
     2000.42437         2.75874         6.28011
     2000.42710         3.98928         6.49818
     2000.42984         3.28424         6.26065
     2000.43258         2.91081         6.32824
     2000.43532         0.09759         7.16485
     2000.43806         3.05551         6.30617
     2000.44079        10.46631         6.35256
     2000.44353        -0.39620         6.41875
     2000.44627         3.88179         6.16922
     2000.44901         4.99481         6.26796
     2000.45175         0.85557         6.28589
     2000.45448        -1.37816         6.41701
     2000.45722        10.37580         6.27824
     2000.45996         9.05427         6.25639
     2000.46270         6.74281         6.50693
     2000.46543         5.57140         6.42649
     2000.46817         7.00221         6.37935
     2000.47091         5.75787         6.48156
     2000.47365        23.92554         6.70717
     2000.47639         9.87450         6.60771
     2000.47912        -0.09935         6.21728
     2000.48186         4.63293         6.20400
     2000.48460         3.34113         8.03655
     2000.48734         3.42796         6.73745
     2000.49008         6.94089         6.54109
     2000.49281        20.47201         6.40049
     2000.49555        11.51769         6.42805
     2000.49829         6.84907         6.45221
     2000.50103        13.76352         6.56347
     2000.50376         0.70067         6.64976
     2000.50650         5.28003         6.32701
     2000.50924         9.23447         6.51815
     2000.51198        -1.30606         6.42628
     2000.51472        -1.13239         6.74826
     2000.51745         0.91392         6.38227
     2000.52019         3.80965         6.54131
     2000.52293        10.50638         6.58145
     2000.52567         9.00244         6.56774
     2000.52841         8.50158         6.41632
     2000.53114         9.24942         6.64342
     2000.53388         7.21835         7.16559
     2000.53662        -0.34064         8.31595
     2000.53936         5.80877         6.43818
     2000.54209        12.01900         6.48741
     2000.54483         6.02183         6.67457
     2000.54757        10.94085         7.16685
     2000.55031         6.56749         7.36399
     2000.55305         5.55658         6.40531
     2000.55578         5.05427         6.88886
     2000.55852         2.04978         7.30484
     2000.56126         2.04952         6.46100
     2000.56400         5.08027         6.58633
     2000.56674        11.47006         6.91027
     2000.56947         5.25210         6.73265
     2000.57221        10.43704         7.65862
     2000.57495        11.35064         7.53868
     2000.57769         3.38116         6.56465
     2000.58042         3.66177         6.73226
     2000.58316         8.90580         7.07609
     2000.58590         1.74417         6.62811
     2000.58864         7.29073         6.71227
     2000.59138        13.35203         6.99100
     2000.59411         3.61534         7.05179
     2000.59685         2.59177         6.85837
     2000.59959         3.58672         6.72341
     2000.60233         4.67349         6.56270
     2000.60507        15.72584         6.94615
     2000.60780         7.11627         7.42088
     2000.61054        12.19822         7.97079
     2000.61328        -1.11449         9.11562
     2000.61602         2.40149         6.80365
     2000.61875         4.69166         6.64204
     2000.62149         7.88891         6.70974
     2000.62423         9.46912         6.69304
     2000.62697        10.88063         6.75382
     2000.62971         5.16656         6.61526
     2000.63244        -4.45106         6.40728
     2000.63518         1.80487         6.48775
     2000.63792         5.94460         6.66450
     2000.64066        -3.41814         6.68754
     2000.64339        -4.14244         6.64208
     2000.64613        -1.55435         6.83432
     2000.64887         3.48659         6.62822
     2000.65161        11.92499         6.68279
     2000.65435         7.80761         6.45427
     2000.65708        15.31554         6.90272
     2000.65982        19.00641         6.57050
     2000.66256        11.86492         6.53781
     2000.66530        11.45673         6.59736
     2000.66804        14.54810         7.12546
     2000.67077        15.17570         7.34473
     2000.67351        16.91809         6.46137
     2000.67625        15.82145         6.90365
     2000.67899         9.76330         6.53851
     2000.68172        10.05877         6.67075
     2000.68446        10.51199         6.67768
     2000.68720         9.71549         6.86640
     2000.68994         5.16832         6.66802
     2000.69268        13.97799         6.67351
     2000.69541         9.89005         6.64128
     2000.69815         7.13832         7.97935
     2000.70089         5.79646         6.56439
     2000.70363         7.46451         6.71067
     2000.70637         5.84409         6.69096
     2000.70910        10.07399         7.01965
     2000.71184         7.53871         6.96081
     2000.71458         0.65744         6.79953
     2000.71732         5.72384         7.04337
     2000.72005        10.68738         6.51465
     2000.72279        11.24051         7.61596
     2000.72553         9.69078         6.41152
     2000.72827         9.94105         6.42957
     2000.73101        -2.63440         6.62072
     2000.73374         3.94079         6.91710
     2000.73648        -2.36201         6.97168
     2000.73922         2.77775         6.55462
     2000.74196         4.45214         6.96689
     2000.74470         2.63357         7.02550
     2000.74743        -4.33567         8.78614
     2000.75017         3.57078         6.53157
     2000.75291         6.44812         6.98037
     2000.75565         2.68827         7.80732
     2000.75838        -5.86273        10.01050
     2000.76112         3.11002        10.01576
     2000.76386         2.70183         6.38425
     2000.76660        -1.20923         6.46572
     2000.76934         6.95525         6.41130
     2000.77207         3.58576         6.55543
     2000.77481         9.62714         7.18060
     2000.77755        14.18476         7.02401
     2000.79398         4.36778         6.84538
     2000.79671         7.24496         6.82596
     2000.79945        -1.62847         6.86047
     2000.80219         6.72518         6.50595
     2000.80493         8.62144         6.50541
     2000.80767         7.37557         7.01633
     2000.81040         7.01413         6.87515
     2000.81314         8.91426         7.17228
     2000.81588         4.92891         6.75135
     2000.81862         4.54757         6.92958
     2000.82136        10.95245         6.77347
     2000.82409        10.36882         7.28053
     2000.82683        14.58163         9.11268
     2000.82957         6.36703         6.92165
     2000.83231         6.46991         7.17107
     2000.83504         4.58443         6.67149
     2000.83778         2.50461         6.67938
     2000.84052         0.30535         6.92036
     2000.84326         3.67391         8.97762
     2000.84600         1.79550         6.74437
     2000.84873        13.10897         9.82202
     2000.85147        12.41924         7.83015
     2000.85421         1.53404         6.67004
     2000.85695        15.51264         6.76039
     2000.85969        19.17456         8.32999
     2000.86242        17.85290         7.09667
     2000.86516         8.67623         6.71651
     2000.86790         0.99655         6.74355
     2000.87064         8.02339         6.69475
     2000.87337         1.77440         6.48656
     2000.87611         0.77962         6.56715
     2000.87885         8.41637         6.45401
     2000.88159         3.10243         6.82440
     2000.88433        -3.18138         6.78706
