# ================= DQRFIT RESULTS ================
# INPUT FILE: series/BILS.rad
# OUTPUT: LDETRENDED
# FILTER FUNCTION: f(t)
# f(t)=+line(t)+annual(t)
# line(t)=+P 1+P 2*t
# annual(t)=+P 3*sin(2*pi*t+P 4)
# heav(t)=(t<0?0:1)
# TOTAL OBSERVATIONS MTOT= 3815
# INITIAL TIME INTERVAL= 2022.7488 - 2011.8549 = 10.8939
# TOTAL OBSERVATIONS AFTER PREFILTER M= 3785
# TIME-SPAN= 2022.7488 - 2011.8549 = 10.8939
# OBSERVATIONS: USED M=  3785 REJECTED MTOT-M=    30 %USED=   99.2136
# N=  4 PARAMETERS
# MAXSIG= 175.00000
# MAXRES=  34.26228
# SCALE FACTOR FOR LENGTHS: SCL=  10.00000
# SCALE FACTOR FOR SIGMAS: SCLSIG=   1.00000
# CHI^2=   7436.229 DOF=  3781 CHI^2/DOF=   1.96674
# RMS=      8.377 SDEV=      8.378 MEAN=   -0.06438
#  P #       PARAMETER +-    SIGMA %error PARAMETER NAME
# P 1 =       472.12332 +-   83.017  17.58 YZERO                              
# P 2 =        -0.23362 +-    0.041  17.61 SLOPE                              
# P 3 =         8.40413 +-    0.184   2.19 ANNUAL AMPLITUDE                   
# P 4 =         1.52401 +-    0.001   0.10 ANNUAL PHASE                       
#       T            LDETRENDED       SIG_OBS
     2011.85489         3.73971         7.95864
     2011.85763         3.35735         7.86328
     2011.86036        17.76599         7.81700
     2011.86310         9.78263         7.87450
     2011.86584         7.62427         7.72444
     2011.86858        11.67391         7.79877
     2011.87132         6.60455         7.69499
     2011.87405         4.08819         7.70901
     2011.87679        10.97383         7.76090
     2011.87916        10.79039         9.53634
     2011.88227         4.91611         7.78474
     2011.88501         6.16675         7.71322
     2011.88774         2.29539         7.84925
     2011.89048         8.53903         7.73706
     2011.89322         7.31167         9.00343
     2011.89596         3.18731         7.78194
     2011.89869         0.46095         7.91376
     2011.90143         0.03959         7.82962
     2011.90417        -0.32277         7.73426
     2011.90668         4.58781         8.64582
     2011.90965        15.18151         7.75669
     2011.91238         5.82715         7.86047
     2011.91512         7.81079         7.73566
     2011.91786         5.48243         7.86047
     2011.92060         0.09807         7.82541
     2011.92334        -1.70330         7.81560
     2011.92607        -0.51366         7.75950
     2011.92881         6.15998         7.88992
     2011.93155         3.81862         7.83102
     2011.93429         4.23926         7.83944
     2011.93702         1.92290         7.86889
     2011.93976         2.54554         7.91096
     2011.94250         7.51118         7.84505
     2011.94524         2.51382         7.83102
     2011.94798        10.33646         7.89974
     2011.95071         8.30010         7.79316
     2011.95345         5.59274         7.91797
     2011.95619         4.80938         7.97687
     2011.95893         3.37302         7.63048
     2011.96165         9.94466         8.03718
     2011.96449         7.75132         8.05821
     2011.96714         3.40194         7.67115
     2011.96988         9.02158         7.59261
     2011.97262         0.63722         7.50987
     2011.97535        -0.41914         7.72444
     2011.97809         1.28150         7.72584
     2011.98083         8.60814         7.70200
     2011.98357         1.91578         7.61084
     2011.98631        10.48442         7.64170
     2011.98904         8.51206         7.68798
     2011.99178         9.90470         7.66834
     2011.99452         9.03433         7.72444
     2011.99726         2.86097         7.57999
     2012.00273        13.76625         7.70340
     2012.00547         4.17689         7.64731
     2012.00821         4.28453         7.73846
     2012.01095         7.36817         7.67115
     2012.01368         5.06981         7.56737
     2012.01642         6.29945         7.63609
     2012.01916         7.28109         7.59121
     2012.02190         4.61273         7.64590
     2012.02464         5.09637         7.61084
     2012.02737         3.76601         7.54213
     2012.03011        -0.12635         7.56877
     2012.03285        -2.26271         7.67395
     2012.03559         1.42893         7.62487
     2012.03833        10.00657         7.55896
     2012.04106         5.93821         7.54353
     2012.04380        17.60385         7.62627
     2012.04607        12.51338         9.58823
     2012.04950        12.66618         8.27418
     2012.05201         9.96077         7.52390
     2012.05475        10.47641         7.59682
     2012.05749         8.26505         7.61225
     2012.06023         9.48069         7.69499
     2012.06297         5.83832         7.76932
     2012.06570         5.88196         7.70340
     2012.06844         6.43660         7.65151
     2012.07118         1.76024         7.57017
     2012.07392         2.25788         7.53371
     2012.07666         9.11052         7.59542
     2012.07939         6.83316         7.58280
     2012.08213         5.13680         7.64731
     2012.08487         6.28244         7.62627
     2012.08761         3.20008         7.59121
     2012.09034         1.22772         7.59682
     2012.09308         5.51236         7.66694
     2012.09582         9.07600         7.60804
     2012.09856         9.93264         7.69499
     2012.10130         5.43928         7.68657
     2012.10403         1.66292         7.69499
     2012.10677        -0.06644         7.74688
     2012.10951         3.18320         7.69779
     2012.11225         0.64184         7.71322
     2012.11498         5.45548         7.66414
     2012.11772         4.64312         7.64590
     2012.12046         8.29876         7.71602
     2012.12320         6.31940         7.71462
     2012.12594         3.29904         7.62908
     2012.12867         3.31668         7.69078
     2012.13141         1.87132         8.32607
     2012.13415        -1.09905         7.71182
     2012.13689         2.94759         7.68517
     2012.13963         7.13923         7.90815
     2012.14236        -0.49213         8.02455
     2012.14510         0.35551         7.74548
     2012.14784        -0.44185         7.57999
     2012.15058         1.46179         7.69920
     2012.15331         1.11443         7.66133
     2012.15605         2.84307         7.69218
     2012.15879         2.14271         7.69218
     2012.16153        11.30435         7.65572
     2012.16427         1.81599         7.67395
     2012.16700         7.51563         7.89553
     2012.16974         1.98327         7.65853
     2012.17248         3.53991         7.62908
     2012.17522         1.19855         7.63889
     2012.17796         4.45519         7.83102
     2012.18069         0.08383         7.75950
     2012.18343         0.35947         7.76371
     2012.18617         2.14011         7.69639
     2012.18891         3.90075         7.61926
     2012.19164        10.66339         7.81980
     2012.19438        24.46003         7.86047
     2012.19712        10.94167         7.68938
     2012.19986         6.57531         7.66694
     2012.20260         3.93095         7.74548
     2012.20533         6.04758         7.58139
     2012.20807         7.50122         7.54213
     2012.21081         3.50786         7.55615
     2012.21355         5.63250         7.55755
     2012.21629         7.49814         7.55054
     2012.21902         4.62778         7.56737
     2012.22176         0.00942         7.53371
     2012.22450        -4.02394         7.54213
     2012.22997         2.01334         7.64590
     2012.23271         6.53998         7.66694
     2012.23545         7.44462         7.59261
     2012.23819         8.37426         7.57719
     2012.24093         4.56390         7.60383
     2012.24366         3.39054         7.61505
     2012.24640         5.58118         7.57298
     2012.24914         3.48582         7.66554
     2012.25188         1.09746         7.59121
     2012.25462         5.46410         7.58420
     2012.25735        -1.04726         7.49725
     2012.26009         1.24538         7.54914
     2012.26283         2.82302         7.57578
     2012.26557         1.92866         7.57298
     2012.26830         1.69530         7.56597
     2012.27104         0.33994         7.66273
     2012.27378         0.15058         7.53231
     2012.27652         4.57221         7.73426
     2012.27926         8.90985         7.85486
     2012.28199         4.09649         7.54072
     2012.28473         5.66813         7.56176
     2012.28747         0.19577         7.51548
     2012.29021        -2.46159         7.57859
     2012.29295        -0.92195         7.54213
     2012.29568        -1.18131         7.54633
     2012.29842         5.44333         7.56036
     2012.30116        -4.51803         7.59963
     2012.30374        -5.75943         8.14656
     2012.30734        11.31041        10.38480
     2012.30937         3.64189         7.59542
     2012.31211         4.98253         7.70340
     2012.31368         8.72390        23.34722
     2012.31759         2.36081         7.55755
     2012.32032         0.23645         7.66554
     2012.32306        -4.66991         7.48182
     2012.32580        -2.59527         7.53231
     2012.32854         4.47637         7.53792
     2012.33128        -2.40099         7.67956
     2012.33401        -1.02435         7.69218
     2012.33675        -0.59371         7.48884
     2012.33949        -1.75307         7.56176
     2012.34223        -4.71243         7.47201
     2012.34496        -7.42679         7.47481
     2012.34770        -3.63716         7.61786
     2012.35044         4.84348         7.73846
     2012.35318        -0.06288         7.53652
     2012.35592        -0.34424         7.53231
     2012.35865        -2.35060         7.49725
     2012.36139        -4.46896         7.48884
     2012.36413        -2.34132         8.51539
     2012.36687        -0.91268         7.53652
     2012.36961         0.87696         7.53932
     2012.37234         1.21560         7.61645
     2012.37508        -2.42176         7.54072
     2012.37782        -0.39612         7.73706
     2012.38056        -3.85748         7.68798
     2012.38329         3.58516         7.78895
     2012.38603         2.96680         7.76791
     2012.38877        -3.29556         7.72584
     2012.39151         1.11708         7.64310
     2012.39425         2.47172         7.62066
     2012.39698        -1.89764         7.70200
     2012.39972         0.09400         7.51829
     2012.40246        -2.32036         7.84364
     2012.40520        -5.45972         7.53091
     2012.40794        -5.78008         7.53932
     2012.41067        -3.87144         7.60103
     2012.41306        -0.28589         8.99502
     2012.41615         6.49784         7.66554
     2012.41889        -4.91353         7.73005
     2012.42162        -3.97389         7.57438
     2012.42436         1.19775         7.51127
     2012.42710        -8.44361         7.61926
     2012.42984         0.96103         7.52810
     2012.43258        -1.97833         7.57999
     2012.43531       -10.00269         7.57999
     2012.43805        -0.53705         7.51688
     2012.44079        -6.65141         7.57999
     2012.44353        -6.22477         7.59121
     2012.44626        -3.08113         7.63889
     2012.44900        -0.05149         7.55615
     2012.45174         0.72715         7.65993
     2012.45448        -0.45221         7.50005
     2012.45722         4.47343         7.62347
     2012.45995        -1.08793         7.64731
     2012.46269        -0.58229         7.54774
     2012.46543        -7.21465         7.76932
     2012.46817         2.75999         7.56316
     2012.47091        -5.36737         7.66133
     2012.47364         4.55427         7.60243
     2012.47638        -2.41909         8.50558
     2012.47912        -5.76945         7.54633
     2012.48186        -4.92481         7.54493
     2012.48459         0.18983         7.60243
     2012.48733         0.32747         7.53932
     2012.49007        -6.41990         7.55054
     2012.49281        -5.87026         7.57578
     2012.49555        -2.14762         7.62627
     2012.49828        -5.30098         7.60664
     2012.50102        -2.34134         7.56457
     2012.50376        -1.80270         7.65712
     2012.50650        -6.08206         7.50707
     2012.50924         1.80858         7.66414
     2012.51197         2.96022         7.68657
     2012.51471         5.24786         7.53231
     2012.51745         3.90050         7.50847
     2012.52019        -5.16886         7.53792
     2012.52292        -4.31422         7.60664
     2012.52566        -2.50858         7.64029
     2012.52840        -8.97894         7.60944
     2012.53114         0.65670         7.86889
     2012.53388        -4.72666         7.57999
     2012.53661        -2.81102         7.76791
     2012.53935        -7.12038         7.76230
     2012.54209         1.60126         7.55194
     2012.54483         3.54790         7.57017
     2012.54757         4.02154         7.70060
     2012.55030        -4.91282         7.64310
     2012.55304        -5.28818         7.54633
     2012.55578        -2.64754         7.61786
     2012.55852        -2.53390         7.56737
     2012.56125         0.14773         7.56036
     2012.56399         1.73737         7.55475
     2012.56673        -1.51799         7.57859
     2012.56947        -3.31835         7.59963
     2012.57221         7.38429         7.60383
     2012.57494         4.13293         7.55054
     2012.57768        -1.86143         7.56036
     2012.57993        10.67710         9.17312
     2012.58316        -6.79215         7.59963
     2012.58590        10.08649         7.70761
     2012.58863        12.53613         7.60944
     2012.59137         9.24377         7.54633
     2012.59411        10.20241         7.65572
     2012.59685         7.67905         7.60944
     2012.59958         8.32669         7.67816
     2012.60232         2.81933         7.81560
     2012.60506         3.86497         7.52249
     2012.60780         5.85461         7.51127
     2012.61054        11.47825         7.51548
     2012.61327         8.04489         7.48603
     2012.61601        16.29953         7.56877
     2012.61875        14.62417         7.82401
     2012.62149        12.56581         7.62066
     2012.62423         7.79345         7.56457
     2012.62696         9.94609         7.58700
     2012.62970         6.17772         7.58420
     2012.63244         3.78236         7.66414
     2012.63518         9.19600         7.64731
     2012.63791         6.71164         7.60804
     2012.64065         8.11028         7.56737
     2012.64339        14.24892         7.55896
     2012.64613        10.33656         7.54213
     2012.64887         3.05120         7.62347
     2012.65160        19.36384         7.65712
     2012.65425         9.70646         7.92078
     2012.65708        13.51912         7.77352
     2012.65982         9.78776         7.80858
     2012.66256         8.08240         7.56877
     2012.66529         7.54704         7.50426
     2012.66803         8.36368         7.50566
     2012.67077         8.46432         7.65432
     2012.67351         8.70696         7.61786
     2012.67624         7.00660         7.53511
     2012.67898        11.21324         7.62487
     2012.68172         9.02488         7.62908
     2012.68446         8.87752         7.56176
     2012.68720        15.07816         7.55755
     2012.68993        10.08880         7.59963
     2012.69267         8.13644         7.93059
     2012.69541         6.81708         7.73145
     2012.69815         9.58972         7.70060
     2012.70089         3.97535         7.72584
     2012.70362         4.16099         7.64590
     2012.70636         7.77963         7.69499
     2012.70910         6.16027         7.56036
     2012.71184         7.72591         7.55896
     2012.71457        11.51955         7.53371
     2012.71731        12.13619         7.54633
     2012.72005        17.63883         7.57438
     2012.72279        10.82847         7.53792
     2012.72553        11.44011         7.55335
     2012.72826         8.32475         7.62347
     2012.73100         7.54339         9.58403
     2012.73374        15.98103         7.85486
     2012.73648         6.03767         7.61786
     2012.73921        15.16231         7.75810
     2012.74137        16.05881         9.85189
     2012.74469         6.37359         7.74267
     2012.74743        20.12123         7.65151
     2012.75017        11.66387         7.79456
     2012.75290        17.12951         7.72304
     2012.75564         7.26115         7.52951
     2012.75838         9.43779         7.52810
     2012.76112        19.73243         7.60383
     2012.76386        12.62707         7.53511
     2012.76659        15.61671         7.68377
     2012.76933        12.38535         7.73846
     2012.77207        11.94498         7.67676
     2012.77481        13.82762         7.65151
     2012.77754        13.53226         7.56737
     2012.78028        18.33590         7.95584
     2012.78302        16.08854         7.96706
     2012.78576        10.65718         7.78054
     2012.78850        16.18182         7.98809
     2012.79123         8.57046         8.00071
     2012.79397        11.51010         7.59682
     2012.79671        15.80174         7.75249
     2012.79945        12.79538         7.86047
     2012.80219        13.54502         7.98248
     2012.80492        12.89966         7.87590
     2012.80708        15.90916         9.75231
     2012.81040         8.51294         7.79316
     2012.81314         3.87258         7.75669
     2012.81587         1.07422         7.81560
     2012.81861         1.95886         7.90675
     2012.82135         7.01850         7.89974
     2012.82409         4.12414         7.87169
     2012.82683         5.49778         7.71322
     2012.82956         9.59942         7.73846
     2012.83206         5.63000         8.74258
     2012.83504         2.88270         7.73566
     2012.83778         8.42634         7.80297
     2012.84052         5.86298         7.79316
     2012.84325         0.42761         7.93901
     2012.84599        -3.38075         8.21668
     2012.84873         3.84489         7.99651
     2012.85147         6.85753         7.80297
     2012.85420        -1.69883         7.76371
     2012.85694         9.92581         8.26717
     2012.85968         5.15445         7.79456
     2012.86242         8.07709         7.71182
     2012.86516         7.70173         9.21940
     2012.86789         6.42737         8.05541
     2012.87063        -1.50899         7.70481
     2012.87337         3.29965         7.70621
     2012.87611         5.50629         7.71743
     2012.87885        11.18593         7.69499
     2012.88158         3.46157         7.71743
     2012.88403         3.68414         8.87301
     2012.88709         3.25686         8.02175
     2012.88980         5.09949         7.81840
     2012.89253         6.85813         7.62908
     2012.89527         0.86777         7.79736
     2012.89801         3.57941         7.76791
     2012.90075         6.69305         7.71743
     2012.90349         5.65969         7.68377
     2012.90622         7.04633         7.74688
     2012.90888        10.71495         8.12272
     2012.91258        27.39181        33.75586
     2012.91444         8.22624        10.17444
     2012.91718        -1.18012        10.11273
     2012.91991         4.12752        10.77747
     2012.92265         1.11516        11.53197
     2012.92539         6.05980        14.46159
     2012.92816        -0.23155        11.80824
     2012.93086        -0.81992         9.74811
