# ================= DQRFIT RESULTS ================
# INPUT FILE: series/BLCL.rad
# OUTPUT: LDETRENDED
# FILTER FUNCTION: f(t)
# f(t)=+line(t)+annual(t)
# line(t)=+P 1+P 2*t
# annual(t)=+P 3*sin(2*pi*t+P 4)
# heav(t)=(t<0?0:1)
# TOTAL OBSERVATIONS MTOT= 2707
# INITIAL TIME INTERVAL= 2022.7488 - 2015.2170 =  7.5318
# TOTAL OBSERVATIONS AFTER PREFILTER M= 2701
# TIME-SPAN= 2022.7488 - 2015.2170 =  7.5318
# OBSERVATIONS: USED M=  2701 REJECTED MTOT-M=     6 %USED=   99.7784
# N=  4 PARAMETERS
# MAXSIG= 175.00000
# MAXRES=  19.91155
# SCALE FACTOR FOR LENGTHS: SCL=  10.00000
# SCALE FACTOR FOR SIGMAS: SCLSIG=   1.00000
# CHI^2=   2714.256 DOF=  2697 CHI^2/DOF=   1.00640
# RMS=      5.754 SDEV=      5.755 MEAN=   -0.01656
#  P #       PARAMETER +-    SIGMA %error PARAMETER NAME
# P 1 =    -10871.04141 +-  102.222   0.94 YZERO                              
# P 2 =         5.39873 +-    0.051   0.94 SLOPE                              
# P 3 =         8.51201 +-    0.155   1.82 ANNUAL AMPLITUDE                   
# P 4 =         2.83870 +-    0.025   0.86 ANNUAL PHASE                       
#       T            LDETRENDED       SIG_OBS
     2015.21697        -9.32910         5.57375
     2015.21971        -7.39388         5.57676
     2015.22245        -6.96366         5.63594
     2015.22518        -3.21844         5.72523
     2015.22792        -9.62722         5.73225
     2015.23066        -8.87601         5.71018
     2015.23335        -5.86153         5.78843
     2015.24172        -7.62875         6.14557
     2015.24435        -8.38291         5.90982
     2015.24709        -8.22069         5.81150
     2015.24982         0.61853         5.64397
     2015.25256        -1.61025         5.75633
     2015.25530        -7.30003         5.72723
     2015.25804       -10.11281         5.67306
     2015.26078       -10.23960         5.74930
     2015.26351        -9.87538         5.78341
     2015.26625        -5.64516         5.74228
     2015.26899        -7.83994         5.76034
     2015.27173        -1.00772         5.88975
     2015.27446         2.76650         5.81451
     2015.27720        -2.26228         5.61488
     2015.27994        -4.57006         5.63394
     2015.28268        -8.70884         5.67407
     2015.28542       -12.27162         5.86668
     2015.28815       -15.20241         5.91182
     2015.29089       -15.53019         5.74930
     2015.29363       -11.08597         5.72523
     2015.29637       -10.09775         5.66604
     2015.29911        -5.10553         5.67808
     2015.30184        -6.84331         5.71520
     2015.30458       -12.29809         5.67005
     2015.30732        -8.36887         5.49851
     2015.31006        -8.36065         5.49650
     2015.31279       -10.19143         5.62491
     2015.31553       -12.68021         5.55569
     2015.31827       -13.94500         5.65801
     2015.32101       -14.88478         5.73827
     2015.32375       -13.94656         5.69212
     2015.32648        -3.38934         5.74429
     2015.32922        -9.74412         5.65601
     2015.33196        -8.39990         5.58077
     2015.33470        -9.02668         5.63695
     2015.33744        -9.35346         5.49650
     2015.34017       -14.04424         5.57876
     2015.34291       -14.20402         5.54867
     2015.34565       -12.67080         5.63795
     2015.34839       -16.61359         5.44132
     2015.35112       -13.85037         5.51556
     2015.35386        -7.85815         5.60886
     2015.35660       -11.76693         5.59883
     2015.35934        -8.51271         5.61688
     2015.36208        -4.42449         5.74730
     2015.36481        -6.45427         5.59180
     2015.36755        -5.50705         5.48747
     2015.37029       -10.30583         5.81150
     2015.37303       -13.79961         5.60685
     2015.37577       -13.32239         5.52158
     2015.37850       -17.29418         5.83558
     2015.38124       -12.50596         5.60384
     2015.38398        -9.85974         5.47945
     2015.38672        -3.86252         5.50051
     2015.38945        -8.12330         5.68510
     2015.39219       -10.57708         5.70717
     2015.39493        -5.77286         5.66102
     2015.39767        -7.80664         5.50754
     2015.40041       -12.34142         5.54967
     2015.40314        -9.18020         5.76235
     2015.40588       -13.13699         5.67106
     2015.40862       -11.72377         5.51857
     2015.41136        -4.39555         5.53663
     2015.41410        -7.25733         5.62591
     2015.41683        -7.25711         5.57475
     2015.41957        -5.96489         5.48747
     2015.42231         0.05233         5.67005
     2015.42505       -13.61145         5.92988
     2015.42778        -7.66823         5.56873
     2015.43052        -2.04601         5.61488
     2015.43326        -6.16479         5.95195
     2015.43600        -9.08658         5.89677
     2015.43874        -1.37636         5.66002
     2015.44147        -1.42114         5.78743
     2015.44421        -6.61092         5.51255
     2015.44695        -4.00470         5.59080
     2015.44969        -8.83948         5.62290
     2015.45243         0.75674         5.75833
     2015.45516         3.68696         5.75231
     2015.45790        -2.70682         5.83859
     2015.46064        -3.05760         5.73426
     2015.46338         4.95062         5.87470
     2015.46611        -8.44217         5.60886
     2015.46885        -7.38495         5.50453
     2015.47159        -4.16673         5.66504
     2015.47433        -2.29051         6.00111
     2015.47707        -8.89329         5.72824
     2015.47980        -1.08507         6.14055
     2015.48254        -5.07485         5.66002
     2015.48528         0.73237         5.78843
     2015.48802        -6.45741         5.59582
     2015.49076        -2.40019         5.78642
     2015.49349        -1.83497         6.00111
     2015.49623         0.98024         5.94493
     2015.49897        -7.66654         6.07033
     2015.50171        -1.83332         5.78743
     2015.50444        -2.40510         5.60685
     2015.50718        -3.34488         5.56070
     2015.50992        -0.00966         5.54566
     2015.51266         1.49456         5.57676
     2015.51540        -0.96722         5.66504
     2015.51813         1.40700         5.67808
     2015.52087        11.03322         5.71620
     2015.52361        -0.44457         5.73325
     2015.52635        -0.93635         5.53061
     2015.52908         1.10887         5.80047
     2015.53182        10.00909         5.56572
     2015.53456         4.89731         5.61889
     2015.53730         3.12553         5.69814
     2015.54004         8.90775         5.67908
     2015.54277        -0.25803         5.60886
     2015.54551        -1.11481         5.70215
     2015.54825         8.38541         5.73526
     2015.55099         5.32063         5.81351
     2015.55373         1.95384         5.73024
     2015.55646         6.65806         5.75833
     2015.55920         7.20628         5.75532
     2015.56194        10.42550         5.74329
     2015.56468         1.17972         5.72122
     2015.56741         4.09194         5.74730
     2015.57015         8.77416         5.84962
     2015.57289        -7.40962         5.79345
     2015.57563        -1.22040         5.76837
     2015.57837        -1.11418         5.79244
     2015.58110         3.50604         5.93991
     2015.58384         6.25525         5.86768
     2015.58658        -4.52053         5.76034
     2015.58932         1.00669         5.66002
     2015.59206         2.90891         5.66002
     2015.59479         9.02313         5.85564
     2015.59753         5.18735         5.82454
     2015.60027         8.34357         5.87671
     2015.60301         6.97679         5.82655
     2015.60574         4.39301         5.70416
     2015.60848         7.56923         5.68610
     2015.61122         6.33445         5.64497
     2015.61396        -2.00834         5.83658
     2015.61670        -0.86212         5.66604
     2015.61943         6.99310         5.68209
     2015.62217         8.96232         5.72523
     2015.62491        12.29354         5.61086
     2015.62765         5.49576         5.70316
     2015.63039         0.61698         5.83056
     2015.63312         5.38120         5.79746
     2015.63586        10.24542         5.57575
     2015.63860         8.72364         5.81652
     2015.64134        -3.57514         5.69112
     2015.64407         4.09607         5.60284
     2015.64681         4.76229         5.76134
     2015.64955         5.89951         5.71720
     2015.65229         3.75673         5.95998
     2015.65503        14.56195         5.68911
     2015.65776        13.14317         5.65801
     2015.66050        14.81039         5.61688
     2015.66324        18.23461         5.61287
     2015.66598        19.95983         5.75633
     2015.66872        16.74905         5.74028
     2015.67145        11.20026         5.53763
     2015.67419         2.06548         5.76235
     2015.67693         5.53770         5.53462
     2015.67967         9.47992         5.68610
     2015.68240         5.10014         5.55268
     2015.68514         7.50836         5.82254
     2015.68788         3.87858         5.72523
     2015.69062        10.27280         5.67808
     2015.69336        -0.77198         6.01615
     2015.69609         7.49024         5.79746
     2015.69883        -2.48954         5.94091
     2015.70157         9.23367         5.60184
     2015.70431         9.88389         5.69714
     2015.70705         7.78711         5.67707
     2015.70978        14.90633         5.61387
     2015.71252         1.14655         5.70918
     2015.71526        13.50877         5.66704
     2015.71800        11.26399         5.68008
     2015.72073        12.63421         5.57074
     2015.72347         6.72243         5.57776
     2015.72621         6.80565         5.55469
     2015.72895         2.44187         5.57676
     2015.73169         4.17808         5.67206
     2015.73442         5.33030         5.60083
     2015.73716         5.92752         5.56371
     2015.73990        10.88774         5.81953
     2015.74264        12.90196         5.64999
     2015.74538        11.93718         5.81953
     2015.74811        -0.33960         5.90580
     2015.75085        -0.51638         5.74429
     2015.75359         0.40984         5.50152
     2015.75633         4.08906         5.55569
     2015.75906         6.68727         5.59080
     2015.76180         5.00849         5.62692
     2015.76454        10.01871         5.56271
     2015.76728        10.89193         5.69814
     2015.77002         7.41415         5.81953
     2015.77275        18.22237         5.60083
     2015.77549        13.13959         5.59281
     2015.77823        14.93381         5.62591
     2015.78097        14.14903         5.68209
     2015.78371         8.18325         5.58879
     2015.78644         7.90347         5.57274
     2015.78918        11.87268         5.59983
     2015.79192        11.16090         5.70316
     2015.79466         8.36312         5.61187
     2015.79739         6.74034         5.55569
     2015.80013         7.05956         5.55870
     2015.80287         8.66778         5.66604
     2015.80561         2.11400         5.71118
     2015.80835         6.26222         5.62892
     2015.81108         1.33344         5.64598
     2015.81382         7.29566         5.58478
     2015.81656         4.05088         5.69814
     2015.81930         1.09409         5.53863
     2015.82203        10.01531         5.64698
     2015.82477        11.44853         5.73626
     2015.82751         9.89375         5.65902
     2015.83025        13.29797         5.57776
     2015.83299        11.75319         5.64397
     2015.83572         7.26341         5.58578
     2015.83846         3.35363         5.72422
     2015.84120         1.26985         5.70215
     2015.84394         4.25007         5.74930
     2015.84668         1.26629         5.70215
     2015.84941         7.06250         5.76235
     2015.85215        10.17572         5.71018
     2015.85489         6.34494         5.75833
     2015.85763         8.12216         5.75633
     2015.86036         4.92838         5.72222
     2015.86310         5.03560         5.68911
     2015.86584         8.43482         5.84661
     2015.86858         3.44004         5.73325
     2015.87132         5.76526         5.79044
     2015.87405         1.60348         5.82354
     2015.87679        -1.94930         5.74630
     2015.87953         7.27091         5.63594
     2015.88227         8.58413         5.83558
     2015.88501        -4.69565         5.73626
     2015.88774         2.97257         5.81050
     2015.89048         6.39279         5.75031
     2015.89322         8.29701         5.64999
     2015.89596        14.70723         5.76536
     2015.89869         0.70245         5.71118
     2015.90143        -4.77733         5.76435
     2015.90417        -6.12211         5.71921
     2015.90691         0.67110         5.70416
     2015.90965        -0.31868         5.63996
     2015.91238         1.83854         5.81451
     2015.91512         3.01876         5.71720
     2015.91786         2.64798         5.76335
     2015.92060         3.27020         5.69212
     2015.92334        -0.43858         5.70416
     2015.92607        -0.54736         5.76837
     2015.92881        -5.49714         5.68410
     2015.93155         2.88308         5.84060
     2015.93429         7.11730         5.79345
     2015.93702         4.55251         5.76235
     2015.93976        11.18773         5.81150
     2015.94250         6.18395         5.82153
     2015.94524         8.65917         5.74429
     2015.94798        10.04539         5.74128
     2015.95071        10.17261         5.74529
     2015.95345        -1.03417         5.63996
     2015.95619         1.50705         5.57174
     2015.95893         5.33127         5.73727
     2015.96167         8.58149         5.69915
     2015.96440         5.75071         5.58378
     2015.96714         5.71892         5.69012
     2015.96988        -5.21086         5.67206
     2015.97262         8.24536         5.66203
     2015.97535         7.95258         5.65500
     2015.97809         4.88380         5.64497
     2015.98083         2.67102         5.66303
     2015.98357        -6.61676         5.64397
     2015.98631        -9.38654         5.60585
     2015.98904        -4.44632         5.70215
     2015.99178        -6.34810         5.67908
     2015.99452        -6.18788         5.68209
     2015.99726        -3.29567         5.69112
     2016.00000        -1.60445         5.81451
     2016.00273        -7.46523         5.68811
     2016.00547        -3.85201         5.68711
     2016.00821        -0.89179         5.81652
     2016.01095        -0.00457         5.68610
     2016.01368        -2.77135         5.67106
     2016.01642        -2.52113         5.76736
     2016.01916        -3.01591         5.94994
     2016.02190         1.19231         5.79345
     2016.02464        -0.86848         5.64598
     2016.02737        -5.20826         5.71419
     2016.03011         2.55596         5.67607
     2016.03285         1.06318         5.70416
     2016.03559         0.20340         5.72623
     2016.03833        -2.46138         5.80950
     2016.04106         6.35684         5.67306
     2016.04380         3.83606         5.75131
     2016.04654         3.32028         5.75031
     2016.04928         0.47750         5.72322
     2016.05201        -7.07928         5.81853
     2016.05475         0.43493         5.69112
     2016.05749        -0.44185         5.63795
     2016.06023         1.64937         5.74730
     2016.06297        -1.33041         5.61287
     2016.06570         0.31581         5.87972
     2016.06844        -0.62097         5.88273
     2016.07118        -3.06375         5.79545
     2016.07392         2.71047         5.75432
     2016.07666         6.58969         5.94091
     2016.07939        13.36291         5.81150
     2016.08213         4.91713         5.93991
     2016.08487        -5.27966         5.79645
     2016.08761        -3.82544         5.80950
     2016.09034        -1.98122         5.73927
     2016.09308         1.34600         5.82856
     2016.09582        -1.03078         5.78743
     2016.09856       -16.20456         5.85865
     2016.10130       -16.53134         5.76536
     2016.10403        -6.40712         5.76837
     2016.10677        -4.78790         5.72723
     2016.10951       -10.33768         5.83056
     2016.11225        -5.48446         5.91483
     2016.11498        -8.81425         5.76837
     2016.11772        -8.85203         5.69915
     2016.12046        -9.09981         5.71018
     2016.12320        -5.57359         5.79144
     2016.12594        -3.58537         5.77840
     2016.12867        -0.83815         5.86868
     2016.13141         4.15107         5.79144
     2016.13415         1.02529         5.77639
     2016.13689        -0.53849         5.71219
     2016.13963        -3.53727         5.66403
     2016.14236       -14.93406         5.73225
     2016.14510       -10.35484         5.66303
     2016.14784        -8.77262         5.67808
     2016.15058        -4.31440         5.70115
     2016.15331        -1.88318         5.79144
     2016.15605        -0.91196         5.77940
     2016.15879        -3.51074         5.77840
     2016.16153        -3.03752         5.77639
     2016.16427         0.87670         5.77138
     2016.16700        -1.37808         5.69714
     2016.16974        -2.47086         5.78843
     2016.17248        -0.12065         5.80749
     2016.17522        -4.18843         5.74730
     2016.17796        -0.22221         5.93289
     2016.18069        -9.53499         5.86868
     2016.18343        -7.72877         5.98104
     2016.18617        -1.72655         5.87771
     2016.18891         5.98267         5.68811
     2016.19164        -1.09811         5.87771
     2016.19438         5.11511         5.72422
     2016.19712        -1.21067         5.81451
     2016.19986        -3.83845         5.76034
     2016.20260       -10.23924         5.74228
     2016.20533        -6.23302         6.17366
     2016.20807        -9.11280         6.02117
     2016.21081       -10.41058         5.84260
     2016.21355        -1.97536         5.70617
     2016.21629        -7.10314         5.59682
     2016.21902        -5.56192         5.61187
     2016.22176        -1.93670         5.69513
     2016.22450        -7.75648         5.56472
     2016.22724        -9.15326         5.74930
     2016.22997        -6.71104         5.72924
     2016.23271        -2.99183         5.67808
     2016.23545        -9.95461         5.68309
     2016.23819        -6.65939         5.65099
     2016.24093        -3.24117         6.02017
     2016.24366       -14.21195         5.74429
     2016.24640        -9.54373         5.63193
     2016.24914        -8.95251         5.60986
     2016.25188        -6.96029         5.75934
     2016.25462        -5.74307         5.59180
     2016.25735        -6.02685         5.73626
     2016.26009       -12.30164         5.61187
     2016.26283        -8.90942         5.73626
     2016.26557        -8.08520         5.65801
     2016.26830        -7.56798         5.86267
     2016.27104        -9.69876         5.66403
     2016.27378        -7.55454         5.64096
     2016.27652        -4.32032         5.79746
     2016.27926        -6.20710         5.64196
     2016.28199        -7.93588         5.69915
     2016.28473       -10.04866         5.82956
     2016.28747       -15.52444         5.79144
     2016.29021       -13.70523         5.66704
     2016.29295       -10.35401         5.62792
