# ================= DQRFIT RESULTS ================
# INPUT FILE: series/BLRK.rad
# OUTPUT: LDETRENDED
# FILTER FUNCTION: f(t)
# f(t)=+line(t)
# line(t)=+P 1+P 2*t
# heav(t)=(t<0?0:1)
# TOTAL OBSERVATIONS MTOT=  259
# INITIAL TIME INTERVAL= 2017.3361 - 2006.5188 = 10.8172
# TOTAL OBSERVATIONS AFTER PREFILTER M=  259
# TIME-SPAN=    0.0000 -    0.0000 =  0.0000
# OBSERVATIONS: USED M=   259 REJECTED MTOT-M=     0 %USED=  100.0000
# N=  2 PARAMETERS
# MAXSIG= 175.00000
# MAXRES=  26.68914
# SCALE FACTOR FOR LENGTHS: SCL=  10.00000
# SCALE FACTOR FOR SIGMAS: SCLSIG=   1.00000
# CHI^2=    333.355 DOF=   257 CHI^2/DOF=   1.29710
# RMS=      6.663 SDEV=      6.676 MEAN=    0.06051
#  P #       PARAMETER +-    SIGMA %error PARAMETER NAME
# P 1 =      3408.12528 +-  246.207   7.22 YZERO                              
# P 2 =        -1.69045 +-    0.122   7.25 SLOPE                              
#       T            LDETRENDED       SIG_OBS
     2006.51883       -11.86589         7.00198
     2006.52157        -7.55326         6.95187
     2006.52430        -5.00363         6.90745
     2006.52704        -8.87200         6.98148
     2006.52978        -8.37938         6.94504
     2006.53252        -8.43175         6.94959
     2006.53525        -8.44512         6.94162
     2006.53799        -8.96749         6.98262
     2006.54073       -13.28486         7.07146
     2006.54347        -7.17823         6.72751
     2006.54621       -10.46761         6.70587
     2006.54894       -11.10998         6.72409
     2006.55168        -5.16335         6.70131
     2006.55442       -10.50472         6.68651
     2006.55716        -3.85409         6.96212
     2006.55990       -11.77347         6.72409
     2006.56231       -15.38339         7.67963
     2007.02807        -3.74604         6.79356
     2007.03081        -5.49741         6.61589
     2007.03354        -9.86679         6.48150
     2007.03628       -10.07116         6.56123
     2007.03902       -11.45853         6.48036
     2007.04176        -9.72590         6.56123
     2007.04449        -7.41227         6.53048
     2007.04723       -11.57064         6.63639
     2007.04997        -7.63202         6.83456
     2007.05271        -6.41339         6.83342
     2007.05545        -7.01276         6.47467
     2007.05818        -7.46113         6.48036
     2007.06092        -8.54050         6.49631
     2007.06366        -9.95688         6.48150
     2007.06640        -7.91325         6.60678
     2007.06914        -8.66362         6.47809
     2007.07187         1.32901         6.39153
     2007.07461        -3.44436         6.41089
     2007.07735        -2.33573         6.41659
     2007.08009        -5.28411         6.49289
     2007.08282        -4.08648         6.47581
     2007.08556        -1.82085         6.59198
     2007.08830        -6.60222         6.52250
     2007.09104        -2.73859         6.52592
     2007.09378        -4.30196         6.49517
     2007.09651        -4.02934         6.43253
     2007.09925        -9.58471         6.50998
     2007.10199        -6.30008         6.49289
     2007.10473        -6.72045         6.62387
     2007.10747        -6.23882         6.63981
     2007.11020       -10.98020         6.40406
     2007.11294        -5.34457         6.41545
     2007.11568        -8.77594         6.47125
     2007.11842        -3.44231         6.46214
     2007.12115        -3.16968         6.39381
     2007.12389       -14.70005         6.50428
     2007.12663       -12.37143         6.47695
     2007.12937        -5.99280         6.66942
     2007.13211        -4.49017         6.52136
     2007.13484        -1.50354         6.48264
     2007.13758         0.89909         6.62045
     2007.14032         0.17171         6.75370
     2007.14306         0.67834         6.67512
     2007.14550        -5.93753         7.64205
     2007.71527         6.85064         6.61931
     2007.71801         5.27127         6.66487
     2007.72074         4.77889         6.73662
     2007.72348         8.33952         6.83912
     2007.72622         4.86315         6.64437
     2007.72896         5.39378         6.67967
     2007.73170         1.95241         6.68195
     2007.73443         3.87604         6.64551
     2007.73717         1.05466         6.77192
     2007.73991         4.00729         6.79128
     2007.74265        10.00792         6.63525
     2007.74538         1.65455         6.68992
     2007.74812         5.25618         6.89493
     2007.75086         9.65980         7.01907
     2007.75360        -9.27857         7.06918
     2007.75634         8.02306         6.81748
     2007.75907         8.11269         6.74573
     2007.76181         9.32332         6.63070
     2007.76455         3.03895         6.57034
     2007.76729         2.40157         7.07829
     2007.77003         5.26020         7.11018
     2007.77276        -3.62317         7.10334
     2007.77550         3.18146         6.60109
     2007.77824         6.14009         6.67967
     2007.78098         7.28171         6.63298
     2007.78371         3.26934         6.61362
     2007.78645         7.93097         6.58287
     2007.78919        -3.25240         6.73206
     2007.79193       -10.33577         6.91429
     2007.79467         4.24186         6.95756
     2007.79740         7.56448         7.34365
     2007.80014         7.54111         6.94162
     2007.80288         0.74374         6.60564
     2007.80562        -1.25263         6.59881
     2007.80836         3.31000         6.71270
     2007.81109         2.22463         6.77990
     2007.81383         2.62825         6.80267
     2007.81657        -0.14012         6.90631
     2007.81931         1.26451         6.67512
     2007.82204        -3.51386         6.73548
     2007.82478        -2.26723         6.97920
     2007.82752        -2.44961         6.80723
     2008.61343        -2.78006         6.93706
     2008.61602         2.98132         6.67170
     2008.61876         1.76395         6.65462
     2008.62150         4.37057         6.74003
     2008.62423         1.74620         6.71156
     2008.62697         2.46083         6.78103
     2008.62971         8.07446         6.83684
     2008.63245        12.17609         6.92340
     2008.63519        13.98172         6.73206
     2008.63792         2.52134         6.98262
     2008.64066        -0.07203         6.71726
     2008.64340         0.34860         6.69106
     2008.64614         5.08123         6.74003
     2008.64888         9.16386         6.80495
     2008.65161         6.95348         6.87898
     2008.65435         5.89711         6.79242
     2008.65709         5.45574         6.89265
     2008.65983         4.55037         6.67056
     2008.66256         9.65700         6.75940
     2008.66530         6.94663         6.95870
     2008.66804         2.42825         6.85392
     2008.67078         5.55388         6.91543
     2008.67352         6.08251         6.93479
     2008.67625         2.19414         7.22635
     2008.67899         7.89677         6.74459
     2008.68173         5.07539         6.78673
     2008.68447         8.00602         6.95187
     2008.68721         6.40465         6.69448
     2008.68994         7.00628         6.79812
     2008.69268         3.68791         7.14548
     2008.69542         3.70754         6.66487
     2008.69816        10.78516         6.86190
     2008.70089         9.62279         6.71726
     2008.70363         5.51942         6.94618
     2008.70637         7.82905         6.65462
     2008.70911         3.68368         6.80951
     2008.71185        13.00230         7.03387
     2008.71458         1.32493         6.77876
     2008.71732         4.61156         6.57489
     2008.72006        11.74919         6.84937
     2008.72280         3.18182         6.85051
     2008.72554         1.45545         6.68081
     2008.72827         3.13907         6.63412
     2008.73101         4.90970         6.83229
     2008.73375         9.23833         6.71384
     2008.73649         4.47096         6.72295
     2008.73922         8.55559         6.61703
     2008.74470        -0.66116         6.66714
     2008.74744         7.09647         6.83115
     2008.75018         6.97810         6.78331
     2008.75291         2.65773         6.75940
     2008.75565         2.91636         6.80723
     2008.75839         1.80998         6.87784
     2008.76113        12.73961         6.71156
     2008.76387         8.36024         6.63070
     2008.76660         7.46287         6.77420
     2008.76934         6.91550         6.68081
     2008.77208         8.69413         6.74231
     2008.77482         5.20275         6.57262
     2008.77755         6.81338         6.50200
     2008.78029         4.86901         6.57489
     2008.78303         2.71064         6.53959
     2008.78577        -0.10873         6.77876
     2008.78851         2.47389         6.64664
     2008.79124         3.79352         6.72751
     2008.79398        -0.20385         6.51453
     2008.79672        -1.70422         6.51111
     2008.79946         2.29241         6.44847
     2008.80220        12.45704         6.52364
     2008.80493         8.05966         6.58514
     2008.80767         4.13629         6.59425
     2008.81041         4.34392         6.56464
     2008.81315         6.02655         6.48948
     2008.81588         7.78318         6.45759
     2008.81862         2.03480         6.58287
     2008.82136        -1.29657         6.67056
     2008.82410         1.87206         6.66942
     2008.82684         4.43969         6.68537
     2008.82957         2.86132         6.66828
     2008.83231        -1.37605         6.58173
     2008.83505         4.64757         6.53503
     2011.84395         3.94097         6.46670
     2011.84669        -1.22140         6.48720
     2011.84942        -5.11077         6.49403
     2011.85216       -12.14914         6.57262
     2011.85490        -8.19251         6.64551
     2011.85764        -4.96089         6.53617
     2011.86037         0.86974         6.46214
     2011.86311         5.87637         6.51909
     2011.86585         3.70000         6.65006
     2011.86859         1.43363         6.50542
     2011.87133         0.61925         6.44961
     2011.87406        -3.30912         6.41545
     2011.87680         0.14351         6.88923
     2011.87954        26.68914         6.72751
     2011.88228         0.76777         6.53959
     2011.88502        -4.69560         6.47011
     2011.88775        -5.72198         6.49289
     2011.89049       -12.48335         6.51909
     2011.89323        -6.38472         6.62842
     2011.89597         3.91891         6.63525
     2011.89870         1.73354         6.70245
     2011.90144        -7.92383         6.50428
     2011.90418        -6.76821         6.46897
     2011.90692        -6.66058         6.53845
     2011.90966        -7.17095         6.51453
     2011.91239        -3.60232         6.71270
     2011.91513         0.17731         6.56464
     2011.91787        -5.38607         6.74459
     2011.92061       -12.37544         6.54984
     2011.92334       -11.12681         6.66942
     2011.92608        -8.90018         6.62842
     2013.80972         8.20502         6.39153
     2013.81246         9.42665         6.40520
     2013.81520         6.42928         6.39039
     2013.81794         1.65991         6.39722
     2013.82068         0.70854         6.43367
     2013.82341         4.82917         6.42570
     2013.82615         6.08579         7.57713
     2013.83436         0.71268         6.61134
     2013.84258         8.11156         6.46214
     2013.85079         0.89045         6.40634
     2013.86174         2.07496         6.37786
     2013.86447         1.54857         6.48948
     2013.87543        16.01110         6.45189
     2014.01506        -3.39786         7.40288
     2017.25668        -0.90106         6.33003
     2017.25942        -2.48644         6.40520
     2017.26215        -3.84481         6.50884
     2017.26489         6.10882         6.47467
     2017.26763        -1.60955         6.35850
     2017.27037         5.44208         6.37558
     2017.27311        -3.11129         6.44278
     2017.27584         0.64233         6.34939
     2017.27858        -4.83604         6.48036
     2017.28132        -9.72741         6.55211
     2017.28406        -4.24478         6.34370
     2017.28679        -1.11915         6.33686
     2017.28953         0.04747         6.31978
     2017.29227        -2.26190         6.43936
     2017.29501        -3.48627         6.42797
     2017.29775        -1.35164         6.32775
     2017.30048         7.02999         6.37558
     2017.30322        -2.58238         6.34711
     2017.30596        -5.69576         6.35508
     2017.30870        -0.30913         6.41659
     2017.31144        -6.10550         6.46100
     2017.31417        -1.63687         6.31636
     2017.31691        -0.42024         6.47581
     2017.31965        -5.90261         6.63639
     2017.32239         0.29201         6.50314
     2017.32512        -5.78836         6.30042
     2017.32786        -5.57173         6.41317
     2017.33060        -7.79910         6.31864
     2017.33334        -9.69447         6.40747
     2017.33608        -5.96085         6.37786
