# ================= DQRFIT RESULTS ================
# INPUT FILE: series/BLVU.rad
# OUTPUT: LDETRENDED
# FILTER FUNCTION: f(t)
# f(t)=+line(t)+annual(t)+jumps(t)
# line(t)=+P 1+P 2*t
# annual(t)=+P 3*sin(2*pi*t+P 4)
# jumps(t)=+P 5*heav(t-2007.9343  )+P 6*heav(t-2008.0110  )
# heav(t)=(t<0?0:1)
# TOTAL OBSERVATIONS MTOT= 1052
# INITIAL TIME INTERVAL= 2009.3384 - 2004.5530 =  4.7854
# TOTAL OBSERVATIONS AFTER PREFILTER M= 1045
# TIME-SPAN= 2009.3384 - 2004.5530 =  4.7854
# OBSERVATIONS: USED M=  1045 REJECTED MTOT-M=     7 %USED=   99.3346
# N=  6 PARAMETERS
# MAXSIG= 175.00000
# MAXRES=  33.44724
# SCALE FACTOR FOR LENGTHS: SCL=  10.00000
# SCALE FACTOR FOR SIGMAS: SCLSIG=   1.00000
# CHI^2=   1136.947 DOF=  1039 CHI^2/DOF=   1.09427
# RMS=      6.528 SDEV=      6.532 MEAN=    0.01420
#  P #       PARAMETER +-    SIGMA %error PARAMETER NAME
# P 1 =      5686.32679 +-  579.432  10.19 YZERO                              
# P 2 =        -2.81766 +-    0.289  10.25 SLOPE                              
# P 3 =         2.34697 +-    0.304  12.96 ANNUAL AMPLITUDE                   
# P 4 =        -2.62498 +-    0.163   6.23 ANNUAL PHASE                       
# P 5 =        -0.42830 +-    1.515 353.79 OFFSET 2007.9343                   
# P 6 =        -8.23562 +-    1.413  17.16 OFFSET 2008.0110                   
#       T            LDETRENDED       SIG_OBS
     2004.55302        -0.03906         6.07873
     2004.55551       -12.52205         6.69173
     2004.55852        -5.34558         6.11326
     2004.56125        -5.88786         5.99923
     2004.56400       -10.96613         6.09756
     2004.56673        -2.65443         6.13208
     2004.56947        -4.17872         6.18020
     2004.57221        -2.17300         6.15614
     2004.57494        -7.33029         6.06932
     2004.57768        -4.18258         6.11012
     2004.58042         0.15114         6.10803
     2004.58316        -3.87413         6.10384
     2004.58590         0.68557         6.20636
     2004.58863        -2.93672         6.21995
     2004.59137         3.73500         6.21577
     2004.59411        -7.24629         6.40511
     2004.59685        -7.85558         6.30050
     2004.59958        -1.07886         6.12476
     2004.60233        -1.71113         6.12162
     2004.60506        -7.89643         6.10279
     2004.60780       -10.10972         6.07037
     2004.61054        -7.34100         6.02643
     2004.61327        -0.72029         6.09861
     2004.61601         0.64242         6.27644
     2004.61875        -1.07486         6.09756
     2004.62149        -3.95013         6.12790
     2004.62423        -4.54943         6.40825
     2004.62696        -6.51472         6.09443
     2004.62973        -4.68292         6.43858
     2004.63244        -4.91829         6.14045
     2004.63507        -3.83188         6.33816
     2004.64147        18.06916        10.49317
     2004.64339         2.43557         6.53587
     2004.64613        -4.20672         6.31515
     2004.64887       -11.19500         6.29109
     2004.65160        -4.02629         6.12999
     2004.68994         2.45472         7.50663
     2004.69815         0.26387         6.10489
     2004.70089         4.65658         6.23460
     2004.70363         0.39031         6.33921
     2004.70637         6.63801         7.72526
     2004.71458         0.80515         6.13522
     2004.71732         5.72987         6.09233
     2004.71954        -2.84588         7.66877
     2004.72279        -2.01872         6.03585
     2004.72553        -6.97299         6.12790
     2004.73052         0.15006         7.71689
     2004.73374        -7.33386         6.22414
     2004.73648        -4.06613         6.12476
     2004.73921        -8.49843         6.02434
     2004.74196        -1.37370         5.94902
     2004.74470         0.43801         6.03585
     2004.74743        -1.35627         6.08815
     2004.75017        -4.91757         6.02852
     2004.75290        -2.00686         5.98459
     2004.75565        -5.76213         6.08710
     2004.75773       -10.93427         8.22946
     2004.76112         0.00528         6.11639
     2004.76386        -3.96199         6.41766
     2004.76660         2.25473         6.10384
     2004.76934        -1.98256         6.41557
     2004.77207        -0.61085         6.36117
     2004.77481         4.92987         6.19066
     2004.77755         3.03558         6.49403
     2004.78209        -8.64363        11.78611
     2004.78530        -8.27757         7.49198
     2004.79124         9.29915         6.12581
     2004.79398        11.63487         6.12685
     2004.79671        12.68558         6.14673
     2004.79945         8.16030         6.20217
     2004.80493         1.94473         6.09756
     2004.81314         4.41687         5.93438
     2004.81588         2.96558         6.21995
     2004.82409         3.59773         5.94484
     2004.82683        -3.67956         5.97204
     2004.82957        19.00016         6.16137
     2004.83231         6.42687         5.97936
     2004.83504        -6.59542         6.16765
     2004.84052         1.39601         6.10907
     2004.84326         7.01273         5.92078
     2004.84600         5.98844         5.97727
     2004.84873         4.83816         6.02329
     2004.85147         2.42987         6.14045
     2004.85421         1.94558         7.43340
     2004.85695         2.08930         6.06827
     2004.85969        -3.97899         6.17079
     2004.86242         3.57173         6.00656
     2004.86516        -0.59056         6.00237
     2004.87064        -9.59312         5.93961
     2004.87338        -0.59840         6.06200
     2004.87612         2.61331         6.00342
     2004.87885        -5.60097         5.98982
     2004.88159        -4.05227         6.34967
     2004.88706        -0.58884         5.93542
     2004.88980        -3.47213         5.97936
     2004.89254        -3.56742         5.97308
     2004.89528         5.99930         5.95216
     2004.89802         7.86601         6.05572
     2004.90075         8.07673         6.25971
     2004.90349         3.20444         5.91241
     2004.90623         4.02216         5.90299
     2004.90897        -2.54313         5.83918
     2004.91170        -4.24541         5.81722
     2004.91430         2.15291         6.15824
     2004.91992        -1.02327         5.99296
     2004.92266         8.14044         6.03271
     2004.92539         6.58216         6.00865
     2004.92813         6.98087         5.96053
     2004.93087         1.33359         5.94170
     2004.93361        12.45430         6.07246
     2004.93634        10.35401         6.10593
     2004.93908         3.20773         6.03585
     2004.94182        -2.03056         6.32247
     2004.94456        -3.35884         6.00133
     2004.94730        -9.75513         5.99923
     2004.95003        -1.20043         6.10175
     2004.95277        -0.17970         6.14150
     2004.95551       -10.72299         7.34344
     2004.96372        -4.53484         5.76177
     2004.96920        -8.83741         5.83082
     2004.97194        -1.55470         6.02957
     2004.97467        -2.84799         6.10489
     2004.97741        -6.65827         5.78270
     2004.98015        -0.99256         5.83395
     2004.98289         1.51716         5.86220
     2004.98836         0.21459         5.97204
     2004.99110         2.74030         6.05886
     2004.99384         3.75601         5.89986
     2004.99658         2.11273         5.93961
     2005.00479        -5.33513         6.03062
     2005.00753        -3.78141         5.95007
     2005.01027        -2.42070         5.92182
     2005.01300        -2.27498         6.10698
     2005.01848         9.97844         6.03480
     2005.02122        -2.58384         5.99505
     2005.02396        -5.23113         5.94275
     2005.02669        -4.54041         5.97936
     2005.02943         0.36330         5.96053
     2005.03217        -3.05998         6.04526
     2005.03491        -2.39227         7.20536
     2005.04312        -5.32313         6.04108
     2005.04586       -11.59441         6.07664
     2005.04860        -9.31170         6.77333
     2005.05133        -2.81398         6.42185
     2005.05407       -13.39627         6.27226
     2005.05681        -5.60356         6.06618
     2005.05955        -7.01384         6.22414
     2005.06230       -11.04909         6.23355
     2005.06502       -13.00541         6.31306
     2005.06776        -7.92870         6.08501
     2005.07050        -0.80098         6.02225
     2005.07324        -2.04427         6.03166
     2005.07598       -10.78156         6.19380
     2005.07871        -6.56984         5.96053
     2005.08145        -6.11113         5.93019
     2005.08419       -11.38041         6.15614
     2005.08693        -6.85170         5.88521
     2005.08966       -11.61498         5.92078
     2005.09240       -12.33027         6.09129
     2005.09469        -9.98981         7.09447
     2005.74959         5.57645         6.33084
     2005.75222        -2.21212         6.31724
     2005.75496         4.70060         6.31306
     2005.75770        -5.19069         6.24506
     2005.76044         5.88603         6.11744
     2005.76318         9.44774         6.30887
     2005.76591        10.49845         6.13313
     2005.76865         7.38217         5.95425
     2005.77139        10.29588         6.11639
     2005.77413         4.30360         6.37896
     2005.77687        11.45131         6.35176
     2005.77960        -3.61797         6.26703
     2005.78234         8.73674         6.50239
     2005.78508         1.90445         6.25448
     2005.78782         8.85917         6.11849
     2005.79055         7.85188         6.18125
     2005.79329        12.79660         6.19590
     2005.79603        15.26031         6.29213
     2005.79877        11.99803         6.33607
     2005.80151         6.46474         6.32038
     2005.80424         6.21345         6.17184
     2005.80698         3.28217         6.03898
     2005.80972         5.87588         6.06304
     2005.81246         4.53660         6.19380
     2005.81520         2.47031         6.14359
     2005.81793         9.65703         6.35594
     2005.82067         2.42674         6.12162
     2005.82341         9.99646         6.35176
     2005.82615         7.28317         6.00865
     2005.82888         3.14488         6.02120
     2005.83162         6.04660         6.40406
     2005.83436        -3.08069         6.33712
     2005.83710         4.86503         6.36327
     2005.83984         6.29374         6.24924
     2005.84257         3.41746         6.26075
     2005.84531        -0.76283         6.40616
     2005.84805        10.24188         6.39046
     2005.85079        -1.13640         6.28063
     2005.85352         2.86931         6.32352
     2005.85626         1.46003         6.34653
     2005.85892        -2.41447         6.41976
     2005.96304         3.39990         5.95007
     2005.97673         0.57447         6.42185
     2005.97947        -0.28883         6.31724
     2005.98221         0.09090         6.14464
     2005.98495         7.24661         6.05154
     2005.98768        -0.19867         6.21159
     2005.99042        -2.26196         6.24715
     2005.99316         1.60176         6.19380
     2005.99590        11.63047         6.07037
     2005.99863        13.74517         6.12372
     2006.00411         4.12761         6.33084
     2006.00685         0.16833         6.29527
     2006.00959        -6.47096         6.10489
     2006.01233        -7.01324         6.24297
     2006.01506        -8.46253         6.31096
     2006.01780         6.27117         6.20636
     2006.02054         3.11890         6.39570
     2006.02328         1.05161         6.40511
     2006.02601        -3.11267         6.45846
     2006.02875         3.51404         6.16137
     2006.03149         3.53476         6.62165
     2006.03423         4.27447         6.23878
     2006.03696         1.16117         6.19485
     2006.03970         0.20790         6.16661
     2006.04244        -4.51039         6.16556
     2006.04518        -2.00067         6.54424
     2006.04792        10.12904         6.13732
     2006.05065         8.52776         6.13104
     2006.05339        -1.29153         6.13208
     2006.05613        -3.37283         6.00342
     2006.05887        -6.76810         6.01597
     2006.06161         2.55861         6.00865
     2006.06434         2.88433         6.11116
     2006.06708         0.53104         5.99505
     2006.06982        -4.27024         5.90299
     2006.07256        -6.37453         5.86220
     2006.07529        -6.78883         5.93228
     2006.07685       -14.98143        16.15138
     2006.08077       -10.68738         6.03689
     2006.08625        -7.79596         6.14882
     2006.08898        -2.13424         5.99400
     2006.09042        20.32679        44.80962
     2006.09430        -9.23326         6.48670
     2006.09720        -7.03510         5.96785
     2006.09994        -4.41638         5.92287
     2006.10267        -9.64467         5.86324
     2006.10541       -14.82396         5.92496
     2006.10815        -6.17224         5.98040
     2006.11089        -1.44253         6.11953
     2006.11362       -10.37783         5.91973
     2006.11636        -7.13010         5.89567
     2006.11910       -12.31638         6.00865
     2006.12184       -10.01367         6.02120
     2006.12458        -5.04096         5.99191
     2006.12731        -5.43524         5.97622
     2006.13005        -1.35653         8.03385
     2006.13279        -3.40083         5.94379
     2006.13553         3.26890         5.93019
     2006.13812         1.10820         6.41034
     2006.14100         5.03733         6.10698
     2006.14374         4.69504         5.96367
     2006.14648         3.49476         5.97622
     2006.14922         1.84247         5.95007
     2006.15195        -1.17183         5.92078
     2006.15460         2.81963         6.21159
     2006.15649         8.35296        10.36868
     2006.16017         7.33733         6.05468
     2006.16291         1.18804         6.17707
     2006.16457         9.35072        13.16798
     2006.16838         6.77247         6.01806
     2006.17112         2.83517         5.88626
     2006.17386         1.43790         5.98040
     2006.17660         5.53962         5.97204
     2006.17933        -0.34167         6.02748
     2006.18207         0.80005         5.99505
     2006.18481        11.40176         6.04212
     2006.18755        14.46247         5.94379
     2006.19028         3.27317         5.97517
     2006.19302         5.26790         6.05572
     2006.19576         3.20262         6.23565
     2006.19850        14.18433         6.21995
     2006.20124         7.72905         6.21472
     2006.20397        -6.32224         6.42917
     2006.20671        -3.01553         6.49612
     2006.20945         3.93617         6.27435
     2006.21219        -2.61210         6.22414
     2006.21493         1.70762         6.21577
     2006.21766         6.10233         6.18857
     2006.22040        -0.91595         6.28272
     2006.22314        -7.14824         6.30050
     2006.22588        -2.19753         6.68127
     2006.22861         9.42318         6.26494
     2006.23135         5.00190         6.22519
     2006.23409         8.66962         6.22728
     2006.23683        -0.92967         6.30155
     2006.23957        10.14305         6.03480
     2006.24230         1.94176         6.01702
     2006.24504         6.40147         5.96471
     2006.24778         2.71218         6.03166
     2006.25046       -11.02026         6.30050
     2006.25319         2.08944         6.11116
     2006.25599         8.85233         6.00969
     2006.25873         1.31105         6.00342
     2006.26147         4.40676         6.23042
     2006.26421         4.36447         6.36954
     2006.26695         0.68119         6.08397
     2006.26968         3.18590         6.03480
     2006.27242         9.24762         6.02957
     2006.27516        10.27633         6.25238
     2006.27790         2.65005         6.22728
     2006.28063         7.33476         6.00028
     2006.28337         8.63448         6.13836
     2006.28611        12.32119         6.00237
     2006.28885        14.70190         5.99819
     2006.29159        10.05862         6.03375
     2006.29439         0.42951         6.98045
     2006.29706         3.68905         6.00865
     2006.29980        14.47276         6.12581
     2006.30254         5.30948         6.05677
     2006.30528         2.60719         6.01283
     2006.30801         9.14090         6.04735
     2006.31075         7.61262         6.07350
     2006.31343         8.99417         6.70429
     2006.31657         1.82101         7.14782
     2006.32170         4.27748         6.11535
     2006.32444         7.77619         6.14987
     2006.32675         4.54570         7.54115
     2006.32995         4.22873         6.17602
     2006.33265        -1.02667         6.11744
     2006.33539         4.74705         6.05677
     2006.33813         3.89876         6.05363
     2006.34087         9.26848         6.00969
     2006.34361         5.58719         6.05991
     2006.34634         5.28590         6.15719
     2006.34908         3.92862         6.16242
     2006.35182         2.54133         6.16661
     2006.35456         5.22605         6.04840
     2006.35729         8.70576         6.07560
     2006.36003         6.77348         6.10803
     2006.36277        -0.53581         6.16765
     2006.36551        -2.75010         6.14045
     2006.36825        -0.12038         6.08710
     2006.37098         5.16133         6.30259
     2006.37372         7.34305         6.21786
     2006.37646         6.07676         6.14150
     2006.37920         2.25348         6.24820
     2006.38193        -2.67481         6.32561
     2006.38467         8.29891         6.16137
     2006.38741         8.18562         6.41976
     2006.39015         6.18033         6.94593
     2006.39289        -4.65795         6.36954
     2006.39562         6.26676         6.37164
     2006.39836         5.82148         6.39465
     2006.40110         4.15919         6.24924
     2006.40384        -1.12309         6.23983
     2006.40658        -0.22838         6.21263
     2006.40931        -3.36367         6.22728
     2006.41205        -2.48195         6.20322
     2006.41479        -1.83824         6.42917
     2006.41753        -0.31452         6.54424
     2006.42026         3.87019         6.37373
     2006.42300         1.23491         6.43545
     2006.42574         4.56162         6.45114
     2006.42848         4.46533         7.95330
     2006.43122        -1.10195         6.91873
     2006.43395         5.51676         6.15928
     2006.43669        -1.67252         6.20008
     2006.43943         6.17219         6.20008
     2006.44217         4.62591         6.20740
     2006.44491        -1.50738         6.23460
     2006.44764         1.95033         6.45532
     2006.45038         7.08605         6.20949
     2006.45312         6.46776         6.91769
     2006.45586        -1.29552         6.73776
     2006.45862         8.22827         7.15724
     2006.46133         6.48891         6.28272
     2006.46407         8.65962         6.30783
     2006.46681         5.99433         6.30887
     2006.46955         1.17805         6.18125
     2006.47228         1.45776         6.30155
     2006.47502         4.16248         6.28377
     2006.47776         2.31719         6.33398
     2006.48050        -8.94609         6.30469
     2006.48324         0.62462         6.40720
     2006.48597         3.22934         6.35281
     2006.48871         2.79505         6.26598
     2006.49145         2.82476         6.30783
