# ================= DQRFIT RESULTS ================
# INPUT FILE: series/BLY1.rad
# OUTPUT: LDETRENDED
# FILTER FUNCTION: f(t)
# f(t)=+line(t)+annual(t)
# line(t)=+P 1+P 2*t
# annual(t)=+P 3*sin(2*pi*t+P 4)
# heav(t)=(t<0?0:1)
# TOTAL OBSERVATIONS MTOT= 3509
# INITIAL TIME INTERVAL= 2022.7488 - 2011.8718 = 10.8770
# TOTAL OBSERVATIONS AFTER PREFILTER M= 3507
# TIME-SPAN= 2022.7488 - 2011.8718 = 10.8770
# OBSERVATIONS: USED M=  3507 REJECTED MTOT-M=     2 %USED=   99.9430
# N=  4 PARAMETERS
# MAXSIG= 175.00000
# MAXRES=  20.17401
# SCALE FACTOR FOR LENGTHS: SCL=  10.00000
# SCALE FACTOR FOR SIGMAS: SCLSIG=   1.00000
# CHI^2=   2970.404 DOF=  3503 CHI^2/DOF=   0.84796
# RMS=      5.227 SDEV=      5.227 MEAN=    0.03910
#  P #       PARAMETER +-    SIGMA %error PARAMETER NAME
# P 1 =      2221.41128 +-   59.742   2.69 YZERO                              
# P 2 =        -1.10196 +-    0.030   2.69 SLOPE                              
# P 3 =         4.45915 +-    0.122   2.74 ANNUAL AMPLITUDE                   
# P 4 =        -3.07824 +-    0.039   1.26 ANNUAL PHASE                       
#       T            LDETRENDED       SIG_OBS
     2011.87177        -0.56126         6.46067
     2011.87405        -1.63575         5.25988
     2011.87953       -10.04772         5.32250
     2011.88227         2.52730         5.30040
     2011.88501         1.06132         5.27277
     2011.88774        -2.70966         5.28382
     2011.89048        -6.02165         5.32618
     2011.89322        -0.89163         5.42195
     2011.89869         2.45740         5.34552
     2011.90143         0.54342         5.37683
     2011.90417        -3.90556         5.30132
     2011.90691         1.05345         5.32802
     2011.90965         0.23147         5.34920
     2011.91238         2.03049         5.41550
     2011.91786         0.57652         5.42655
     2011.92060        -4.20346         5.31145
     2011.92607        -5.22643         5.49378
     2011.92881        -2.80341         5.47628
     2011.93155         1.89861         5.36302
     2011.93702         1.82764         5.38235
     2011.93976         0.57966         5.38051
     2011.94250         3.54268         5.33447
     2011.94524         3.13969         5.38604
     2011.94798         7.79571         5.37038
     2011.95071         2.90673         5.27277
     2012.03285        -1.44076         5.29671
     2012.03559         0.39125         5.47996
     2012.03833        -1.76773         5.21568
     2012.04106         7.36729         5.68071
     2012.04380         3.45831         5.48733
     2012.04654         1.01232         5.20371
     2012.05201        -3.03064         5.81699
     2012.05475         9.72337         5.75253
     2012.05749        -1.28061         5.69084
     2012.06023        -0.19559         5.21476
     2012.06297        -3.26358         5.35197
     2012.06570        -5.20956         5.30961
     2012.07118        -5.98652         5.16687
     2012.07392        -4.02151         5.14570
     2012.07666        -0.84449         5.21292
     2012.07939        -0.23147         5.30316
     2012.08213         2.99254         5.21752
     2012.08458        -1.79675         5.73504
     2012.09034        -4.30941         5.20647
     2012.09308        -0.62139         5.24423
     2012.09582         1.74663         5.43576
     2012.09856         1.30965         5.20003
     2012.10130        -3.74134         5.37222
     2012.10392        -0.22345         5.29579
     2012.10951         5.51271         5.35841
     2012.11225         2.55473         5.69452
     2012.11498        -0.61725         5.25988
     2012.11772         4.92676         5.25067
     2012.12046         3.24478         5.22028
     2012.12320        -0.07420         5.32526
     2012.12867        -2.99817         5.54718
     2012.13141        -3.78615         5.31789
     2012.13415        -2.23213         5.26448
     2012.13689         3.35488         5.29856
     2012.13963         5.00790         5.42655
     2012.14236        -0.79708         5.47720
     2012.14784        -7.53005         5.21936
     2012.15058        -3.80803         5.21108
     2012.15331        -1.67901         5.16135
     2012.15600         1.49094         5.37959
     2012.15833         2.04852         6.72955
     2012.16153        -0.22396         5.22857
     2012.16700        -1.04393         5.19910
     2012.16974        -3.96091         5.15675
     2012.17248        -4.55490         5.14662
     2012.17522        -4.46488         5.34092
     2012.17796        -5.44186         5.25712
     2012.18069        -2.02384         5.18161
     2012.18617        -2.97781         5.18990
     2012.18891         0.88021         5.19910
     2012.19164         6.02522         5.82712
     2012.19438         2.48924         5.44497
     2012.19712        -1.23474         5.14385
     2012.19986        -8.61673         5.44865
     2012.20533        -7.19869         5.38235
     2012.20807        -1.53267         5.22028
     2012.21081         4.37534         5.10242
     2012.21343         4.36223         5.40077
     2012.21902       -11.15461         5.54258
     2012.22450        -5.72357         5.28935
     2012.22724        -1.92656         5.16503
     2012.22997        -1.94854         5.22581
     2012.23271         0.79648         5.44221
     2012.23545        -2.47550         5.24883
     2012.23813       -11.98355         5.73688
     2012.24366         0.20855         5.21108
     2012.24640         0.38056         5.30684
     2012.24914        -1.35142         5.22120
     2012.25188        -5.19940         5.20555
     2012.25462        -3.85839         5.23041
     2012.25735        -5.57537         5.17332
     2012.26283        -5.61233         5.14754
     2012.26557        -3.48932         5.23962
     2012.26819         0.71257         8.15042
     2012.27110        -2.53222         5.39709
     2012.27378        -3.40727         5.16227
     2012.27652         0.83475         5.22397
     2012.28199        -3.81222         5.18161
     2012.28473         0.35780         5.20279
     2012.28747        -7.12118         5.22581
     2012.29021        -8.27316         5.20647
     2012.29295       -13.41815         5.20095
     2012.29568        -6.84913         5.20095
     2012.30116       -10.76610         5.19266
     2012.30390        -7.65108         5.19634
     2012.30663       -11.49106         5.25804
     2012.30937        -3.14305         5.24883
     2012.31211         4.42297         5.38512
     2012.31485        -3.97201         5.35289
     2012.32032        -6.41498         5.31053
     2012.32306        -8.67696         5.24423
     2012.32580        -7.12194         5.20003
     2012.32854        -2.50593         5.34276
     2012.33128        -0.23091         5.29027
     2012.33401         0.88611         5.36486
     2012.63997         5.54426         7.20011
     2012.64613         5.53405         5.08124
     2012.64887         5.06306         5.08492
     2012.65081         8.96620         7.97638
     2012.65434         0.94310         5.39525
     2012.65708         7.40711         5.53429
     2012.65982         5.63113         8.98655
     2012.66529         9.39817         5.13925
     2012.66803         1.76118         5.23041
     2012.67077        10.71720         5.15398
     2012.67351         4.76122         5.21844
     2012.67613         3.23211         5.56836
     2012.67898         7.26525         5.13096
     2012.68446         1.54128         5.22857
     2012.68720         7.29530         5.07847
     2012.68993         4.86132         5.14846
     2012.69273         7.07640         6.45238
     2012.69541         5.39035         5.14846
     2012.69815         2.84237         5.13372
     2012.70362         4.43440         5.21568
     2012.70636         5.91942         5.05545
     2012.70853         1.78381         6.50671
     2012.71184         2.34945         5.04164
     2012.71457         7.04547         5.03980
     2012.71731        10.95449         5.40353
     2012.72279         6.31952         5.06834
     2012.72553         4.61054         5.08308
     2012.72798         6.05724         5.80871
     2012.73100        10.76457         6.99292
     2012.73374         0.03059         5.26172
     2012.73648         4.76561         5.08492
     2012.74195         3.62464         5.21660
     2012.74469         6.03866         5.20923
     2012.74669        10.62186         7.50859
     2012.75017         2.42469         5.32434
     2012.75290         7.32571         5.25067
     2012.75564         3.05673         5.10518
     2012.76112        12.07976         5.15398
     2012.76386         9.67678         5.16964
     2012.76659         9.05779         5.07755
     2012.76933         7.78581         5.10149
     2012.77207         6.55683         5.19726
     2012.77481         5.12985         5.14385
     2012.79397        23.32996        10.45162
     2012.79671         6.17398         5.24238
     2012.79945         4.50300         5.43760
     2012.80219         2.33602         5.27093
     2012.80492         8.86903         5.23410
     2012.80766         0.71405         5.29856
     2012.81040         2.55507         5.25067
     2012.81314        -1.23992         5.17332
     2012.81587        -9.22890         5.21108
     2012.81861        -3.79688         5.36762
     2012.82135         2.80113         5.30040
     2012.82409         0.96315         5.28566
     2012.82683         3.08717         5.18253
     2012.82956         0.80319         5.23502
     2012.83230         3.68920         5.27646
     2012.83504         4.17222         5.33631
     2012.83778         2.87924         5.29395
     2012.84052         7.55925         5.23594
     2012.84257        -4.95048         7.22036
     2012.85968         3.43937         5.18345
     2012.86242         2.07339         5.29211
     2012.86516         9.52241         5.25067
     2012.86789         2.42142         5.40537
     2012.87063         0.60044         5.30040
     2012.87337        -0.93254         5.18621
     2012.87611         6.43747         5.19266
     2012.87885         2.36349         5.24054
     2012.88158         2.92551         5.24975
     2012.88432         9.25953         5.18713
     2012.88706        -5.00146         5.37775
     2012.88980        -2.01044         5.39709
     2012.89253         4.20258         5.21384
     2012.89527        -2.50241         5.23318
     2012.89801         3.03561         5.29211
     2012.90075         6.91663         5.28474
     2012.90349         1.49864         6.48184
     2012.90622         2.08966         5.21015
     2012.90896         5.54768         5.27093
     2012.91170         5.44170         5.28198
     2012.91444        -4.23829         5.29303
     2012.91718        -0.26627         5.11347
     2012.91991         0.64475         5.14477
     2012.92265         3.28576         5.12083
     2012.92539         0.04578         5.27830
     2012.92813        -1.87820         5.16964
     2012.93086        -6.05219         5.33907
     2012.93360        -0.77217         5.17793
     2012.93634         3.98185         5.07847
     2012.93908        -2.80613         5.25620
     2012.94182        -0.41012         5.15398
     2012.94455        10.02790         5.16503
     2012.94729        -0.76008         5.22305
     2012.95003         5.53093         5.17332
     2012.95277        10.29695         5.09044
     2012.95551         7.98997         5.16043
     2012.95824        -2.93002         5.18805
     2012.96098        -1.87600         5.27646
     2012.96372         2.29302         5.18898
     2012.96646         7.61404         5.09873
     2012.96919        -1.54595         5.23318
     2012.97193        -4.38093         5.27093
     2012.97467        -0.49291         5.22397
     2012.97741        -3.35490         5.21384
     2012.98015        -1.35688         5.20831
     2012.98288        -1.62786         5.15675
     2012.98562         1.77315         5.13096
     2012.98836        -1.64983         5.22305
     2012.99087        -1.74106         5.63743
     2012.99384        -7.69479         5.03888
     2012.99657        -4.79078         5.11991
     2012.99931        -3.95576         5.18069
     2013.00205        -6.09974         5.15490
     2013.00479        -5.01173         5.12728
     2013.00752        -6.44071         5.11715
     2013.01026        -5.16069         5.19450
     2013.01300        -4.65168         5.16043
     2013.01574        -5.25366         5.11807
     2013.01848        -9.06064         5.20923
     2013.02121         0.16738         5.15398
     2013.02395       -11.81561         5.28014
     2013.02669        -0.59459         5.38972
     2013.02943        -1.78657         5.28751
     2013.03216        -7.20456         5.30224
     2013.03456       -12.31292         6.23230
     2013.03764       -10.75552         5.30869
     2013.04038       -16.35551         5.44405
     2013.04312       -13.69649         5.42011
     2013.04585       -15.14047         6.48553
     2013.04859       -14.00845         5.35841
     2013.05133       -15.28744         5.20831
     2013.05407       -11.72242         5.23410
     2013.05681        -9.36940         5.23594
     2013.05954       -10.96839         5.23226
     2013.06228        -8.13637         5.29671
     2013.06502        -5.09435         5.29027
     2013.06776        -2.30234         5.20187
     2013.07049        -7.70832         5.26541
     2013.07323        -1.32030         5.18161
     2013.07597        -4.63028         5.20279
     2013.07871        -2.61327         5.14293
     2013.08145        -8.02025         5.14662
     2013.08418        -6.08323         5.15582
     2013.08692        -8.58222         5.20187
     2013.08966       -11.83720         5.17424
     2013.09240        -5.02718         5.17793
     2013.09514        -5.74817         5.16872
     2013.09787        -3.49415         5.36578
     2013.10061        -4.44413         5.52601
     2013.10335        -7.92911         5.25159
     2013.10609        -9.33910         5.22213
     2013.10882        -0.79208         5.11531
     2013.11156       -11.63806         5.28106
     2013.11430        -5.50405         5.11899
     2013.11704        -9.59803         5.22120
     2013.11978        -6.55801         5.37775
     2013.12251       -11.14200         5.17516
     2013.12525       -11.41898         5.32802
     2013.12799        -8.11096         5.20463
     2013.13073        -6.90194         5.16595
     2013.13347        -3.51993         5.18069
     2013.13620        -3.48791         5.18898
     2013.13894        -5.93689         5.14570
     2013.14168        -3.49788         5.20003
     2013.14442        -4.55786         5.40722
     2013.14715        -5.75984         5.42103
     2013.14989        -9.63182         5.15859
     2013.15263        -9.69581         5.22305
     2013.15537       -14.24479         5.15214
     2013.15811       -15.03677         5.22673
     2013.16084       -10.94676         5.18805
     2013.16358       -13.04474         5.21752
     2013.16632        -7.72772         5.18161
     2013.16906        -4.82671         5.21476
     2013.17180        -3.87369         5.21292
     2013.17453       -10.44367         5.24054
     2013.17727        -4.57765         5.31697
     2013.18001        -5.20164         5.30040
     2013.18275        -8.82762         5.39340
     2013.18548        -9.41060         5.21660
     2013.18822       -13.19959         5.23226
     2013.19096        -3.58457         5.18069
     2013.19370        -7.94255         5.19634
     2013.19644        -6.80854         5.20187
     2013.19917        -5.38952         5.30040
     2013.20191        -8.84450         5.26448
     2013.20465         0.42852         5.18805
     2013.20739        -4.05847         5.19082
     2013.21013        -2.56345         5.16687
     2013.21286        -2.98543         5.20095
     2013.21560       -13.27842         5.26817
     2013.21834       -10.27240         5.21292
     2013.22108        -0.81838         5.16780
     2013.22381        -4.57737         5.14293
     2013.22655        -8.24135         5.16227
     2013.22929       -12.01933         5.25804
     2013.23203        -7.09231         5.17516
     2013.23477        -5.01930         5.26725
     2013.23750        -4.84328         5.38051
     2013.24024        -5.74126         5.27646
     2013.24298        -8.58525         5.32066
     2013.24572         1.00777         5.31881
     2013.24846        -3.60121         5.32342
     2013.25119        -4.07820         5.28935
     2013.25393        -6.28518         5.28566
     2013.25667        -3.00516         5.63651
     2013.25941        -2.38614         5.28382
     2013.26214        -5.12913         5.33539
     2013.26488        -6.54511         5.30316
     2013.26762         3.44591         5.27277
     2013.27036        -7.04308         5.36486
     2013.27310        -3.77006         5.41274
     2013.27583        -6.80104         5.36025
     2013.27857        -2.81203         5.35657
     2013.28131         2.61099         5.27093
     2013.28405        -4.63699         5.26080
     2013.28679         1.46403         5.26541
     2013.28952        -4.89296         5.29303
     2013.29226        -9.16394         5.24146
     2013.29500        -8.62592         5.27093
     2013.29774       -11.72591         5.31789
     2013.30047        -7.20989         5.29303
     2013.30321        -8.58287         5.29211
     2013.30595        -9.03486         5.24423
     2013.30869       -10.71384         5.23041
     2013.31143        -9.57682         5.24146
     2013.31416        -4.02480         5.30684
     2013.31690        -0.09779         5.23870
     2013.31964        -1.42077         5.21844
     2013.32238        -8.06875         5.16595
     2013.32512        -4.75274         5.24331
     2013.32785        -1.92272         5.30132
     2013.33059        -9.08070         5.26264
     2013.33333       -12.26369         5.25620
     2013.33607        -8.48667         5.20923
     2013.33880        -7.65165         5.21752
     2013.34154         1.31737         5.23594
     2013.34428        -2.75662         5.26725
     2013.34702        -6.08660         5.44865
     2013.34976        -6.13958         5.47352
     2013.35249       -10.15057         5.28106
     2013.35523       -16.15455         5.43760
     2013.35797       -14.07053         5.31145
     2013.36071       -12.36252         5.38604
     2013.36344        -3.20850         5.35565
     2013.36618        -5.71348         5.34460
     2013.36892         0.43954         5.24699
     2013.37166        -7.55645         5.24791
     2013.37440        -2.01243         5.25712
     2013.37713        -5.59941         5.30592
     2013.37987        -8.00240         5.23778
     2013.38261        -9.97438         5.21476
     2013.38535       -10.41436         5.35012
     2013.38809        -6.26235         5.33263
     2013.39082         0.06767         5.33999
     2013.39356        -1.60031         5.29487
     2013.39630        -6.21729         5.22120
     2013.39904        -4.62728         5.26448
     2013.40177        -3.05426         5.22120
     2013.40451        -6.53124         5.22949
     2013.40725        -7.44423         5.30961
     2013.40999        -1.06721         5.21752
     2013.41273        -2.10519         5.18437
     2013.41546        -2.84318         5.43392
     2013.41820        -8.46116         5.27553
     2013.42094        -0.98114         5.26356
     2013.42368        -2.67212         5.26725
     2013.42642        -2.70411         5.27830
     2013.42915        -3.17509         5.38143
     2013.43190        -6.81807         5.24791
