# ================= DQRFIT RESULTS ================
# INPUT FILE: series/BNAB.rad
# OUTPUT: LDETRENDED
# FILTER FUNCTION: f(t)
# f(t)=+line(t)+annual(t)
# line(t)=+P 1+P 2*t
# annual(t)=+P 3*sin(2*pi*t+P 4)
# heav(t)=(t<0?0:1)
# TOTAL OBSERVATIONS MTOT= 1832
# INITIAL TIME INTERVAL= 2022.7488 - 2016.2218 =  6.5270
# TOTAL OBSERVATIONS AFTER PREFILTER M= 1827
# TIME-SPAN= 2022.7488 - 2016.2218 =  6.5270
# OBSERVATIONS: USED M=  1827 REJECTED MTOT-M=     5 %USED=   99.7271
# N=  4 PARAMETERS
# MAXSIG= 175.00000
# MAXRES=  29.95920
# SCALE FACTOR FOR LENGTHS: SCL=  10.00000
# SCALE FACTOR FOR SIGMAS: SCLSIG=   1.00000
# CHI^2=   2431.934 DOF=  1823 CHI^2/DOF=   1.33403
# RMS=      7.155 SDEV=      7.157 MEAN=    0.05432
#  P #       PARAMETER +-    SIGMA %error PARAMETER NAME
# P 1 =     -3847.90828 +-  174.083   4.52 YZERO                              
# P 2 =         1.91032 +-    0.086   4.51 SLOPE                              
# P 3 =         1.87221 +-    0.241  12.86 ANNUAL AMPLITUDE                   
# P 4 =        -3.08381 +-    0.182   5.89 ANNUAL PHASE                       
#       T            LDETRENDED       SIG_OBS
     2016.22176        -6.94236         7.46478
     2016.22450        -6.14859         6.61123
     2016.22724        -6.14982         6.91153
     2016.22997        -6.02605         7.02703
     2016.23271        -1.71728         7.07207
     2016.23545        -3.77151         6.81566
     2016.23819         5.26626         6.77062
     2016.24093        -4.30497         7.04666
     2016.24366        11.01180         7.23031
     2016.24640        -8.86343         6.66205
     2016.24914        -3.87366         6.95426
     2016.25188         0.47011         6.57658
     2016.25462         0.70488         7.19451
     2016.25735         1.06265         7.08825
     2016.26009        -1.27258         6.58351
     2016.26283        -7.48481         6.81104
     2016.26557         3.05196         6.80873
     2016.26830         0.21573         6.49342
     2016.27104         8.33050         7.21530
     2016.27378        -0.68573         7.06399
     2016.27652         0.78804         7.10326
     2016.27926         1.55981         7.04089
     2016.28199        -1.91142         6.77870
     2016.28473        -5.94065         6.94849
     2016.28747        -5.24488         7.03396
     2016.29021        -1.30111         6.62278
     2016.29295         0.01766         7.42551
     2016.29568         1.16543         6.97505
     2016.29842         6.57220         7.11019
     2016.30116        -5.81304         6.84107
     2016.30390        -1.85526         6.80411
     2016.30663        -7.82849         6.93578
     2016.30937        -1.61172         7.20144
     2016.31211        -0.43595         6.97852
     2016.31485         4.51381         7.22916
     2016.31759         3.97159         7.12521
     2016.32032        -7.57664         7.00277
     2016.32306        -3.68487         6.78910
     2016.32580        -7.89211         6.77062
     2016.32854        -0.07534         6.74405
     2016.33128         3.11843         6.80873
     2016.33401        -0.06780         7.30885
     2016.33675        -2.88503         7.26958
     2016.33949         4.21874         7.23840
     2016.34223         5.40251         6.97274
     2016.34496         4.62828         7.45669
     2016.34770         3.58105         6.97390
     2016.35044        10.05782         7.64149
     2016.35318        -1.77941         7.05706
     2016.35592         3.49436         6.87919
     2016.35865        -7.02787         7.50058
     2016.36139         2.70690         6.74405
     2016.36413        10.92967         6.93232
     2016.36687         8.03144         6.89074
     2016.36961        20.64021         6.79025
     2016.37234        12.90598         7.21645
     2016.37508        13.21175         7.27767
     2016.37782        -0.54948         6.83761
     2016.38056         3.82629         7.45554
     2016.38329         5.36306         6.85724
     2016.38603         1.10883         6.88843
     2016.38877        20.82760         7.09633
     2016.39151        10.51837         7.07785
     2016.39425         5.42314         7.27420
     2016.39698        11.25091         7.07438
     2016.39972        16.73368         7.31001
     2016.40246        -0.20455         7.70964
     2016.40520        -2.52578         6.80180
     2016.40794        -6.56301         6.95426
     2016.41067         7.66476         6.83530
     2016.41341         0.69853         6.68861
     2016.41615        -1.92470         7.06514
     2016.41889        -3.62293         6.64934
     2016.42162        10.32084         7.29730
     2016.42436        -3.33239         7.49134
     2016.42710         0.33138         6.70940
     2016.42984        -0.05885         7.10557
     2016.43258         9.89692         6.88843
     2016.43531         8.87369         7.06745
     2016.43805         1.35946         6.83414
     2016.44079         0.86223         6.60314
     2016.44353         7.19000         7.06283
     2016.44626         4.62477         7.81821
     2016.44900        -0.43546         7.26150
     2016.45174        10.45931         6.97505
     2016.45448         1.41308         6.66436
     2016.45722         0.06385         6.65974
     2016.45995        12.16762         6.65743
     2016.46269        -0.43161         6.81566
     2016.46543         6.40516         6.91499
     2016.46817        12.16893         7.31116
     2016.47091        13.33170         6.99353
     2016.47364         1.50547         6.96350
     2016.47638         7.36724         6.75329
     2016.47912         5.68801         6.91037
     2016.48186         6.07878         6.79025
     2016.48459         6.48855         6.81797
     2016.48733         5.54532         7.13098
     2016.49007         1.34509         7.25226
     2016.49281         4.58086         6.71056
     2016.49555         4.40362         6.98545
     2016.49828        -0.06061         7.08594
     2016.50102         3.27616         6.84223
     2016.50376        -2.84807         6.96235
     2016.50650        -4.51530         6.73481
     2016.50924        -2.90453         7.28113
     2016.51197         1.27024         7.69116
     2016.51471        -2.87399         6.71056
     2016.51745        -5.17922         7.16679
     2016.52019        -3.13645         6.50266
     2016.52292         6.89732         6.77408
     2016.52566         3.54209         6.75907
     2016.52840        -4.99014         6.97274
     2016.53114        -4.93337         7.54216
     2016.53388         5.77540         7.04551
     2016.53661        10.83017         6.65396
     2016.53935         1.88894         6.95195
     2016.54209         4.12571         6.73828
     2016.54483        12.01448         6.98545
     2016.54757         9.43225         6.71056
     2016.55030         5.39302         7.46593
     2016.55304         0.74979         7.35159
     2016.55578         2.18656         6.96697
     2016.55852         8.42033         7.06168
     2016.56125         3.73310         7.52368
     2016.56399        16.37887         6.53153
     2016.56673         5.46764         7.06630
     2016.56947         5.03341         6.85262
     2016.57221         5.76318         6.87572
     2016.57494         9.30895         7.65420
     2016.57768        14.35472         7.24533
     2016.58042         8.31149         7.00508
     2016.58316         3.13826         7.68192
     2016.58590        -4.47797         6.39178
     2016.58863         0.30180         7.28575
     2016.59137        -7.83043         7.11481
     2016.59411         3.86534         7.46131
     2016.59685         7.62911         7.08132
     2016.59958         9.51488         7.13676
     2016.60232         3.20265         7.53177
     2016.60506        -4.91458         6.85609
     2016.60780        -0.89481         6.71749
     2016.61054         2.59796         6.82952
     2016.61327         4.77373         7.26150
     2016.61601         1.45950         6.97736
     2016.61875         6.91427         7.77894
     2016.62149        -0.11396         6.87110
     2016.62423         6.41681         6.94040
     2016.62696         1.49458         7.54332
     2016.62970         3.39035         7.01432
     2016.63244        -4.10488         7.26496
     2016.63518         5.70089         7.01548
     2016.63791        12.96366         8.55394
     2016.64064        15.61445        11.15963
     2016.64338        -5.30579        18.92701
     2016.64612         7.87498        13.48811
     2016.64886         9.49375        18.10812
     2016.65159        -2.26648        14.10834
     2016.65433         8.15229        18.04921
     2016.65707        16.75806        15.34997
     2016.65981        16.16483        16.80527
     2016.66255         4.26260        24.35552
     2016.66528        -0.26363        25.06354
     2016.66802        14.39014        27.78356
     2016.67076       -17.83009        24.50798
     2016.67350         5.90768        17.48441
     2016.67623        -4.08555        14.64889
     2016.67897         1.47022        23.38647
     2016.68446         4.39074         7.38624
     2016.68720        -0.41349         7.46709
     2016.68993        -2.70972         7.60569
     2016.69266        -0.11092         7.13791
     2016.69541         2.20082         6.48302
     2016.69815         8.37459         7.17834
     2016.70089        -0.48564         7.03049
     2016.70362        12.95113         7.88404
     2016.70636        13.20290         7.98568
     2016.70910         0.72267         7.34004
     2016.71184         8.78044         7.31694
     2016.71457         8.75521         7.15755
     2016.71731        12.12298         6.96466
     2016.72005        -6.14125         7.13791
     2016.72279        15.41352         6.99238
     2016.72553        -5.50471         7.46016
     2016.72826         0.04106         7.69231
     2016.73100        -7.32817         6.77639
     2016.73374         3.43860         7.60915
     2016.73648        -6.11763         7.67845
     2016.73921        -5.79086         6.69670
     2016.74195        -7.85009         7.16448
     2016.74469        -5.49432         7.19797
     2016.74743        -9.11655         7.15639
     2016.75017        -3.64678         7.34235
     2016.75274         0.24731         7.48557
     2016.75645         7.35722        11.10303
     2016.75838         9.87553         7.42782
     2016.76112         8.08630         6.72095
     2016.76386         3.55607         7.12752
     2016.76659         9.08784         6.89420
     2016.76933         8.25961         7.12174
     2016.77207         4.71138         7.01663
     2016.77481         1.93915         6.72557
     2016.77754         9.78292         6.99584
     2016.78028         2.24569         7.57219
     2016.78302         2.26446         7.14715
     2016.78576         2.04823         6.74636
     2016.78850        12.25600         6.93116
     2016.79124         3.43576         7.06168
     2016.79397         6.56154         7.42435
     2016.79671         1.21930         7.07785
     2016.79945         3.03508         6.80527
     2016.80219        -2.92615         7.38277
     2016.80493         1.28561         6.97159
     2016.80767         5.38838         7.52368
     2016.81040        -5.61585         7.21761
     2016.81314        -0.15408         7.12983
     2016.81588        -4.95131         7.74313
     2016.81862         0.94746         7.09864
     2016.82136         1.12223         7.07669
     2016.82409         1.31500         7.22569
     2016.82683       -10.71923         6.82259
     2016.82957         1.73654         6.85955
     2016.83231        -7.45269         6.94387
     2016.83504        -0.42992         7.14253
     2016.83778        -9.25815         7.31809
     2016.84052         2.11662         7.36891
     2016.84326        -7.91661         7.60222
     2016.84600         0.82716         7.05128
     2016.84873         3.37293         7.06861
     2016.85147        -0.50931         7.05013
     2016.85421        -0.20554         7.18758
     2016.85695         1.24623         7.89213
     2016.85969        -1.45900         7.51329
     2016.86242       -15.53423         7.27651
     2016.86516        -9.84746         7.17949
     2016.86790        -4.48769         7.82860
     2016.87064         6.55508         7.06052
     2016.87337        -5.13215         7.28113
     2016.87611         5.20462         7.30539
     2016.87885        -8.65860         6.84685
     2016.88159        -5.46484         7.24071
     2016.88433         4.75593         7.50867
     2016.88706         8.32570         7.16794
     2016.88980         5.89647         7.27420
     2016.89254         4.90824         7.00046
     2016.89528         3.27101         7.02703
     2016.89802         0.65678         6.99469
     2016.90075        -8.09345         7.20028
     2016.90349         0.57132         7.32618
     2016.90623         9.69009         7.56642
     2016.90897        -1.99014         6.86302
     2016.91170         3.03863         7.24302
     2016.91444        -4.25460         7.03280
     2016.91718        -4.79483         7.37353
     2016.91992        -5.95306         7.13676
     2016.92266        -9.70929         7.08825
     2016.92539        -5.15352         7.02472
     2016.92813       -12.81975         7.65651
     2016.93087         0.82202         6.80411
     2016.93361         5.65779         7.14369
     2016.93634         1.32556         7.37584
     2016.93908         5.54033         7.34004
     2016.94182         7.48510         7.27420
     2016.94456         1.34187         7.08709
     2016.94730         5.97164         7.15062
     2016.95003         7.53242         7.63803
     2016.95277         8.82218         6.80642
     2016.95551         6.49895         7.04897
     2016.95824         9.29973         7.06168
     2016.96098         4.48550         7.36198
     2016.96372        -4.32473         6.83299
     2016.96646        -7.31696         7.15408
     2016.96919         0.63981         7.03511
     2016.97193         3.19758         7.23262
     2016.97467        -7.93365         6.87688
     2016.97741        -5.88588         6.93925
     2016.98015         8.40889         6.87572
     2016.98288         8.71766         6.80527
     2016.98562         4.17143         6.63433
     2016.98836         8.01620         6.80411
     2016.99110         1.81797         6.62393
     2016.99384         7.75074         7.20144
     2017.00205         8.90205         6.68515
     2017.00479        11.04381         6.53731
     2017.00752        -0.19742         6.67937
     2017.01026        -3.76965         6.99469
     2017.01300         7.65112         6.62162
     2017.01574        -4.77611         6.98545
     2017.01848         9.18866         6.74174
     2017.02121         8.15643         6.85609
     2017.02395         7.89120         6.61354
     2017.02669         5.61197         6.52691
     2017.02943         7.81174         6.51305
     2017.03216         0.50451         6.71287
     2017.03490         0.16828         6.63202
     2017.03764        -7.62595         7.08363
     2017.04038        -6.45718         6.98198
     2017.04312         5.83959         6.64010
     2017.04585         1.02736         7.01663
     2017.04859         5.14213         6.65281
     2017.05133        -0.50710         7.27420
     2017.05407        -4.18433         6.79256
     2017.05681        -5.91656         6.60892
     2017.05954         3.48921         6.70825
     2017.06228         9.08598         6.96119
     2017.06502         2.89975         6.62047
     2017.06776        -1.52248         6.71518
     2017.07049        -0.60571         6.46223
     2017.07323        -5.49494         6.80411
     2017.07597        -6.41917         6.84223
     2017.07871        -8.58340         6.57080
     2017.08145        -2.41663         7.76508
     2017.08418         1.29214         6.67706
     2017.08692         2.34191         6.90113
     2017.08966         4.79168         6.83876
     2017.09240         1.44545         6.33518
     2017.09514         7.11022         6.72442
     2017.09787         8.92599         6.96350
     2017.10061         7.44676         6.85031
     2017.10335         1.91153         6.79949
     2017.10609         5.91930         6.99469
     2017.10882        10.17807         7.00277
     2017.11156         4.43084         7.09518
     2017.11431        -4.08540         7.01317
     2017.11704         0.85538         7.14022
     2017.11978        -1.62185         7.25572
     2017.12251        -7.27808         6.95426
     2017.12525         2.95269         7.02703
     2017.12799        10.34646         6.91499
     2017.13073         5.89123         6.91499
     2017.13347         3.45300         6.82028
     2017.13620         9.28777         6.77177
     2017.13894         4.27554         6.94271
     2017.14168        -3.35069         7.22569
     2017.14442         7.07408         6.97274
     2017.14715        -4.21115         7.22338
     2017.14989         5.42962         6.92654
     2017.15263         5.43539         7.02010
     2017.15537         9.10316         6.81913
     2017.15811         3.30393         6.93694
     2017.16084         1.91170         7.07669
     2017.16358       -10.03053         7.76161
     2017.16632         5.07824         7.00393
     2017.16906        -2.88699         7.07554
     2017.17180        -7.16022         7.02241
     2017.17453         5.74354         6.90229
     2017.17727        10.18131         6.78794
     2017.18001        10.16508         6.90460
     2017.18275         7.50085         6.83761
     2017.18548        -3.20038         7.63803
     2017.18822         3.41039         7.18527
     2017.19096         4.35816         6.90229
     2017.19370         2.74193         7.34119
     2017.19644         6.29270         7.56295
     2017.19917        -0.09553         6.83761
     2017.20191         5.30924         7.24417
     2017.20465        -1.45799         6.92885
     2017.20739         4.94378         6.98545
     2017.21013         3.28155         6.78794
     2017.21286         0.71532         6.86995
     2017.21560        -0.45991         6.44953
     2017.21834        -0.85714         7.10788
     2017.22108        -3.53437         6.63202
     2017.22655        -0.01483         7.15870
     2017.22929        -2.73006         6.85840
     2017.23203        -1.94229         7.22800
     2017.23477        -1.63752         6.97505
     2017.23750        -6.23775         6.91384
     2017.24024       -15.25198         7.07323
     2017.24298        -6.74221         6.68977
     2017.24572        -3.55044         6.75791
     2017.24846       -10.41967         6.63779
     2017.25119       -10.40490         6.66436
     2017.25393        -0.26413         7.28691
     2017.25667         0.71864         6.78101
     2017.25941       -11.08859         6.61238
     2017.26214        -3.97482         7.29384
     2017.26488         0.54795         6.76253
     2017.26762        -2.46728         6.90691
     2017.27036        -4.32151         6.67706
     2017.27310        -7.16474         7.07323
     2017.27583        -9.87197         7.24186
     2017.27857       -16.90220         6.91615
     2017.28131        -0.25243         7.00855
     2017.28405       -15.16166         7.53870
     2017.28679        -3.88389         6.73481
     2017.28952        -9.55312         6.48533
     2017.29226       -14.10035         6.75907
     2017.29500        -5.87358         6.72211
     2017.29774        -1.54881         7.69809
     2017.30047         0.37496         7.23031
     2017.30321        -7.16027         6.56734
