# ================= DQRFIT RESULTS ================
# INPUT FILE: series/BNDM.rad
# OUTPUT: LDETRENDED
# FILTER FUNCTION: f(t)
# f(t)=+line(t)+annual(t)
# line(t)=+P 1+P 2*t
# annual(t)=+P 3*sin(2*pi*t+P 4)
# heav(t)=(t<0?0:1)
# TOTAL OBSERVATIONS MTOT= 1790
# INITIAL TIME INTERVAL= 2022.7488 - 2016.3587 =  6.3901
# TOTAL OBSERVATIONS AFTER PREFILTER M= 1787
# TIME-SPAN= 2022.7488 - 2016.3587 =  6.3901
# OBSERVATIONS: USED M=  1787 REJECTED MTOT-M=     3 %USED=   99.8324
# N=  4 PARAMETERS
# MAXSIG= 175.00000
# MAXRES=  23.73964
# SCALE FACTOR FOR LENGTHS: SCL=  10.00000
# SCALE FACTOR FOR SIGMAS: SCLSIG=   1.00000
# CHI^2=   1564.344 DOF=  1783 CHI^2/DOF=   0.87737
# RMS=      5.401 SDEV=      5.403 MEAN=   -0.04322
#  P #       PARAMETER +-    SIGMA %error PARAMETER NAME
# P 1 =       507.01048 +-  122.976  24.26 YZERO                              
# P 2 =        -0.25038 +-    0.061  24.32 SLOPE                              
# P 3 =         4.44515 +-    0.177   3.97 ANNUAL AMPLITUDE                   
# P 4 =         3.08782 +-    0.056   1.82 ANNUAL PHASE                       
#       T            LDETRENDED       SIG_OBS
     2016.35865        -5.30975         5.48706
     2016.36139        -5.32007         5.29411
     2016.36413         0.58562         5.06930
     2016.36687         3.32830         5.18358
     2016.36966         8.97100         5.45803
     2016.37240         8.57169         5.25008
     2016.37514         1.26837         5.37279
     2016.37782        -5.88396         5.37653
     2016.38056        -0.40727         5.69126
     2016.38329         1.87041         5.20231
     2016.38603        -1.35590         5.41025
     2016.38877         7.52079         5.40651
     2016.39162        -0.31750         5.37279
     2016.39425        -1.73784         4.93255
     2016.39698         3.73184         4.91850
     2016.39972         4.24053         4.96721
     2016.40246        -1.33979         5.04495
     2016.40822        -2.64034         5.63037
     2016.41438        -8.09380         9.73490
     2016.41615        -5.47636         4.98313
     2016.41889        -5.92867         5.01779
     2016.42162         2.02101         5.01217
     2016.42436        -4.34230         4.94566
     2016.42710         1.90238         4.96065
     2016.42984        -3.38893         4.99718
     2016.43258         2.11375         5.00093
     2016.43531         6.72644         5.36529
     2016.43805         3.60912         4.97657
     2016.44079        -1.05219         5.03371
     2016.44353        -5.24950         4.97938
     2016.44626        -2.42282         4.95690
     2016.44900        -1.15513         5.05619
     2016.45174         3.94055         5.01966
     2016.45448         3.62124         4.96814
     2016.45722        -0.90108         4.98032
     2016.45995         2.64661         4.99062
     2016.46269         2.56529         5.02903
     2016.46543        -1.43002         4.91569
     2016.46822         1.31368         5.05525
     2016.47096         3.29137         5.17983
     2016.47370         3.07405         5.08335
     2016.47644         9.67674         5.29036
     2016.47918         5.12342         5.17047
     2016.48191        -0.01589         5.04308
     2016.48465         4.05379         5.06462
     2016.48739         1.18648         5.75589
     2016.49013         2.93516         5.08523
     2016.49287         1.91385         5.07586
     2016.49560         3.23053         5.05057
     2016.49828         3.78921         5.02060
     2016.50102         7.84589         5.01217
     2016.50376         4.70458         5.16203
     2016.50650         1.21326         5.15079
     2016.50924         6.37795         4.97470
     2016.51197        -1.86837         4.99999
     2016.51477        10.27933         5.09928
     2016.51751         3.15102         5.20231
     2016.52024        -0.40530         5.72592
     2016.52298         1.73039         5.31378
     2016.52572         6.05108         5.10209
     2016.52846         5.01476         5.14049
     2016.53120        -0.01755         5.00093
     2016.53393         0.94613         5.08429
     2016.53667        -0.54018         5.04776
     2016.53941         3.48050         5.02809
     2016.54215         8.03119         5.08523
     2016.54488         6.79087         5.28006
     2016.54762         0.82256         5.10771
     2016.55036         0.55624         5.13862
     2016.55310         9.51893         5.15079
     2016.55584         6.70762         5.27444
     2016.55852         1.13329         5.45428
     2016.56131         5.50899         5.09553
     2016.56405         4.65267         5.06462
     2016.56679         6.58436         5.25196
     2016.56953         4.81904         5.22292
     2016.57226        10.78173         5.07867
     2016.57500         9.37041         5.21824
     2016.57774        17.17610         5.16391
     2016.58048         9.17279         5.12176
     2016.58321         2.13047         4.98594
     2016.58595         4.33116         5.06649
     2016.58869         3.96384         5.04776
     2016.59137         0.28351         4.97189
     2016.59411         9.69920         5.14611
     2016.59685         7.14388         5.09272
     2016.59958         7.21557         5.06837
     2016.60232         9.23826         5.02809
     2016.60506         8.71694         5.01498
     2016.60780         3.29563         5.04870
     2016.61054         5.93631         4.98594
     2016.61327         5.97000         4.98688
     2016.61601         0.10668         4.98032
     2016.61875         8.75037         5.00936
     2016.62149         6.74805         5.00467
     2016.62423         7.53674         5.15829
     2016.62696         8.91442         4.95503
     2016.62970         4.58111         4.99437
     2016.63244         4.30180         5.01779
     2016.63518         7.65148         4.93068
     2016.63791        14.96617         4.97938
     2016.64065        16.71585         5.02153
     2016.64339        10.48154         5.50111
     2016.64613         5.27622         4.98594
     2016.64887         1.54291         5.73809
     2016.65160         7.29759         5.08242
     2016.65434         4.40928         4.99531
     2016.65708         9.07397         5.00748
     2016.65982         3.14165         4.97657
     2016.66256         6.17534         5.14143
     2016.66529         9.86602         4.98313
     2016.66803         7.28671         5.03652
     2016.67077        10.00439         5.09553
     2016.67351         8.40708         4.97751
     2016.67624         9.13876         4.91944
     2016.67898        10.25445         5.10677
     2016.68172         7.89513         4.97002
     2016.68446         7.63782         5.23229
     2016.68720         5.21451         5.23041
     2016.68993        10.77619         5.11239
     2016.69267         7.29488         4.89508
     2016.69541        13.90956         4.97564
     2016.69815        13.31825         4.96721
     2016.70089        10.55893         4.89414
     2016.70362        10.18262         5.00936
     2016.70636         8.72130         5.18826
     2016.70910        12.27499         5.15360
     2016.71184        15.51568         4.96440
     2016.71457        17.90836         5.21543
     2016.71731         8.37105         4.99905
     2016.72005        18.00473         5.00186
     2016.72279        13.61742         4.88103
     2016.72553        11.64710         5.03371
     2016.72826        14.31479         5.06837
     2016.73100         6.74047         4.93817
     2016.73374         2.81916         4.90820
     2016.73648        11.30684         4.91569
     2016.73921        10.60853         4.91007
     2016.74195         9.53222         4.91756
     2016.74469         5.15190         4.92974
     2016.74743         9.16459         5.00936
     2016.75000        13.02523         5.33719
     2016.77481         9.66144         5.01498
     2016.77754         7.60513         4.89508
     2016.78028         8.27481         4.94660
     2016.78302        10.91850         5.02341
     2016.78576        16.20318         5.07118
     2016.78850        21.03287         5.03277
     2016.79123        11.43755         5.03465
     2016.79397        13.35224         5.17328
     2016.79677         6.98694         5.08429
     2016.79945         1.10461         4.96908
     2016.80219        11.23530         5.09740
     2016.80492        10.49998         5.14049
     2016.80766         5.83967         5.07867
     2016.81040         4.32735         5.02434
     2016.81314         9.03504         5.08429
     2016.81587         9.05972         5.06930
     2016.81856         2.25240         5.11707
     2016.82135         6.67110         4.98126
     2016.82409         4.40078         5.48332
     2016.82683         7.49947         4.99531
     2016.82956         4.33615         4.93817
     2016.83230         5.69684         5.05525
     2016.83504         3.64952         4.91569
     2016.83778         0.55921         4.96346
     2016.84052         0.95089         4.93068
     2016.84325         2.94958         4.95316
     2016.84599         5.08126         4.95222
     2016.84873         3.81995         5.01685
     2016.85147         5.61364         4.95784
     2016.85420         3.75632         5.02622
     2016.85694        10.52701         4.93161
     2016.85968         4.77769         5.10864
     2016.86242         7.94638         4.94285
     2016.86516         9.11706         5.02809
     2016.86789         6.29275         4.97002
     2016.87063        10.91143         5.02434
     2016.87337        11.43312         5.06368
     2016.87611         3.70681         4.92880
     2016.87885         4.45449         4.92787
     2016.88158        -1.97282         4.91475
     2016.88432         3.49286         5.00467
     2016.88706         8.82155         4.98407
     2016.88980         6.70923         4.94285
     2016.89253         4.08992         4.96065
     2016.89527         5.35360         4.99343
     2016.89801         7.89129         4.93817
     2016.90075        -0.59203         5.01591
     2016.90349         6.95266         5.07961
     2016.90622         8.93535         5.04963
     2016.90896         8.70903         4.98126
     2016.91170         4.13172         4.92693
     2016.91444         0.88740         4.97002
     2016.91718         0.83209         5.25196
     2016.91991        -3.79923         5.06087
     2016.92265         2.70146         5.01217
     2016.92539         4.73114         4.95597
     2016.92813        -1.55717         4.92880
     2016.93086        -1.65248         4.91007
     2016.93360         3.40720         5.52734
     2016.93634         3.07489         5.05619
     2016.93908        -9.01243         5.19295
     2016.94182        13.74626         5.04027
     2016.94455        -3.36306         4.99812
     2016.94729        -1.20937         5.03184
     2016.94998        -1.52270         5.17421
     2016.95277         3.09600         5.13206
     2016.95551        -1.34932         5.17140
     2016.95824         2.30037         5.20138
     2016.96098        -2.47594         5.11426
     2016.96372        -0.29926         5.12550
     2016.96646        -0.54057         5.08242
     2016.96919         4.85911         5.23978
     2016.97193        -2.84320         4.99250
     2016.97467         2.90048         5.01966
     2016.97741        11.37117         5.05244
     2016.98015        12.98985         4.98032
     2016.98288         4.30154         5.01029
     2016.98562         1.25323         4.99156
     2016.98836         7.36391         5.01779
     2016.99110         0.73160         4.99812
     2016.99384         7.32328         5.00748
     2016.99657         9.21597         5.04870
     2016.99931         4.57965         4.93068
     2017.00088        11.59505        14.31900
     2017.00479         2.31502         4.90820
     2017.00690        -5.52045         7.04663
     2017.01026        -4.07361         4.94473
     2017.01300         1.99408         4.93536
     2017.01574        -4.76623         4.94285
     2017.01848        -1.90555         4.92506
     2017.02121         7.60014         4.98594
     2017.02395         6.09682         5.06556
     2017.02669         8.88051         5.06087
     2017.02943        -1.21481         5.03184
     2017.03216        -5.39912         4.92318
     2017.03490        -5.12644         4.95690
     2017.03764        -5.69775         4.98407
     2017.04038        -2.99506         4.95878
     2017.04312        -0.61238         4.98781
     2017.04585        -2.72669         5.15267
     2017.04859         5.27699         5.25102
     2017.05133         8.11568         4.96159
     2017.05281        12.06705        19.75267
     2017.06616        -4.70461        12.79315
     2017.06776        -4.89721         4.98594
     2017.07049        -3.73152         4.92225
     2017.07323        -9.77284         4.95316
     2017.07580       -13.13620         5.30254
     2017.08145        -9.95578         5.00842
     2017.08418        -6.44310         4.97189
     2017.08692        -1.36141         4.96627
     2017.08966        -3.28473         5.02903
     2017.09240        -4.84904         4.96440
     2017.09514        12.25165         5.15735
     2017.09787         2.35633         5.03465
     2017.10061         7.60502         4.97657
     2017.10335         6.00070         5.07961
     2017.10609         2.94039         5.06837
     2017.10882         3.73907         5.09178
     2017.11156        -2.86624         5.03839
     2017.11430        -6.92256         4.95316
     2017.11704       -11.07887         5.10864
     2017.11978        -9.27118         5.00093
     2017.12251        -9.88650         5.01498
     2017.12531        -2.20680         5.24727
     2017.12805         2.65889         5.12925
     2017.13078         2.35357         5.09366
     2017.13347         3.92324         4.98875
     2017.13620         2.71193         5.07211
     2017.13894        -0.92239         5.05057
     2017.14168        -3.21470         4.99437
     2017.14442        -5.68302         5.05338
     2017.14715        -9.90433         4.98407
     2017.14989        -6.94564         4.96065
     2017.15263        -4.68396         5.07399
     2017.15537        -7.15327         5.01123
     2017.15811        -2.47659         5.09272
     2017.16084        -1.17090         5.02715
     2017.16358       -10.49522         5.09366
     2017.16632        -8.12553         5.12176
     2017.16911        -7.95583         5.13581
     2017.17168        -3.47219         5.51329
     2017.17727        -4.64479         5.10115
     2017.18001        -2.11110         5.02809
     2017.18275       -10.10242         5.23603
     2017.18548        -0.99173         5.05244
     2017.18822       -13.77705         5.06462
     2017.19096        -5.55836         5.10771
     2017.19370        -8.34668         5.06649
     2017.19644        -7.23199         5.02434
     2017.19917         5.08869         5.01591
     2017.20191         0.34838         5.04589
     2017.20465        -3.32493         5.13112
     2017.20739        -6.99525         5.04027
     2017.21013        -2.32656         5.02247
     2017.21286        -3.56188         5.04027
     2017.21560        -5.66719         5.08804
     2017.21834        -3.27551         5.14798
     2017.22108        -0.40182         4.99718
     2017.22381        -6.91714         5.06368
     2017.22655         5.44755         5.16391
     2017.22929        -7.36776         5.00467
     2017.23203        -2.38608         5.00842
     2017.23477        -5.92939         5.07024
     2017.23750        -9.43871         4.99437
     2017.24024        -6.38302         5.00748
     2017.24298        -6.59734         4.97470
     2017.24572        -5.53065         5.06462
     2017.24823       -13.64902         5.43180
     2017.25393        -8.75660         4.97189
     2017.25667        -9.35291         4.94660
     2017.25941       -13.62422         5.07211
     2017.26186        -3.57661         5.57979
     2017.26579         3.76138         9.14011
     2017.26762        -5.80617         4.99999
     2017.27036        -4.08648         4.96721
     2017.27310       -11.50780         5.10490
     2017.27566       -10.38115         5.35405
     2017.29312        -6.63778         8.35986
     2017.29500        -6.85731         7.84375
     2017.29871        -8.96738         9.65622
     2017.30047       -11.40994         5.03277
     2017.30321        -8.64626         5.01498
     2017.30595        -9.37457         5.02715
     2017.30851       -13.44093         5.44491
     2017.33145       -15.00419         8.60526
     2017.33205       -15.40703        38.22210
     2017.34280       -11.92034       124.31596
     2017.34428       -11.39497         6.57267
     2017.34702       -13.37529         6.84150
     2017.34976       -11.32760         7.02509
     2017.35250       -19.10692         6.44809
     2017.35524       -18.75923         7.05225
     2017.35797       -21.91955         6.81902
     2017.36071        -9.76186         7.00073
     2017.36345       -14.80517         6.89864
     2017.36619       -13.87849         6.74221
     2017.36893       -10.08080         7.47750
     2017.37166       -23.41612        18.02076
     2017.37440       -12.70143         7.31546
     2017.37713       -11.81875         7.12719
     2017.37987       -16.56806         7.01947
     2017.38261       -10.41638         4.99999
     2017.38529        -9.47971         5.12738
     2017.38880       -13.25683       110.43533
     2017.39079        -3.58233        97.94191
     2017.39656       -20.50588        97.35086
     2017.39879        -6.31233       133.12168
     2017.40187       -51.19956       127.94466
     2017.41085         5.89669         8.98181
     2017.41253         1.74112         9.54194
     2017.42094        -5.03778         6.72160
     2017.42368       -11.45009         6.10527
     2017.42642        -0.75941         6.73846
     2017.42916        -3.84272         6.31790
     2017.43189        -3.37904         6.28792
     2017.43463        -1.48035         6.27949
     2017.43702         2.78725         7.80440
     2017.44663       -17.96635        11.33006
     2017.44832        -1.58392         4.96346
     2017.45191         0.15898         8.63149
     2017.45379         1.05545         5.11239
     2017.45653        -2.03487         5.20044
     2017.45927        -7.41018         4.96908
     2017.46201        -2.30750         4.95409
     2017.46475        -1.39081         5.02153
     2017.46748       -10.50013         5.27444
     2017.47022        -5.35144         4.97938
     2017.47296        -3.80476         4.98219
     2017.47570        -6.58307         4.96908
     2017.47843        -6.09138         4.94941
     2017.48117        -7.16270         4.94004
     2017.48391        -2.63701         5.06743
     2017.48665         7.17267         5.07961
     2017.48939        -8.75664         5.04214
     2017.49212        -5.59996         4.93161
     2017.49486        -3.55527         4.96627
     2017.49760        -5.05859         4.92412
     2017.50034        -2.22890         4.97657
     2017.50308         2.03479         4.95971
     2017.50581        -1.07853         5.00467
     2017.50855        -8.06384         4.97751
     2017.51129        -3.33416         5.02996
     2017.51403        -7.67747         5.04120
     2017.51676        -5.35879         4.96346
     2017.51950        -2.97910         4.96440
     2017.52224         2.09558         5.04495
     2017.52498        -1.60673         4.89040
     2017.52772        -1.02204         5.05713
     2017.53045        -8.87236         4.97283
