# ================= DQRFIT RESULTS ================
# INPUT FILE: series/BPEB.rad
# OUTPUT: LDETRENDED
# FILTER FUNCTION: f(t)
# f(t)=+line(t)+annual(t)
# line(t)=+P 1+P 2*t
# annual(t)=+P 3*sin(2*pi*t+P 4)
# heav(t)=(t<0?0:1)
# TOTAL OBSERVATIONS MTOT= 1274
# INITIAL TIME INTERVAL= 2022.7488 - 2019.0007 =  3.7481
# TOTAL OBSERVATIONS AFTER PREFILTER M= 1259
# TIME-SPAN= 2022.7488 - 2019.0007 =  3.7481
# OBSERVATIONS: USED M=  1259 REJECTED MTOT-M=    15 %USED=   98.8226
# N=  4 PARAMETERS
# MAXSIG= 175.00000
# MAXRES=  18.38221
# SCALE FACTOR FOR LENGTHS: SCL=  10.00000
# SCALE FACTOR FOR SIGMAS: SCLSIG=   1.00000
# CHI^2=   1579.158 DOF=  1255 CHI^2/DOF=   1.25829
# RMS=      6.086 SDEV=      6.088 MEAN=    0.00389
#  P #       PARAMETER +-    SIGMA %error PARAMETER NAME
# P 1 =     -8916.56895 +-  313.656   3.52 YZERO                              
# P 2 =         4.42656 +-    0.155   3.51 SLOPE                              
# P 3 =         1.85478 +-    0.241  12.97 ANNUAL AMPLITUDE                   
# P 4 =         2.85940 +-    0.176   6.14 ANNUAL PHASE                       
#       T            LDETRENDED       SIG_OBS
     2019.00068        -4.27340         6.14375
     2019.00342        -3.31952         6.18750
     2019.00616         4.94736         6.03831
     2019.00889        11.33625         6.03494
     2019.01163        -7.70987         6.02036
     2019.02258         7.03865         6.04504
     2019.02532         4.49653         6.12580
     2019.02806         1.80741         6.08093
     2019.03080        -1.52771         6.18974
     2019.03353        -2.16083         6.06299
     2019.03627        -7.28395         5.95979
     2019.03901         4.90793         5.96091
     2019.04175        -0.48119         5.97773
     2019.04449        -0.67231         6.02933
     2019.04722         6.50058         6.17740
     2019.04996         0.61846         6.23012
     2019.05270        -9.47666         6.27499
     2019.05544         2.63522         6.09215
     2019.05817         3.00910         6.24583
     2019.06091         9.13798         6.09103
     2019.06365         8.17186         6.11010
     2019.06639         5.97674         6.13814
     2019.06913         8.55462         6.15833
     2019.07186        10.26650         6.19872
     2019.07460        -2.44362         6.02597
     2019.07734         2.00226         6.00241
     2019.08008         1.96614         6.03606
     2019.08282         2.36003         6.37483
     2019.08555         5.76291         5.97661
     2019.08829        -2.37321         5.99680
     2019.09103         1.65767         5.98110
     2019.09377         3.33655         5.98559
     2019.09650         5.82343         5.97549
     2019.09924         5.10431         5.97773
     2019.10198        -1.22981         6.00914
     2019.10472         3.52507         6.00241
     2019.10746        -3.55505         5.98559
     2019.11019        -0.67317         5.98446
     2019.11293        -0.11229         6.07196
     2019.11567         4.18159         6.26153
     2019.11841        10.94148         5.95193
     2019.12115         9.62736         6.14824
     2019.12388         0.17124         6.12132
     2019.13210         0.33788         5.97998
     2019.13483       -27.33524         6.09776
     2019.13757       -12.37836         6.03606
     2019.14031        -0.70048         5.97661
     2019.14305       -16.39860         6.01363
     2019.14579       -15.55372         6.00802
     2019.14852       -10.40984         6.07757
     2019.15126        -4.82996         6.02036
     2019.15400        -8.43708         5.99793
     2019.15674        -9.32019         5.94745
     2019.15948        -7.46931         6.02597
     2019.16221       -11.91043         6.13926
     2019.16495        -7.78255         6.02597
     2019.16769        -9.32267         6.01699
     2019.17043       -10.22579         5.99120
     2019.17316        -7.43491         5.94969
     2019.17590        -5.84703         6.00578
     2019.17864        -6.38715         6.02485
     2019.18138        -8.01427         6.06411
     2019.18412       -16.47239         6.01026
     2019.18685       -10.00551         5.89473
     2019.18959        -5.00363         6.06074
     2019.19233        -9.69874         6.04279
     2019.19507        -8.80086         6.08430
     2019.19780        -9.27898         6.07533
     2019.20054        -5.16610         6.12580
     2019.20328        -8.51422         6.02709
     2019.20602        -7.47734         6.02260
     2019.20876       -10.67546         6.00353
     2019.21149        -7.28358         6.00466
     2019.21423        -5.34570         5.97549
     2019.21697        -9.10582         5.93960
     2019.21971        -5.98094         6.22564
     2019.22245        -5.53106         6.01699
     2019.22518        -7.52318         5.98895
     2019.22792       -10.75330         5.95193
     2019.23066        -9.80341         5.94184
     2019.23340        -5.95153         5.88800
     2019.23613       -12.32365         5.99680
     2019.23887        -5.22677         5.96540
     2019.24161       -10.84889         6.18077
     2019.24435        -5.70901         6.07308
     2019.24709        -7.12713         6.01475
     2019.24982        -4.20025         5.99680
     2019.25256        -0.03537         6.10337
     2019.25530        -5.39049         5.91380
     2019.25804        -2.63361         6.10225
     2019.26078         2.56727         6.00802
     2019.26351         0.40315         6.07869
     2019.26625        -6.59196         5.95979
     2019.26899        -0.25208         6.00466
     2019.27173       -17.19320         6.25368
     2019.27446        -1.64432         5.93062
     2019.27720         2.47456         6.07084
     2019.27994        -2.06856         5.99232
     2019.28268         0.07632         5.97549
     2019.28542        -1.43380         6.00353
     2019.29089         4.41596         5.96876
     2019.29363         1.42484         5.99456
     2019.29637         5.82672         6.04279
     2019.29911         1.44960         5.94408
     2019.30184        -2.34652         6.03158
     2019.30458        -5.15563         6.04167
     2019.30732         1.15425         5.93062
     2019.31006         5.12413         6.01139
     2019.31279        -0.14999         6.03046
     2019.31553         7.11789         5.96652
     2019.31827         1.74077         5.98895
     2019.32101        -0.10435         5.94408
     2019.32375       -12.27247         5.96540
     2019.32648        -2.22359         5.88912
     2019.32922        -2.69871         5.95754
     2019.33196         2.07617         6.14375
     2019.33470         7.75505         6.04616
     2019.33744         4.83593         6.00802
     2019.34017         5.25882         5.96652
     2019.34291        -3.93730         5.95081
     2019.34565        -5.17542         6.07533
     2019.34839         1.67046         6.07308
     2019.35112        -7.70366         5.95081
     2019.35386        -3.40178         5.93960
     2019.35660        -1.69490         5.96764
     2019.35934        -0.60402         6.00129
     2019.36208         1.10986         5.94745
     2019.36481         1.45874         5.97773
     2019.36755         0.32162         5.94520
     2019.37029        -2.31150         5.95866
     2019.37303         5.40538         5.96203
     2019.37577         1.73126         6.12244
     2019.37850        -3.15285         5.97325
     2019.38124        -0.53997         5.96091
     2019.38398        -0.98309         5.96315
     2019.38672        -3.64821         5.92726
     2019.38945        -3.57333         6.02597
     2019.39219         4.92955         6.08766
     2019.39493        -4.14157         6.02933
     2019.39767        -3.33669         5.96652
     2019.40041        -4.58281         5.94633
     2019.40314         1.53807         5.94520
     2019.40588         1.52595         5.93960
     2019.40862        -0.28317         5.94633
     2019.41136        -2.55329         5.98110
     2019.41410         0.75860         6.03382
     2019.41683         2.49648         6.01363
     2019.41957         5.18636         5.96876
     2019.42231         3.32124         5.97100
     2019.42505        -2.38988         6.06074
     2019.42778         2.45900         6.22227
     2019.43052         6.22088         5.98446
     2019.43326        -1.44924         5.94857
     2019.43600        -1.32436         6.01924
     2019.43874        -0.63948         6.11346
     2019.44147        -8.25460         6.04728
     2019.44421        -6.62072         6.09888
     2019.44695        -8.33984         6.06972
     2019.44969        -2.48695         6.09215
     2019.45243        -2.00107         6.10000
     2019.45516         1.24981         6.04953
     2019.45790        -4.26431         6.09888
     2019.46064        -2.23343         6.10898
     2019.46338        -2.92055         6.34903
     2019.46611         6.76233         6.38717
     2019.46885         0.17021         6.23686
     2019.47159        -0.11191         6.06747
     2019.47433         3.67997         6.06299
     2019.47707         4.65685         6.05401
     2019.47980        -0.77027         6.09215
     2019.48254        -4.52939         6.10673
     2019.48528        -6.22751         6.07981
     2019.48802        -6.83462         6.07869
     2019.49076        -2.96074         5.99007
     2019.49349        -2.40886         5.99905
     2019.49623        -3.48098         5.99232
     2019.49897        -3.30510         5.95530
     2019.50171        -0.83322         5.94633
     2019.50444        -0.32234         5.98783
     2019.50718        -0.54346         5.99344
     2019.50992        -1.00658         5.98110
     2019.51266        -0.35470         6.01699
     2019.51540         2.49118         5.96876
     2019.51813       -10.45594         6.00241
     2019.52087        -2.32306         6.05289
     2019.52361        -3.18317         5.97886
     2019.52635        -9.07629         5.97661
     2019.52908         2.63359         6.25705
     2019.53182        -3.93053         6.10000
     2019.53456        -8.50765         6.07420
     2019.53730         3.47223         6.12917
     2019.54004        -1.03689         6.21779
     2019.54277         6.27099         6.16619
     2019.54551         1.74487         6.32772
     2019.54825         0.51375         5.95081
     2019.55099        -3.62237         6.00353
     2019.55373        -3.46949         6.17067
     2019.55646         2.81739         6.08766
     2019.55920        -5.38173         6.24695
     2019.56194       -10.19784         6.12132
     2019.56468        -4.95496         6.19759
     2019.56741        -1.61908         5.96876
     2019.57015         0.33980         5.97213
     2019.57289         1.05068         6.07757
     2019.57563        -1.42944         6.02485
     2019.57837         0.32944         6.12693
     2019.58110         1.51932         5.92950
     2019.58384        -3.10080         6.13366
     2019.58658        -2.41292         5.92950
     2019.58932         0.10096         5.94408
     2019.59206         1.44384         6.05177
     2019.59479        -0.76128         5.93847
     2019.59753         0.69561         6.17404
     2019.60027        -0.45051         6.18750
     2019.60301        -3.56163         5.93062
     2019.60574         0.88625         6.21666
     2019.60848        -2.99287         6.25480
     2019.61122        -0.01699         6.07308
     2019.61396         4.83589         6.06747
     2019.61670         2.70777         6.05177
     2019.61943        -2.81735         5.97100
     2019.62217        -0.58247         6.24919
     2019.62491         0.67241         6.06635
     2019.62765         6.09029         5.99007
     2019.63039         6.89317         6.01587
     2019.63312        -2.49295         6.07533
     2019.63586         8.05694         6.17292
     2019.63860         2.52382         6.01363
     2019.64134         0.15070         6.31426
     2019.64407        -1.28742         6.04392
     2019.64681         1.81746         6.02260
     2019.64955        -4.17566         6.00129
     2019.65229         0.21522         6.00802
     2019.65503         0.53610         6.18638
     2019.65776        -5.03202         6.09103
     2019.66050        -5.44614         6.20208
     2019.66324        -0.89026         6.26490
     2019.66598        -2.02838         6.03494
     2019.66872        -0.20750         5.97100
     2019.67145        -7.10761         5.98783
     2019.67419        -4.45273         6.01363
     2019.67693        -2.76685         6.19423
     2019.67967        -1.02097         6.15721
     2019.68240        -8.98109         6.07308
     2019.68514         0.76679         6.01139
     2019.68788        -0.47833         6.08879
     2019.69062        -1.57545         6.03831
     2019.69336        -2.94557         5.99905
     2019.69609         1.49431         6.28172
     2019.69883         1.84719         6.04953
     2019.70157        -7.71693         6.25032
     2019.70431         1.45895         5.98783
     2019.70705        -6.78017         5.95306
     2019.70978         2.59272         6.03606
     2019.71252        -6.40240         5.93960
     2019.71526        -4.06752         6.02036
     2019.71800        -3.25664         6.24022
     2019.72073        -8.94076         6.27836
     2019.72347        -1.72188         6.29967
     2019.72621         5.33800         6.13141
     2019.72895         4.14488         6.03270
     2019.73169         8.99076         6.02036
     2019.73442         5.41864         6.13926
     2019.73716         3.81852         6.01587
     2019.73990        -0.66060         6.18189
     2019.74264        -2.84672         6.05513
     2019.74538        -3.66683         5.95642
     2019.74811        -1.55495         6.12805
     2019.75085        -2.41207         6.18638
     2019.75359         5.92681         6.18974
     2019.75633         3.59169         6.06299
     2019.75906         4.46557         5.93511
     2019.76180         2.43245         6.08093
     2019.76454         7.32733         6.11907
     2019.76728         3.80621         5.97325
     2019.77002        -1.33591         5.94969
     2019.77275        -0.43703         6.20657
     2019.77549        -3.29815         6.15048
     2019.77823         1.19273         6.03270
     2019.78097         1.11162         5.97549
     2019.78371        -0.50050         5.92950
     2019.78644        -2.86162         6.13366
     2019.78918         2.68526         6.05850
     2019.79192         5.17114         6.16170
     2019.79466         7.48702         6.02597
     2019.79739         4.42990         5.97661
     2019.80013         9.68878         6.02709
     2019.80287         5.50966         6.06635
     2019.80561        10.97954         6.09103
     2019.80835         1.54642         6.05850
     2019.81108         3.93330         6.23910
     2019.81382        12.62618         6.16619
     2019.81656         3.94606         5.96315
     2019.81930         0.40895         5.96988
     2019.82203         0.96083         6.02036
     2019.82477        -5.02629         6.02597
     2019.82751        -2.84141         5.96203
     2019.83025         3.94847         6.07645
     2019.83299         1.17235         6.12244
     2019.83572         2.07323         6.10898
     2019.83846         7.27711         6.07196
     2019.84120         4.90199         5.96876
     2019.84394         4.00487         6.09552
     2019.84668        -4.20125         5.97437
     2019.84941         5.88763         6.04167
     2019.85215         3.40951         6.08430
     2019.85489        -0.15160         5.95642
     2019.85763         2.73228         5.91155
     2019.86036        -2.80884         6.01026
     2019.86310         3.11604         6.06635
     2019.86584         6.19092         6.16619
     2019.86858        -0.94420         6.41521
     2019.87132         3.73468         6.07196
     2019.87405         3.90656         6.03719
     2019.87679         2.45944         6.24919
     2019.87953         9.80232         6.02709
     2019.88227        19.96420         5.99905
     2019.88501         9.75508         6.06635
     2019.88774         9.21296         6.27163
     2019.89048        10.84584         5.97325
     2019.89322        13.99773         6.01587
     2019.89596         7.48861         6.14375
     2019.89869        -1.62451         6.04504
     2019.90143         4.56637         5.94745
     2019.90417        -2.51975         6.04279
     2019.90691        -0.92487         6.03382
     2019.90965         0.86701         5.94969
     2019.91238         4.42789         5.96091
     2019.91512         9.10577         5.97549
     2019.91786         8.72865         6.05065
     2019.92060        10.69753         6.02709
     2019.92334         6.10641         6.08206
     2019.92607         3.96529         6.08991
     2019.92881         1.86218         6.04279
     2019.93155         3.87206         6.06859
     2019.93429         7.83094         6.03382
     2019.93702         2.43982         6.02036
     2019.93976         2.80670         6.15385
     2019.94250         1.53058         6.06747
     2019.94524        -2.10154         6.10000
     2019.94798         1.23034         6.04504
     2019.95071         4.37122         6.27836
     2019.95345         3.11310         6.02821
     2019.95619         5.45898         6.09552
     2019.95893         3.48286         6.06411
     2019.96167         6.67074         6.15048
     2019.96440         8.36962         6.21891
     2019.96714        -0.08049         6.21330
     2019.96988        -6.66461         6.10449
     2019.97262       -10.72273         6.03158
     2019.97535        -1.12585         6.03719
     2019.97809       -12.10897         6.09327
     2019.98083        -3.36309         6.00017
     2019.98357        -2.86821         6.06972
     2019.98631         0.96767         6.02036
     2019.98904         4.89855         6.04840
     2019.99178         4.63643         6.02933
     2019.99452         5.69831         5.99680
     2020.00000        14.50307         5.92613
     2020.00273         5.04396         5.99120
     2020.00547         7.69184         6.11122
     2020.00821         1.06172         6.13590
     2020.01095         6.08260         6.10225
     2020.01368         4.61148         6.12019
     2020.01642         6.94836         6.12244
     2020.01916         5.26124         5.97437
     2020.02190        -5.98288         6.09664
     2020.02464       -16.40700         6.21891
     2020.02737         3.07088         5.99568
     2020.03011       -18.16924         5.95866
     2020.03285       -15.66036         5.94969
     2020.03559        -9.89848         5.91267
     2020.03833        -5.22060         5.85210
     2020.04106       -12.55571         6.03382
     2020.04380       -25.15883         6.02373
     2020.04654        -3.85895         5.99456
     2020.04928         2.28493         5.85883
     2020.05201         6.68481         5.90033
     2020.05475        -6.82231         5.91267
     2020.05749         3.66157         5.91940
     2020.06023         2.69145         5.91155
     2020.06297         2.14933         5.89248
     2020.06570         6.62021         5.96988
     2020.06844         6.67409         5.88687
     2020.07118        -2.85203         5.91155
     2020.07392         6.32585         5.91492
     2020.07666         2.27374         5.92726
     2020.07939         6.49862         5.88687
     2020.08761        -0.90474         5.85659
     2020.20260        -5.14775         5.95754
     2020.20533        -3.80087         5.96876
     2020.20807        -0.35199         5.94745
