# ================= DQRFIT RESULTS ================
# INPUT FILE: series/BPKT.rad
# OUTPUT: LDETRENDED
# FILTER FUNCTION: f(t)
# f(t)=+line(t)+annual(t)+jumps(t)
# line(t)=+P 1+P 2*t
# annual(t)=+P 3*sin(2*pi*t+P 4)
# jumps(t)=+P 5*heav(t-2018.0000  )+P 6*heav(t-2019.2902  )
# heav(t)=(t<0?0:1)
# TOTAL OBSERVATIONS MTOT= 2960
# INITIAL TIME INTERVAL= 2022.7488 - 2012.3258 = 10.4230
# TOTAL OBSERVATIONS AFTER PREFILTER M= 2799
# TIME-SPAN= 2021.8590 - 2012.3258 =  9.5332
# OBSERVATIONS: USED M=  2799 REJECTED MTOT-M=   161 %USED=   94.5608
# N=  6 PARAMETERS
# MAXSIG= 175.00000
# MAXRES=  75.07212
# SCALE FACTOR FOR LENGTHS: SCL=  10.00000
# SCALE FACTOR FOR SIGMAS: SCLSIG=   1.00000
# CHI^2=  70288.552 DOF=  2793 CHI^2/DOF=  25.16597
# RMS=     27.331 SDEV=     27.336 MEAN=   -0.00969
#  P #       PARAMETER +-    SIGMA %error PARAMETER NAME
# P 1 =      8757.85385 +-  760.465   8.68 YZERO                              
# P 2 =        -4.33788 +-    0.377   8.70 SLOPE                              
# P 3 =         8.39762 +-    0.730   8.69 ANNUAL AMPLITUDE                   
# P 4 =         2.37751 +-    0.090   3.77 ANNUAL PHASE                       
# P 5 =        71.52536 +-    2.089   2.92 OFFSET 2018.0000                   
# P 6 =       -82.43657 +-    1.879   2.28 OFFSET 2019.2902                   
#       T            LDETRENDED       SIG_OBS
     2012.32580       -21.23850        26.70320
     2012.32854       -13.03962        26.61792
     2012.33128       -15.19675        26.99416
     2012.33401       -15.18087        27.03931
     2012.33675       -17.75699        26.56274
     2012.33949       -17.99512        26.45237
     2012.34223       -21.72724        26.16141
     2012.34496       -25.21836        26.26676
     2012.34770       -19.25149        26.73330
     2012.35044       -19.74261        26.28682
     2012.35318       -16.61674        26.74333
     2012.35592       -15.98186        26.01593
     2012.35873       -19.35663        26.83865
     2012.36139       -15.02211        26.11124
     2012.36413       -15.72623        26.23164
     2012.36687       -16.41535        26.38214
     2012.36961       -17.11848        26.29184
     2012.37234        -9.21960        26.30187
     2012.37508       -15.48172        26.31692
     2012.37782       -15.48285        26.84366
     2012.38056       -19.83697        26.39217
     2012.38329       -16.20609        26.86875
     2012.38603       -20.85322        27.07944
     2012.38877       -13.39834        27.44064
     2012.39151        -7.72646        26.75838
     2012.39425       -13.03459        26.76340
     2012.39698       -13.39571        27.01423
     2012.39972       -15.33384        26.44735
     2012.40246       -15.47496        26.00088
     2012.40520       -19.49808        26.43732
     2012.40794       -17.14321        26.12629
     2012.41067       -14.04433        26.55270
     2012.41341       -18.54345        26.68313
     2012.41615       -14.49458        26.88380
     2012.41889       -12.52670        27.96737
     2012.42162        -9.94982        26.78346
     2012.42436       -15.02295        26.45237
     2012.42710       -14.59107        26.51759
     2012.42984       -14.27919        26.55772
     2012.43258       -19.82632        26.66808
     2012.43531       -15.05144        26.73832
     2012.43805       -16.74756        26.55772
     2012.44079       -21.67169        27.00921
     2012.44353       -21.45381        26.67812
     2012.44626       -17.84993        27.21991
     2012.44900       -12.99406        26.66808
     2012.45174       -13.16118        26.77845
     2012.45448       -15.58931        26.83865
     2012.45722       -16.17443        26.65805
     2012.45995        -5.20855        28.01754
     2012.46269        -5.13268        26.81858
     2012.46543       -17.61080        26.60287
     2012.46817       -16.45092        26.62795
     2012.47091        -9.87705        26.49250
     2012.47364        -8.13617        27.75166
     2012.47638       -12.46129        27.08446
     2012.47912        -7.68642        26.95403
     2012.48186       -17.22354        26.74333
     2012.48459       -10.48666        26.47244
     2012.48733       -18.44779        26.54769
     2012.49007       -11.02891        26.68313
     2012.49281       -12.17003        26.69818
     2012.49555        -9.87216        26.98413
     2012.49828       -13.74428        26.90386
     2012.50102        -7.42841        26.61792
     2012.50376        -1.40353        27.45067
     2012.50650       -12.50065        26.76841
     2012.50924       -13.37678        27.11957
     2012.51197       -10.76290        27.10954
     2012.51471       -13.91902        26.57277
     2012.51745       -11.56715        27.07443
     2012.52019        -7.20027        27.74163
     2012.52292       -14.09939        27.04934
     2012.52566       -13.36452        26.54267
     2012.52840        -2.45964        27.08446
     2012.53114       -14.69876        28.13292
     2012.53388        -7.28389        27.65133
     2012.53661        -6.05701        27.33027
     2012.53935         4.02387        27.33529
     2012.54209         3.86074        27.32525
     2012.54483        -3.04338        27.30017
     2012.54757        -9.35151        26.62795
     2012.55030        -4.96363        27.45568
     2012.55304        -8.25475        26.63798
     2012.55578        -4.20788        26.93898
     2012.55852        -7.34200        26.79851
     2012.56125        -8.92612        26.40221
     2012.56399        -8.28625        26.53264
     2012.56673        -6.16037        26.93396
     2012.56947        -8.30249        26.99918
     2012.57221        -4.47762        26.90888
     2012.57494        -9.32774        26.68313
     2012.57768        -8.28686        26.79851
     2012.58042        -1.05199        26.79350
     2012.58316       -15.05811        26.67812
     2012.58590        -5.38523        26.60788
     2012.58863        -4.42036        27.49080
     2012.59137        -3.58348        26.83865
     2012.59411        -5.50761        26.91891
     2012.59685         1.44827        27.40552
     2012.59958         0.60415        26.92393
     2012.60232        -7.33598        28.04262
     2012.60506        -5.23910        26.98413
     2012.60780        -6.95222        26.83865
     2012.61054        -3.97435        26.77343
     2012.61327        -3.30447        26.68313
     2012.61601        -0.90559        26.54769
     2012.61875         8.53928        27.11456
     2012.62149        -7.65384        27.26004
     2012.62423         1.29504        26.77343
     2012.62696         3.47691        26.81858
     2012.62970        -8.67121        26.99918
     2012.63244        -2.63333        27.83193
     2012.63518         1.28954        27.13964
     2012.63791        -1.13858        26.92894
     2012.64065         2.78129        26.79851
     2012.64339         2.04317        26.50755
     2012.64613         3.27905        27.02426
     2012.64887        -2.75808        26.79851
     2012.65160         5.55780        27.00921
     2012.65434         2.09668        26.91891
     2012.65708         1.19255        27.80684
     2012.65982        -0.86557        27.49582
     2012.66256        -2.46169        26.65805
     2012.66529         2.85518        26.81356
     2012.66803         3.90506        26.78848
     2012.67077        -5.26006        26.75838
     2012.67351        -2.60019        26.52260
     2012.67624        -1.46631        26.60287
     2012.67898         1.16657        26.79350
     2012.68172        -2.12456        26.85871
     2012.68446        -0.76068        26.54267
     2012.68720         1.05319        26.72327
     2012.68993         5.89007        27.10452
     2012.69267         6.40495        27.76170
     2012.69541        -2.81818        26.92894
     2012.69815        -2.92130        27.18981
     2012.70089        -2.24042        26.82360
     2012.70362        -1.72955        26.82360
     2012.70636         1.62933        26.69818
     2012.70910        -0.49479        26.68815
     2012.71184         2.26008        26.66808
     2012.71457         4.09796        26.78346
     2012.71731         4.38884        26.68815
     2012.72005         1.24971        27.02426
     2012.72279         3.65359        26.33197
     2012.72553         3.94247        26.86875
     2012.72826         2.55734        26.76841
     2012.73100         4.31722        27.26506
     2012.73374         2.70109        27.73661
     2012.73648         0.92197        26.72327
     2012.73921         3.42685        27.15971
     2012.74195         2.59672        27.18981
     2012.74469         1.54260        26.84868
     2012.74743         3.99148        27.15971
     2012.75017         0.11335        27.43562
     2012.75290         7.12823        27.07944
     2012.75564        -1.53589        26.76841
     2012.75838        -1.51402        26.77343
     2012.76112         1.86786        26.71825
     2012.76386         2.15874        26.69317
     2012.76659         5.68361        26.52260
     2012.76933         6.37949        26.90386
     2012.77207         5.09437        27.00921
     2012.77481         1.74424        26.55270
     2012.77754         3.93012        26.22663
     2012.78028        12.29399        26.76340
     2012.78302         4.78287        26.65805
     2012.78576        -4.79325        26.66307
     2012.78850        -3.98738        26.72828
     2012.79123         1.38150        27.76170
     2012.79397        -3.37162        26.69317
     2012.79671         2.53225        26.56775
     2012.79945         2.63513        28.16302
     2012.80219         7.82701        26.92894
     2012.80492        -1.05112        26.88380
     2012.80766         0.71176        26.75337
     2012.81040        -6.54736        26.70320
     2012.81314         0.05651        27.18479
     2012.81587        -4.99661        26.79350
     2012.81861       -12.08073        27.17476
     2012.82135        -3.77386        26.91390
     2012.82409        -8.21098        27.23496
     2012.82683         0.53789        27.25001
     2012.82956        -3.94923        26.84366
     2012.83230        -3.42535        26.99918
     2012.83504       -10.72448        26.87376
     2012.83778        -7.74160        27.00921
     2012.84052       -10.36272        27.71655
     2012.84325        -3.06485        27.20486
     2012.84599        -4.47897        28.34362
     2012.84873        -2.74109        27.45067
     2012.85147        -1.63922        27.65635
     2012.85420         0.18766        27.30017
     2012.85694        -0.10946        27.26004
     2012.85968        -0.74359        27.21489
     2012.86242         0.25929        26.90386
     2012.86516         1.29117        27.05938
     2012.86789        -7.39696        27.77173
     2012.87063        -6.23508        26.82360
     2012.87337        -7.42921        27.32525
     2012.87611        -0.54733        27.28010
     2012.87885         3.27355        27.18479
     2012.88158        -2.12158        26.86373
     2012.88432        -1.21670        26.95403
     2012.88706        -1.74582        27.54598
     2012.88980         6.95405        28.01252
     2012.89253        -5.41707        27.07944
     2012.89527        -1.21219        27.34030
     2012.89801        -4.05032        26.93898
     2012.90075        -4.37444        26.95403
     2012.90349        -4.14856        27.04433
     2012.90622        -2.95769        27.00419
     2012.90896        -0.58581        27.34030
     2012.91170        -3.02393        27.09951
     2012.91444        -0.99206        26.92393
     2012.91718         1.92082        26.93396
     2012.91991         4.35469        26.93898
     2012.92265        -3.86243        26.87878
     2012.92539        -3.98455        27.09951
     2012.92813        -0.03968        26.90888
     2012.93086        -3.80380        27.35034
     2012.93360        -1.06292        27.23496
     2012.93634        -3.63805        26.58782
     2012.93908        -6.91517        27.11456
     2012.94182        -4.29929        26.77845
     2012.94455        -3.84742        26.88380
     2012.94729         2.17746        27.08948
     2012.95003         1.00034        27.31522
     2012.95277         2.89921        26.89383
     2012.95551         4.32609        26.72327
     2012.95824         3.71997        26.55270
     2012.96098        -3.50316        27.36037
     2012.96372         1.96772        26.95403
     2012.96646         0.18659        26.88380
     2012.96919        -3.90153        27.42057
     2012.97193        -3.56265        27.35034
     2012.97467        -6.35678        26.76841
     2012.97741        -1.43990        26.54267
     2012.98015        -5.94302        26.32696
     2012.98288        -5.51515        26.46240
     2012.98562        -2.77827        26.55270
     2012.98836        -3.60439        26.57277
     2012.99110        -4.12352        26.32696
     2012.99384        -6.02264        26.38214
     2012.99657        -4.66176        26.51759
     2012.99931        -5.07089        26.63297
     2013.00205        -5.28501        26.63297
     2013.00479        -7.55913        26.63297
     2013.00752        -7.83826        26.43732
     2013.01026        -6.28038        26.71323
     2013.01300        -6.80251        26.60788
     2013.01574        -7.82363        26.67812
     2013.01848        -7.73975        26.67812
     2013.02121        -7.55588        26.88380
     2013.02395        -8.93400        26.71323
     2013.02669        -3.46112        27.43562
     2013.02943        -4.08925        26.79851
     2013.03216        -8.57037        26.62293
     2013.03490       -13.26549        26.92393
     2013.03764       -12.54062        27.05938
     2013.04038       -13.42974        27.08446
     2013.04312       -15.82286        27.55100
     2013.04585       -13.82899        27.48578
     2013.04859       -11.88411        27.59113
     2013.05133       -11.74323        27.06439
     2013.05407       -10.20536        27.12459
     2013.05681        -8.11848        26.94901
     2013.05954       -10.35661        27.34532
     2013.06228       -10.96673        27.98242
     2013.06502        -8.46885        27.61120
     2013.06776        -6.30398        27.42057
     2013.07049        -6.61510        27.23496
     2013.07323        -6.76422        27.11957
     2013.07597        -7.56335        27.18981
     2013.07871        -4.91847        27.23997
     2013.08145       -11.04559        27.29014
     2013.08418       -13.33672        27.43060
     2013.08692       -12.64784        27.42057
     2013.08966       -14.58496        27.22492
     2013.09240       -10.21509        27.03931
     2013.09514        -7.69921        27.21489
     2013.09787        -0.79833        28.25332
     2013.10061       -10.47146        29.01082
     2013.10335        -6.08758        27.39047
     2013.10609        -7.67071        27.29515
     2013.10882        -8.17883        26.94901
     2013.11156       -12.66495        27.76170
     2013.11430        -8.45308        27.38545
     2013.11704       -14.26520        27.67641
     2013.11978       -13.29032        28.40382
     2013.12251       -14.39545        27.37040
     2013.12525       -16.52557        27.06439
     2013.12799       -10.99269        27.74163
     2013.13073        -7.41582        27.55100
     2013.13347        -7.72494        27.41555
     2013.13620        -3.80806        27.66638
     2013.13894        -5.86919        27.31522
     2013.14168        -0.59431        27.69648
     2013.14442        -6.28643        28.53926
     2013.14715        -3.92356        28.74494
     2013.14989       -14.48068        27.30017
     2013.15263        -9.47880        27.39047
     2013.15537       -18.28193        27.04433
     2013.15811       -11.54105        27.43562
     2013.16084       -17.43118        27.32525
     2013.16358       -12.22630        27.42559
     2013.16632       -19.25942        27.09951
     2013.16906        -6.74655        27.60117
     2013.17180        -8.73367        27.15971
     2013.17453        -5.49679        27.18981
     2013.17727       -12.49392        27.57608
     2013.18001       -10.38304        27.83193
     2013.18275        -9.74916        27.41555
     2013.18548       -10.71629        27.21489
     2013.18822       -18.50541        27.54097
     2013.19096       -11.59453        27.87206
     2013.19370        -9.72766        27.72658
     2013.19644       -20.39478        27.56605
     2013.19917       -15.24190        27.64130
     2013.20191       -11.22003        27.68143
     2013.20465        -3.11315        27.51588
     2013.20739        -7.98628        27.78176
     2013.21013        -4.46940        27.32525
     2013.21286       -13.37552        27.35535
     2013.21560       -20.30465        27.08446
     2013.21834        -3.47877        27.15469
     2013.22108       -11.51589        26.90888
     2013.22381        -7.70102        27.16472
     2013.22655       -13.27814        27.23496
     2013.22929       -12.68926        27.12459
     2013.23203        -9.87139        26.93396
     2013.23477       -10.94851        27.08446
     2013.23750       -12.84663        27.82691
     2013.24024       -17.93976        27.95734
     2013.24298       -12.38588        28.15800
     2013.24572        -4.02500        27.69648
     2013.24846        -7.02313        27.62625
     2013.25119        -6.39725        27.02426
     2013.25393        -9.79338        27.23997
     2013.25667       -11.18650        27.99747
     2013.25941        -8.40862        27.34030
     2013.26214        -4.94875        27.61120
     2013.26488        -7.08087        27.27509
     2013.26762        -6.15299        27.07944
     2013.27036       -12.07112        27.14466
     2013.27310       -12.11024        28.07272
     2013.27583       -15.04836        27.67641
     2013.27851        -8.58378        28.92052
     2013.30047       -22.13048        27.03931
     2013.30321       -15.73760        26.94399
     2013.30595       -18.30872        26.89885
     2013.30869       -18.45785        27.31020
     2013.31143       -16.03497        26.74333
     2013.31416        -7.19009        27.10954
     2013.31690       -13.49822        26.74333
     2013.31964        -8.66734        26.79350
     2013.32238       -12.00546        26.59785
     2013.32512        -9.11259        26.86875
     2013.32785       -13.79771        26.87878
     2013.33059       -14.36383        26.66307
     2013.33333       -17.23396        26.67310
     2013.33607       -14.49908        26.65303
     2013.33880        -6.08320        27.42057
     2013.34154        -9.68233        26.85871
     2013.34428       -11.52345        27.56103
     2013.34702        -9.69558        27.44565
     2013.34976       -12.44870        27.43562
     2013.35249       -16.02182        27.20486
     2013.35523       -10.59395        27.76170
     2013.35797        -9.93007        27.48578
     2013.36071        -9.97819        27.96737
     2013.36344        -7.97032        27.38044
     2013.36618        -4.95844        27.42559
     2013.36892        -8.97656        26.99416
     2013.37166        -9.70169        27.30017
     2013.37440       -10.88181        27.08446
     2013.37713       -10.11693        27.02426
     2013.37987       -12.13606        27.12961
     2013.38261       -13.87818        27.19984
     2013.38535        -9.71730        27.42057
     2013.38809       -12.16943        27.13462
     2013.39082        -6.33955        27.45067
     2013.39356       -11.10968        27.11456
     2013.39630       -10.52280        27.22994
     2013.39904        -8.76692        27.08948
     2013.40177       -10.32605        27.36037
     2013.40451        -9.27917        27.65635
