# ================= DQRFIT RESULTS ================
# INPUT FILE: series/BRN3.rad
# OUTPUT: LDETRENDED
# FILTER FUNCTION: f(t)
# f(t)=+line(t)+annual(t)
# line(t)=+P 1+P 2*t
# annual(t)=+P 3*sin(2*pi*t+P 4)
# heav(t)=(t<0?0:1)
# TOTAL OBSERVATIONS MTOT= 2521
# INITIAL TIME INTERVAL= 2020.5337 - 2013.5633 =  6.9704
# TOTAL OBSERVATIONS AFTER PREFILTER M= 2492
# TIME-SPAN= 2020.5337 - 2013.5633 =  6.9704
# OBSERVATIONS: USED M=  2492 REJECTED MTOT-M=    29 %USED=   98.8497
# N=  4 PARAMETERS
# MAXSIG= 175.00000
# MAXRES= 287.49983
# SCALE FACTOR FOR LENGTHS: SCL=  10.00000
# SCALE FACTOR FOR SIGMAS: SCLSIG=   1.00000
# CHI^2=   6341.313 DOF=  2488 CHI^2/DOF=   2.54876
# RMS=     16.826 SDEV=     16.820 MEAN=    0.57424
#  P #       PARAMETER +-    SIGMA %error PARAMETER NAME
# P 1 =      1656.54035 +-  194.498  11.74 YZERO                              
# P 2 =        -0.82195 +-    0.096  11.73 SLOPE                              
# P 3 =         5.02617 +-    0.286   5.70 ANNUAL AMPLITUDE                   
# P 4 =        -2.61588 +-    0.069   2.66 ANNUAL PHASE                       
#       T            LDETRENDED       SIG_OBS
     2013.56331        13.52385         9.12390
     2013.56605         3.97310         9.01694
     2013.56878        10.24135         9.14146
     2013.57152         7.13960         9.13987
     2013.57426        17.58585         9.22608
     2013.57700        13.00710         8.98341
     2013.57974         2.08735         9.08239
     2013.58247        17.32460         9.07282
     2013.58521         8.53285         9.11911
     2013.58795        13.85010         9.11752
     2013.59069        13.25735         9.06324
     2013.59342         9.21260         9.13508
     2013.59616         3.14385         9.37615
     2013.59890        11.44311         9.00257
     2013.60164         6.25536         9.21011
     2013.60438         6.96761         9.20852
     2013.60711        16.36486         9.16701
     2013.60985        14.02411         9.15424
     2013.61259        10.51636         9.05525
     2013.61533        10.42861         9.41287
     2013.61807         9.17886         9.32825
     2013.62080        11.67611         9.22448
     2013.62354        12.13936         9.10794
     2013.62628        12.42261         9.05525
     2013.62902        10.78986         9.06962
     2013.63175        12.60311         9.16062
     2013.63449         9.22836         9.28036
     2013.63723        14.93761         9.11592
     2013.63997        12.87386         9.11273
     2013.64271         8.21011         9.33304
     2013.64544         2.87236         9.32825
     2013.64818        14.82261         9.14306
     2013.65092        15.44286         9.21011
     2013.65366         0.74011         9.19894
     2013.65639        14.94136         9.08878
     2013.65913         8.54161         9.57411
     2013.66187         4.31786         9.43362
     2013.66461         8.18111         9.14306
     2013.66735        11.22636         9.21171
     2013.67010        11.96363         9.27717
     2013.67282        11.92687         9.60125
     2013.67556         0.94812         9.47353
     2013.67830         7.61937         9.21331
     2013.68104         6.85862         9.14785
     2013.68377        10.75487         9.06324
     2013.68651         6.86812         9.24045
     2013.68925        -0.87963         9.20692
     2013.69199        12.25662         9.12550
     2013.69472         9.03087         9.22129
     2013.69746        13.16412         9.00896
     2013.70020        18.18637         9.05845
     2013.70294        24.86862         9.03769
     2013.70536        14.27561        10.02751
     2013.70910         7.90369        14.01712
     2013.71115         8.82637         9.19255
     2013.71389         7.27862         9.11432
     2013.71663        15.58287         9.20852
     2013.71937        19.12512         9.05366
     2013.72210        10.15137         9.21171
     2013.72484        12.71962         9.05206
     2013.72758        12.01187         9.16541
     2013.73032         9.58912         9.14466
     2013.73305        12.50937         9.16701
     2013.73579         5.14862         9.22448
     2013.73853         6.92187         9.04408
     2013.74127         6.20113         9.09996
     2013.74401         9.66238         9.27876
     2013.74674         6.73963         9.06643
     2013.74948        -8.58312        13.42483
     2013.75222        -4.08487         9.24524
     2013.75496         0.13438         9.00257
     2013.75770        -7.09137         9.32985
     2013.76043         9.94588         9.07760
     2013.76317         4.34413         9.15104
     2013.76591        12.60338         9.17499
     2013.76865         7.76363         9.13348
     2013.77138         7.59888         9.13189
     2013.77412        16.73113         9.16701
     2013.77686         2.69638         9.04089
     2013.77960         3.25763         9.11752
     2013.78234         2.98688        10.44260
     2013.78507        -8.67287         9.11273
     2013.78781        -6.60062         9.11911
     2013.79055        -9.18637         9.20692
     2013.79329         0.94988         9.09038
     2013.79603         1.89013         9.05685
     2013.79876         2.01938         8.95787
     2013.80150        12.51963         9.22448
     2013.80424         7.29088         9.13029
     2013.80698        11.08713         8.96425
     2013.80971         6.20139         9.06962
     2013.81245         5.23064         8.98980
     2013.81519         3.15189         9.12071
     2013.81793         6.29514         8.93392
     2013.82067         5.16939         9.15264
     2013.82340         9.73664         9.03131
     2013.82569         8.09151        11.03649
     2013.82888         4.21314         9.32666
     2013.83162        -4.80361         9.02492
     2013.83436         6.08264         9.27876
     2013.83709        -0.82911         9.16541
     2013.83983         1.63314         9.17978
     2013.84257        -0.05761         9.09996
     2013.84531        -2.60336         9.32666
     2013.84804         3.93489         9.01853
     2013.85078         1.32414         9.12550
     2013.85352         7.22039         9.15583
     2013.85626        -3.25736         9.12071
     2013.85900        -3.10411         8.96425
     2013.86173         1.16014         9.09836
     2013.86447        -3.84061         8.92913
     2013.86721         3.69764         9.06164
     2013.86995        -0.28611         9.11273
     2013.87269        -3.47886         9.04887
     2013.87542        -1.44261         9.30271
     2013.87816        12.09564         8.95468
     2013.88090        13.40690         9.14306
     2013.88364        11.14715         9.50546
     2013.88637         4.45040         8.97862
     2013.88911        -4.25835         9.03450
     2013.89185         2.32090         9.04727
     2013.89459        -1.08585         9.04727
     2013.89733         1.92940         9.04248
     2013.90006        -4.69235         9.18457
     2013.90280       -10.21110         9.30271
     2013.90554         2.35915         8.96745
     2013.90828        -0.16160         8.96266
     2013.91102        -1.38135         9.01375
     2013.91375       -11.57610         9.11113
     2013.91649        -8.81785         9.10794
     2013.91923         9.93240         9.07122
     2013.92197         3.19065         9.13987
     2013.92470         0.52690         9.16701
     2013.92744        -0.31285         9.30111
     2013.93018         5.22840        15.17138
     2013.93292         6.82765         9.09357
     2013.93566        -0.25010         9.19574
     2013.93839         4.09815         8.97224
     2013.94113        -6.30460         9.04727
     2013.94296       -28.15510        16.65292
     2013.94661        -1.39110         9.13348
     2013.94935        -1.01785         9.02332
     2013.95208         3.76641         9.02811
     2013.95482        -0.41434         9.77367
     2013.95756        -4.18309         9.00257
     2013.96030         4.18816         9.22288
     2013.96303         9.94541         9.04248
     2013.96577         9.28766         9.01853
     2013.96851        -1.59109         9.01055
     2013.97125       -16.72984         8.91317
     2013.97399        -8.37859         8.83015
     2013.97672       -11.76934         9.08878
     2013.97946        -5.72809         8.80780
     2013.98220         0.35616         9.05685
     2013.98494        -0.11859         9.04727
     2013.98767       -14.00634         9.03610
     2013.99041       -12.39909         9.01534
     2013.99315        -7.87284         9.17978
     2013.99589         2.74441         9.09996
     2013.99863        -1.60134         9.28515
     2014.00410        -5.52184         9.09836
     2014.00684        -6.45459         9.06643
     2014.00958        -0.80434         9.06803
     2014.01232        -2.11909         9.30111
     2014.01505        -1.99884         9.16381
     2014.01779        -3.15859         9.23406
     2014.02053       -10.22134         9.13508
     2014.02327        -2.39308         9.58688
     2014.02600        11.01817         9.35380
     2014.02874         8.82742         9.08559
     2014.03148         9.57867         9.16541
     2014.03422        -1.31508         8.94031
     2014.03694         2.19416         9.27876
     2014.03969        -5.38358         9.05845
     2014.04243         6.72667         9.29952
     2014.04517         2.66792         9.37136
     2014.04791        -8.10283         9.09836
     2014.05065         0.58042         8.96904
     2014.05338        -8.71533         8.96904
     2014.05612        -9.26808         9.13667
     2014.05886        -7.36983         9.13189
     2014.06160        -0.70758         8.91476
     2014.06433        -4.01133         9.33623
     2014.06707        -3.18108         9.37295
     2014.06981        -3.71483         9.20692
     2014.07255         0.25642         9.07601
     2014.07529         0.08967         9.10155
     2014.07802        -0.92808         9.22608
     2014.08076        -1.08383         9.02811
     2014.08350         3.27842         8.99299
     2014.08624        -3.34133         8.96745
     2014.09017        -8.52709        42.34832
     2014.09171        -3.19382         9.52462
     2014.09445         0.07243         9.03769
     2014.09712        -5.92838         9.53101
     2014.09995        -4.69005         9.16222
     2014.10266         2.51918         9.16541
     2014.10540         0.92643         8.97703
     2014.10814         2.69568         9.02173
     2014.11088        -8.50607         9.44480
     2014.11362        -0.80482         9.19574
     2014.11635         0.91643         9.98121
     2014.11909        -5.40832        10.20313
     2014.12183         5.31393         8.97703
     2014.12457        10.76018        12.09655
     2014.12731         4.96243         9.29792
     2014.13004         2.37268         9.02492
     2014.13278         3.36293         9.27238
     2014.13552         8.66318         9.38413
     2014.13826        -4.50957        10.53040
     2014.14099        -2.04732         8.94510
     2014.14373        -4.35607         9.17499
     2014.15468         9.87593         9.37774
     2014.15742         2.84118         9.21011
     2014.16016         5.70243         9.51025
     2014.16290         0.67369         9.23566
     2014.16564        -9.05506         9.40808
     2014.16837        -2.30581         9.58848
     2014.17111         2.92344         9.91895
     2014.17385        -3.67931         9.40808
     2014.17659         2.98994        10.17758
     2014.17932        -1.32281         9.72258
     2014.18206         1.44844         9.54697
     2014.18480         1.85969         9.07760
     2014.18754         4.51994        10.27816
     2014.19028       -14.05181         9.51025
     2014.19301        -1.33556         9.07920
     2014.19575         3.21369         9.13348
     2014.19849         1.30594         9.58848
     2014.20123        -7.00881         9.39052
     2014.20397         1.84744         9.35859
     2014.20670        -5.47731         9.18617
     2014.20944        -4.30806         9.10634
     2014.21218         4.48919         9.18776
     2014.21492         1.59844         9.34901
     2014.21765        -0.03631         9.19255
     2014.22039        -0.47506        13.79521
     2014.22307        -4.21685         9.50866
     2014.22602         2.13557         9.81039
     2014.22861         5.16069         9.06962
     2014.23134         6.04194         9.23087
     2014.23408         3.27220         8.96425
     2014.23682        -1.98355         9.28355
     2014.23956        -3.99230         9.29473
     2014.24230       -10.13405         9.34901
     2014.24501        -3.61082        10.14086
     2014.24777         7.06045         9.98760
     2014.25051        -7.86430         9.18138
     2014.25325        -8.72305         9.07282
     2014.25598        -3.05080         9.41766
     2014.25872        -7.64055         9.13348
     2014.26146         0.30770         9.35859
     2014.26420        -3.91105         9.06164
     2014.26694        -3.58980         9.24683
     2014.26967        -4.24855         9.20053
     2014.27241        -2.31130         9.23885
     2014.27464        -3.11747        11.59366
     2014.28084        -6.20337         9.95886
     2014.28336        -1.52230         9.34741
     2014.28610        -8.75505         9.67150
     2014.28884       -13.24880         9.54537
     2014.29158       -10.15755         9.14945
     2014.29431         2.63070         8.93232
     2014.29705        -2.11205         9.29792
     2014.29979        -7.10380         9.35859
     2014.30253        -1.49455         9.17659
     2014.30527         2.09471         9.12550
     2014.30800         0.88296         9.04727
     2014.31074        -1.91479         9.45757
     2014.31348        -5.87154         9.01534
     2014.31622        -8.24229         9.22608
     2014.31895        -3.00504         9.27557
     2014.32169        -3.94279         9.36816
     2014.32443        -8.55754         9.30431
     2014.32717       -10.20229         9.46555
     2014.32991        -1.18704         9.27238
     2014.33264        -5.27679         9.21650
     2014.33538        -1.18654         9.28674
     2014.33812        -2.01829         9.12231
     2014.34086         0.61496         8.97383
     2014.34360        -0.70479         9.25960
     2014.34633       -13.90354         9.30750
     2014.34907       -13.69029         9.68746
     2014.35181        -2.03904        11.51384
     2014.35455         6.58521         9.21011
     2014.35728        -6.64254         9.05366
     2014.36002        -7.49129         9.28195
     2014.36276       -10.80004         9.33304
     2014.36550       -10.39579         9.88702
     2014.36824        -5.75754         9.71779
     2014.37097         9.45871         9.42723
     2014.37371         1.81997         9.12390
     2014.37645         0.58122         9.19734
     2014.37919        -0.93753         9.42085
     2014.38193         0.46572         9.71460
     2014.38466        -1.85303         9.39371
     2014.38740        -5.25778         9.68906
     2014.39014       -10.93753         9.61562
     2014.39288        -3.78728         9.44160
     2014.39561        -1.09903         9.69864
     2014.39835         0.94722        11.06523
     2014.40109        -6.69953         9.56772
     2014.40383        -7.61128         9.48630
     2014.40657       -14.16703         9.85030
     2014.40930       -10.66778         9.97004
     2014.41204         0.37747        10.16481
     2014.41478         1.59772         9.94928
     2014.41752         2.80697         9.47034
     2014.42026        -0.43778         9.59167
     2014.42299        -8.05453        10.10734
     2014.42573       -10.88928         9.80241
     2014.42847        -4.77503         9.68906
     2014.43121         5.47822         9.35220
     2014.43394        -1.15453         9.52622
     2014.43668         0.68872         9.23725
     2014.43942        -7.52903        10.72677
     2014.44216        -8.00978         9.51344
     2014.44490        -4.07352         9.62201
     2014.44763         9.09473         9.47034
     2014.45037        -0.32302        10.15683
     2014.45311        -0.65277         9.44799
     2014.45585        -2.13652         9.50067
     2014.45859        -2.58227         9.37455
     2014.46132        -1.17402         9.28036
     2014.46406       -10.90277         9.40967
     2014.46680        -5.50052         9.86627
     2014.46954         3.94173        10.96465
     2014.47227       -11.90602        13.67388
     2014.47501         0.86223         9.76888
     2014.47775        -4.62952         9.40967
     2014.48049        -3.12727        10.39470
     2014.48323         8.50398        11.60484
     2014.48596         2.69023        10.19674
     2014.48869         4.26947         9.54857
     2014.49144         8.22973         9.92693
     2014.49418        -5.54702        10.94868
     2014.49692        -4.67777        11.29672
     2014.49965         1.12748        13.08478
     2014.50239       -13.76927        11.76449
     2014.50513         2.93498        10.16641
     2014.50787        -4.07177         9.44799
     2014.51060        -8.20652         9.42723
     2014.51334         4.28873         9.57411
     2014.51608        12.39399        10.72837
     2014.51882         5.14824        10.61821
     2014.52156        13.28549        10.71240
     2014.52429         3.45274        10.37555
     2014.52703        10.72499        11.02052
     2014.52977         4.42924        11.53938
     2014.53251         0.44449        10.24783
     2014.53525        -1.97226        10.77946
     2014.53798        -1.25501        10.52242
     2014.54072        10.08024         9.91735
     2014.54346         9.64649         9.52781
     2014.54620         5.63574         9.21650
     2014.54893         1.93199         9.05046
     2014.55167         7.20324         9.42244
     2014.55441         7.03949         9.13987
     2014.55715        -2.21326         9.29792
     2014.55989         4.76699         9.17978
     2014.56262        10.04824         9.20053
     2014.56536         2.79349         9.31867
     2014.56810        -0.49726         9.39052
     2014.57084        -3.14401         9.18138
     2014.57357        -4.91776         9.24524
     2014.57631         6.80849         9.19574
     2014.57905         2.15074         9.13987
     2014.58179         0.80399         9.38413
     2014.58453       -14.16076         9.41446
     2014.58726         1.77850         9.67948
     2014.59000         8.59875         9.66990
     2014.59274         8.40100         9.32187
     2014.59548        11.13125         9.34102
     2014.59822        12.68050         9.67629
     2014.60095        -3.51525         9.46076
     2014.60369         1.11800         9.38573
     2014.60643        -0.12075         9.27078
     2014.60917         5.84550         9.48311
     2014.61190        10.75375         9.65872
     2014.61464        -8.24500         9.53580
     2014.61738         0.91925        10.04507
     2014.62012         7.84150         9.46076
     2014.62286         5.87975         9.79922
     2014.62559         4.97900         9.43362
     2014.62833         7.42725         9.37455
     2014.63107         8.80550         9.49429
     2014.63381         8.92175         9.57890
     2014.63655        11.19500         9.27876
     2014.63928         9.30925         9.27238
     2014.64202        -1.10050         9.97004
     2014.64474         6.83573         9.83434
     2014.64750         9.35900         9.71939
