# ================= DQRFIT RESULTS ================
# INPUT FILE: series/BRNB.rad
# OUTPUT: LDETRENDED
# FILTER FUNCTION: f(t)
# f(t)=+line(t)+annual(t)+jumps(t)
# line(t)=+P 1+P 2*t
# annual(t)=+P 3*sin(2*pi*t+P 4)
# jumps(t)=+P 5*heav(t-2007.3566  )
# heav(t)=(t<0?0:1)
# TOTAL OBSERVATIONS MTOT= 2168
# INITIAL TIME INTERVAL= 2013.4565 - 2007.3396 =  6.1170
# TOTAL OBSERVATIONS AFTER PREFILTER M= 2162
# TIME-SPAN= 2013.4565 - 2007.3396 =  6.1170
# OBSERVATIONS: USED M=  2162 REJECTED MTOT-M=     6 %USED=   99.7232
# N=  5 PARAMETERS
# MAXSIG= 175.00000
# MAXRES=  34.64813
# SCALE FACTOR FOR LENGTHS: SCL=  10.00000
# SCALE FACTOR FOR SIGMAS: SCLSIG=   1.00000
# CHI^2=   2828.513 DOF=  2157 CHI^2/DOF=   1.31132
# RMS=      6.665 SDEV=      6.666 MEAN=    0.09878
#  P #       PARAMETER +-    SIGMA %error PARAMETER NAME
# P 1 =      1433.38330 +-  162.848  11.36 YZERO                              
# P 2 =        -0.69514 +-    0.081  11.67 SLOPE                              
# P 3 =         6.93801 +-    0.197   2.84 ANNUAL AMPLITUDE                   
# P 4 =        -3.02015 +-    0.040   1.32 ANNUAL PHASE                       
# P 5 =       -31.09878 +-    2.826   9.09 OFFSET 2007.3566                   
#       T            LDETRENDED       SIG_OBS
     2007.33957        -2.58793         8.84268
     2007.34291        -9.52661         6.77801
     2007.34565       -12.22870         6.40127
     2007.34839         4.77820         6.77229
     2007.35112        -5.62890         6.39554
     2007.35386        -3.74999         6.73679
     2007.35663       -33.72807         6.80550
     2007.35934       -33.02519         6.47112
     2007.36208       -25.18128         6.46883
     2007.36481       -33.58738         6.55815
     2007.36755       -32.33748         6.35890
     2007.37001       -18.36877         7.35401
     2007.38672       -39.98115         6.34057
     2007.38945       -34.35125         6.37607
     2007.39219       -33.09435         6.61197
     2007.39493       -28.61644         6.53066
     2007.39767       -29.25454         6.43791
     2007.40041       -24.98864         6.29019
     2007.40314       -26.63573         6.37149
     2007.40588       -33.79983         6.29820
     2007.40742       -27.18476        20.97531
     2007.41410       -33.18312         6.42760
     2007.41683       -30.09922         6.43562
     2007.41957       -33.62232         6.45394
     2007.42231       -18.38141         6.44134
     2007.42505       -17.94651         6.83183
     2007.42778       -22.77061         6.61197
     2007.43326       -23.30880         6.37836
     2007.47433       -29.05925         6.35661
     2007.47707       -38.00835         6.57532
     2007.47980       -32.64344         6.32111
     2007.48254       -40.69454         6.41272
     2007.48528       -27.41564         6.39325
     2007.48802       -29.16974         6.37722
     2007.49076       -23.38083         6.67724
     2007.49349       -15.94993        13.09454
     2007.49623       -28.57603        17.31548
     2007.49897       -21.83012         8.73504
     2007.50290       -23.74039        28.56636
     2007.50444       -27.94032         9.16102
     2007.50718       -23.10541         6.29248
     2007.50992       -26.13351         6.51921
     2007.51266       -16.30461         6.58907
     2007.51540       -18.27070         6.50662
     2007.51813       -28.95880         6.36691
     2007.52087       -31.17090         6.40356
     2007.52361       -22.24799         6.35890
     2007.52635       -17.18909         6.42188
     2007.52908       -22.28219         7.30019
     2007.53188       -17.61124         6.69327
     2007.53456       -22.60238         6.51578
     2007.53730       -18.86948         6.49402
     2007.54004       -18.57657         6.70358
     2007.54277       -33.31467         6.40356
     2007.54551       -21.92977         6.44936
     2007.54825       -20.25286         6.57303
     2007.55099       -33.89996         6.68984
     2007.55373       -14.28306         6.60739
     2007.55646       -25.45716         6.57074
     2007.55920       -18.39225         6.40470
     2007.56194       -29.71835         7.13186
     2007.56468       -24.51545         6.39783
     2007.56741       -35.98154         6.43905
     2007.57015       -13.57864         6.41157
     2007.57289       -16.13174         6.40585
     2007.57563       -27.83783         6.37378
     2007.57837       -30.35193         6.37607
     2007.58110       -25.41403         6.38294
     2007.58384       -22.83512         6.46997
     2007.58658       -21.45522         6.36577
     2007.58932       -21.48132         6.29706
     2007.59206       -24.07941         6.28217
     2007.59479       -12.04951         6.50662
     2007.59753       -19.71561         6.66808
     2007.60027       -17.45370         6.42646
     2007.60301       -18.50380         6.34172
     2007.60574       -15.80290         6.32225
     2007.60848       -21.37599         6.35431
     2007.61122       -15.89309         6.40814
     2007.61396       -28.84819         6.33370
     2007.61670       -22.61128         6.96696
     2007.61943       -20.76738         6.82840
     2007.62217       -11.49048        11.16042
     2007.62491       -15.34658         6.77343
     2007.62769       -16.53364         6.84672
     2007.63039       -12.08577         6.73793
     2007.63312       -15.09987         6.68182
     2007.63586       -16.93096         6.56616
     2007.63860       -26.99906         6.50433
     2007.64134       -24.72416         6.38867
     2007.64407       -14.38125         6.79633
     2007.64681       -14.35935         6.72648
     2007.64955       -10.42745         7.09178
     2007.65229       -21.06654         6.72076
     2007.65503       -23.59464         6.62800
     2007.65776       -12.13374         6.59365
     2007.66050       -14.99783         6.62457
     2007.66324       -18.08893         6.91314
     2007.66598       -14.63203         6.65892
     2007.66872       -18.80512         6.65892
     2007.67145       -17.46622         6.70930
     2007.67419       -14.18232         6.70701
     2007.67690        -8.26244         6.80206
     2007.68035        -7.02504         9.29729
     2007.68355         3.12919        15.81078
     2007.68520       -30.28967         6.74709
     2007.68750       -21.67006         7.89909
     2007.69142        -4.58434         9.91910
     2007.69336       -12.97700         6.67152
     2007.69609        -8.63909         6.75625
     2007.69883       -21.74419         6.69900
     2007.70157       -17.84729         6.58220
     2007.70431       -10.60338         6.75740
     2007.70705       -10.69548         6.85474
     2007.70978       -14.24758         6.74251
     2007.71252       -23.22067         6.71847
     2007.71459       -21.59223         9.15186
     2007.71800       -15.70187         6.47341
     2007.72073        -5.07896         6.48600
     2007.72347       -10.29906         6.49402
     2007.72621       -19.13916         6.43676
     2007.72895       -25.25825         6.48829
     2007.73169       -18.64135         6.41730
     2007.73442       -10.97145         6.42875
     2007.73716       -21.15754         6.66922
     2007.73990        -3.20164         6.48486
     2007.74264        -9.94274         6.46425
     2007.74538       -14.51883         6.42760
     2007.74811       -14.00493         6.58220
     2007.75085       -15.27203         6.94978
     2007.75359       -13.36512         6.55471
     2007.75633       -14.32422         6.48944
     2007.75906       -15.62432         6.43104
     2007.76180       -12.90942         6.54555
     2007.76454       -13.61251         6.50662
     2007.76728       -21.60361         6.83756
     2007.77002       -12.73471         6.96238
     2007.77275       -16.14880         6.82267
     2007.77549       -16.41390         6.46768
     2007.77823        -5.12200         6.66464
     2007.78100       -20.01207         6.47570
     2007.78371       -20.91919         6.37378
     2007.78644       -18.18029         6.50433
     2007.78918       -10.86138         6.53983
     2007.79192       -11.97748         6.57303
     2007.79466       -10.13458         6.64747
     2007.79739        -6.86067         6.57647
     2007.80002        -9.00085         6.59136
     2007.80331       -18.33856         8.13957
     2007.80561       -17.94696         6.56616
     2007.80835       -18.18106         6.55700
     2007.81108       -12.18516         6.73564
     2007.81382       -22.58625         6.57074
     2007.81656       -22.05935         6.72992
     2007.81930       -26.09945         6.58678
     2007.82203       -21.79654         6.57189
     2007.82477       -19.84464         6.57074
     2007.82751       -28.27874         6.54555
     2007.83025       -24.17284         6.76656
     2007.83299       -11.51293         6.67953
     2007.83458       -14.61382        15.48327
     2007.83846       -21.27413         6.37035
     2007.84120       -20.62422         6.68869
     2007.84331       -44.34376        11.82574
     2007.84673       -34.96538         6.59823
     2007.84941       -25.85251         6.40585
     2007.85215       -23.52661         6.80206
     2007.85489       -17.98571         6.86504
     2007.85763       -22.10580         6.67266
     2007.86036        -8.51790         6.52837
     2007.86310       -12.25400         6.59479
     2007.86584       -18.87709         6.40012
     2007.86858       -29.43419         6.53181
     2007.87132       -18.65929         6.51807
     2007.87405       -17.71838         6.50433
     2007.87679       -11.47648         6.50204
     2007.87953       -23.51258         6.47570
     2007.88227       -27.29467         6.34286
     2007.88501       -22.13377         6.43676
     2007.88774       -35.04087         6.43447
     2007.89048       -26.47796         6.42646
     2007.89299       -20.88022         7.13987
     2007.89613       -24.07004        10.29241
     2007.89875       -31.85822         6.76084
     2007.90143       -17.33135         6.58449
     2007.90417       -23.96345         6.48142
     2007.90691       -30.20255         6.52608
     2007.90965       -25.87564         6.52952
     2007.91238       -19.32674         6.49288
     2007.91512       -20.37584         6.56158
     2007.91786       -24.22593         6.51578
     2007.92060       -25.68803         6.77916
     2007.92334       -31.76013         6.70472
     2007.92607       -24.46422         6.51692
     2007.92881       -30.32532         6.56387
     2007.93155       -24.08042         6.47112
     2007.93429       -29.44151         6.45509
     2007.93702       -31.56461         6.53525
     2007.93976       -35.85371         6.44249
     2007.94250       -20.53280         6.60052
     2007.94524       -31.40790         6.68984
     2007.94798       -37.68500         6.56387
     2007.95071       -35.90509         6.56044
     2007.95345       -23.92219         6.56731
     2007.95636       -22.69417         7.26355
     2007.95893       -12.45238         6.70472
     2007.96167       -22.19148         6.66006
     2007.96446       -22.86954         9.78168
     2007.96714       -26.60067         6.63029
     2007.97015       -43.75959        13.91216
     2007.97262       -53.46087         6.68182
     2007.97535       -44.84797         6.61998
     2007.97809       -48.61906         6.59594
     2007.98083       -37.84516         6.51234
     2007.98904       -43.95645         6.76198
     2007.99178       -40.20655         6.61311
     2007.99452       -36.88364         6.61769
     2007.99726       -40.71074         6.44707
     2008.00045       -43.29452         8.00788
     2008.00273       -51.60693         6.49173
     2008.00547       -31.85603         6.38180
     2008.00821       -33.03613         6.46425
     2008.01095       -19.54322         6.38638
     2008.01368       -32.12632         6.31309
     2008.01642       -48.61442         6.30965
     2008.01916       -47.07751         6.45509
     2008.02190       -44.46861         6.39210
     2008.02464       -43.85271         6.28561
     2008.02736       -44.71981         6.35088
     2008.03013       -47.03489         6.90627
     2008.03285       -41.78800         6.38409
     2008.03559       -44.14109         6.51349
     2008.03838       -40.01015         9.42898
     2008.04106       -44.80929         6.46768
     2008.04380       -39.69239         6.54670
     2008.04654       -32.63248         6.47799
     2008.04928       -56.77558         6.44593
     2008.05201       -51.25268         6.40356
     2008.05475       -37.22077         6.38981
     2008.05749       -45.06187         6.34515
     2008.06023       -37.47897         6.41272
     2008.06297       -28.38906         6.40241
     2008.06904       -38.19284        24.40726
     2008.09348       -41.76385         7.41356
     2008.09582       -44.45122         6.52379
     2008.09856       -35.26332         6.48829
     2008.10130       -62.84542         6.59594
     2008.10403       -23.69751         7.14789
     2008.10677       -45.45461         6.37264
     2008.10951       -51.63871         6.36691
     2008.11225       -49.73081         6.33943
     2008.12616       -57.91313         9.49197
     2008.12982       -30.97459        14.43663
     2008.13141       -44.96148         6.31996
     2008.13415       -40.43258         6.37149
     2008.13689       -31.34868         6.41272
     2008.13963       -30.85077         6.74709
     2008.14236       -33.17787         6.38065
     2008.14510       -33.94697         6.33256
     2008.14784       -29.19106         6.33599
     2008.15058       -40.81416         6.35202
     2008.15331       -36.44626         6.34630
     2008.15725       -50.08052        17.83308
     2008.15879       -51.70145         6.35546
     2008.16153       -44.35755         6.43676
     2008.16427       -46.47164         6.31996
     2008.16700       -44.81374         6.31538
     2008.16974       -49.69884         6.30507
     2008.17248       -52.75493         6.26958
     2008.17522       -52.69803         6.46196
     2008.17796       -44.48013         6.28446
     2008.18069       -38.66423         6.36920
     2008.18343       -44.74232         6.31080
     2008.18611       -37.12246         6.57074
     2008.18891       -45.67952         6.41043
     2008.19164       -45.20461         6.47341
     2008.19438       -32.21671         6.35431
     2008.19712       -34.91381         7.67465
     2008.19986       -43.18990         6.29935
     2008.20260       -40.06600         6.28790
     2008.20533       -37.40710         6.32569
     2008.20807       -49.80619         6.51578
     2008.21081       -43.90829         6.49173
     2008.21355       -41.48039         6.89367
     2008.21629       -45.65548         6.42989
     2008.21902       -40.48258         6.54555
     2008.22176       -43.06468         6.41844
     2008.22450       -39.66677         6.43218
     2008.22724       -36.18187         6.43676
     2008.22997       -37.77197         6.51578
     2008.23271       -42.25406         6.52494
     2008.23544       -36.16617         8.97208
     2008.23819       -44.00126         6.38752
     2008.24093       -41.06235         6.31767
     2008.24366       -52.21445         6.34973
     2008.24640       -42.86555         6.35890
     2008.24914       -38.13865         6.43447
     2008.25188       -32.31574         6.38409
     2008.25462       -34.04084         6.23751
     2008.25735       -37.19894         6.27301
     2008.26009       -29.32403         6.34744
     2008.26283       -44.19613         6.33256
     2008.26557       -45.07423         6.28103
     2008.26830       -43.37032         6.31996
     2008.27104       -43.44642         6.42417
     2008.27378       -48.42652         6.31309
     2008.27652       -36.48761         6.43562
     2008.27926       -39.74371         6.48371
     2008.28199       -28.64181         6.56387
     2008.28473       -31.13390         6.30278
     2008.28747       -26.23600         6.48028
     2008.29021       -34.81210         6.52265
     2008.29295       -28.90919         6.51463
     2008.29568       -29.32429         6.34973
     2008.30116       -31.29948         6.30278
     2008.30390       -36.26858         6.29820
     2008.30663       -34.70468         6.48486
     2008.30937       -33.11377         6.53410
     2008.31211       -39.21287         6.69900
     2008.31485       -33.32297         6.28675
     2008.31759       -41.96306         6.36004
     2008.32032       -31.98016         6.38638
     2008.32306       -41.35626         6.39897
     2008.32580       -35.35036         6.60624
     2008.32854       -40.11145         6.25698
     2008.33128       -32.81355         6.31653
     2008.33401       -39.58965         6.22606
     2008.33675       -38.63774         6.27874
     2008.33949       -45.97984         6.55013
     2008.34223       -35.54994         6.29248
     2008.34496       -35.73203         6.31653
     2008.34770       -30.54713         6.29477
     2008.35044       -30.98123         6.17453
     2008.35318       -42.10032         6.16880
     2008.35592       -32.44142         6.31195
     2008.35865       -31.06252         6.26385
     2008.36139       -27.54061         6.74022
     2008.36413       -32.43271         6.22492
     2008.36687       -35.92581         6.30507
     2008.36961       -38.88090         6.20545
     2008.37234       -45.48600         6.19400
     2008.37508       -24.03010         8.65144
     2008.37782       -29.52919         6.25927
     2008.38056       -31.12129         6.26614
     2008.38329       -38.74739         6.56387
     2008.38603       -28.50348         6.25011
     2008.38877       -35.63458         6.26729
     2008.39151       -36.37168         6.37035
     2008.39425       -34.19078         6.17797
     2008.39698       -27.83187         6.22033
     2008.39972       -27.04697         6.21919
     2008.40246       -31.38507         6.86275
     2008.40520       -36.57016         6.37149
     2008.40794       -28.10626         6.27530
     2008.41067       -31.36036         6.23522
     2008.41341       -35.53345         6.18255
     2008.41615       -29.72255         6.21117
     2008.41889       -30.08765         6.20888
     2008.42162       -35.12474         6.37264
     2008.42413       -36.40900         6.86275
     2008.42710       -34.67694         6.24095
     2008.42984       -30.73303         6.32683
     2008.43258       -29.57413         6.35431
     2008.43531       -35.60823         6.27759
     2008.43805       -33.02132         6.36691
     2008.44079       -28.25342         6.27530
     2008.44353       -42.73052         6.13445
     2008.44626       -33.19161         6.27988
     2008.44900       -35.46371         6.22835
     2008.45174       -35.54581         6.42646
     2008.45448       -36.71990         6.48486
     2008.45722       -37.81100         6.22033
     2008.45995       -35.10710         6.17682
     2008.46269       -35.63920         6.20888
     2008.46543       -37.06829         6.26843
     2008.46817       -34.04939         6.28561
     2008.47091       -32.91449         6.44249
     2008.47364       -33.92258         6.29362
     2008.47638       -27.04868         6.20774
     2008.47912       -34.21878         6.20316
     2008.48186       -31.85787         6.33943
     2008.48459       -26.34397         6.50891
     2008.48733       -30.64607         6.33485
     2008.49007       -35.59716         6.29591
     2008.49281       -29.73426         6.21804
     2008.49555       -34.56836         6.34744
     2008.49828       -33.71245         6.49402
     2008.50102       -35.55055         6.55128
     2008.50376       -20.53265         6.46768
     2008.50650       -25.94274         6.29477
