# ================= DQRFIT RESULTS ================
# INPUT FILE: series/BRNT.rad
# OUTPUT: LDETRENDED
# FILTER FUNCTION: f(t)
# f(t)=+line(t)+annual(t)
# line(t)=+P 1+P 2*t
# annual(t)=+P 3*sin(2*pi*t+P 4)
# heav(t)=(t<0?0:1)
# TOTAL OBSERVATIONS MTOT= 1516
# INITIAL TIME INTERVAL= 2022.7488 - 2018.5496 =  4.1992
# TOTAL OBSERVATIONS AFTER PREFILTER M= 1513
# TIME-SPAN= 2022.7488 - 2018.5496 =  4.1992
# OBSERVATIONS: USED M=  1513 REJECTED MTOT-M=     3 %USED=   99.8021
# N=  4 PARAMETERS
# MAXSIG= 175.00000
# MAXRES=  21.22548
# SCALE FACTOR FOR LENGTHS: SCL=  10.00000
# SCALE FACTOR FOR SIGMAS: SCLSIG=   1.00000
# CHI^2=   1818.505 DOF=  1509 CHI^2/DOF=   1.20511
# RMS=      6.144 SDEV=      6.146 MEAN=    0.04086
#  P #       PARAMETER +-    SIGMA %error PARAMETER NAME
# P 1 =      3634.78085 +-  264.136   7.27 YZERO                              
# P 2 =        -1.80366 +-    0.131   7.25 SLOPE                              
# P 3 =         4.79941 +-    0.221   4.60 ANNUAL AMPLITUDE                   
# P 4 =        -3.01032 +-    0.064   2.14 ANNUAL PHASE                       
#       T            LDETRENDED       SIG_OBS
     2018.54960         5.77480         9.69004
     2018.55797        -3.90611        10.62754
     2018.55989         1.17634         6.06959
     2018.56262         2.69628         5.95103
     2018.56536         6.43222         5.94664
     2018.56810         6.88015         5.89394
     2018.57084         1.81709         5.92578
     2018.57357         2.96503         6.05312
     2018.57631         0.82797         6.13436
     2018.57905         0.65991         6.22877
     2018.58179        13.14585         6.16290
     2018.58453        10.67678         6.02677
     2018.58726        13.89672         6.02787
     2018.59000         6.39766         5.90382
     2018.59274         3.30760         5.95981
     2018.59548         3.02854         5.85662
     2018.59822         5.09347         5.79624
     2018.60095         6.35541         5.80832
     2018.60369         6.05235         5.97847
     2018.60643         3.53129         5.90053
     2018.60917         3.81523         5.94664
     2018.61190         8.51117         5.97518
     2018.61464         7.79610         5.83247
     2018.61738         9.44404         5.89065
     2018.62012         9.81098         5.83027
     2018.62286        12.22492         6.02348
     2018.62559        12.47686         6.15631
     2018.62833         5.07079         5.87967
     2018.63107         6.11173         5.86430
     2018.63381         7.15067         6.11021
     2018.63655        10.16961         5.88955
     2018.63928         3.16455         6.20681
     2018.64202         8.26948         6.12997
     2018.64476        11.73642         5.94444
     2018.64750         1.64936         5.88187
     2018.65023        12.92030         6.09264
     2018.65297        11.69524         5.89614
     2018.65571         3.13218         5.82808
     2018.65845         7.69211         5.88955
     2018.66119         3.87705         5.82808
     2018.66392        16.08799         6.05093
     2018.66666         5.34993         5.89504
     2018.66940         4.55787         5.87967
     2018.67214         6.38480         5.85113
     2018.67488         8.04474         5.91590
     2018.67761         8.43168         5.89614
     2018.68035         5.19362         6.02787
     2018.68309        -1.34044         6.01909
     2018.68583         6.74250         5.93237
     2018.68856         8.28743         5.99713
     2018.69130        13.54437         5.87528
     2018.69404         7.44831         6.11899
     2018.69678         8.67625         5.93346
     2018.69952         3.31219         5.91810
     2018.70225         0.95812         6.04324
     2018.70499         8.71906         5.93017
     2018.70773         6.58000         5.97738
     2018.71047         0.42094         5.86760
     2018.71321         0.81688         5.84125
     2018.71594         7.34782         5.90053
     2018.71868        -1.51925         5.88736
     2018.72142        -1.67231         5.95542
     2018.72416         3.40863         6.03007
     2018.72689         0.93057         5.90712
     2018.72963         2.82551         5.95542
     2018.73237        -1.90156         5.89614
     2018.73511         2.24438         5.97408
     2018.73785         0.64332         5.97628
     2018.74058        -0.11774         5.84235
     2018.74332         4.73220         5.89065
     2018.74606         0.47013         5.90053
     2018.74880         3.21207         5.86870
     2018.75154         4.17601         5.99384
     2018.75427         7.34395         5.96201
     2018.75701         3.87189         6.07398
     2018.75975        -1.15017         5.80283
     2018.76249         1.89376         5.90053
     2018.76522         4.11370         6.03226
     2018.76796         3.81664         5.89943
     2018.77070        13.31958         6.01580
     2018.77344        -1.47148         5.85113
     2018.77618         6.97445         5.86760
     2018.77891         8.69439         6.05641
     2018.78165        13.72433         6.10801
     2018.78439         0.70127         5.84125
     2018.78713         0.25921         5.84674
     2018.78987        -5.52185         5.91590
     2018.79260         0.48408         5.97518
     2018.79534         5.66202         5.90602
     2018.79808         2.32396         5.92688
     2018.80082         2.34790         5.83247
     2018.80355         4.99184         5.82149
     2018.80629         7.85277         6.08276
     2018.80903         6.12271         6.08605
     2018.81177         9.69365         6.28695
     2018.81451         5.96059         5.89175
     2018.81724         4.90353         5.90492
     2018.81998         7.42046         5.91700
     2018.82272         6.37240         6.03665
     2018.82546         7.09834         6.01470
     2018.82820         0.35928         5.88516
     2018.83093         1.91622         5.84454
     2018.83367        12.35916         5.94005
     2018.83641         5.53409         6.15741
     2018.83915        10.04803         5.97628
     2018.84188         2.04097         6.05751
     2018.84462         5.69891         5.93017
     2018.84736         9.01585         5.91370
     2018.85010         0.12378         5.85662
     2018.85284         1.19172         5.91370
     2018.85557        -4.34334         5.93346
     2018.85831         3.38660         5.96420
     2018.86105        -1.41646         5.94115
     2018.86379         0.68848         6.05202
     2018.86653         2.40541         5.91590
     2018.86926        -6.40265         6.00153
     2018.87200        -3.07671         5.89614
     2018.87474         0.49723         5.93237
     2018.87748         4.13917         6.10142
     2018.88021         1.86310         5.99274
     2018.88295         4.21304         6.10691
     2018.88569         0.66598         6.02238
     2018.88843        14.67292         6.13545
     2018.89117         5.98886         6.15961
     2018.89390        10.90980         6.09923
     2018.89664         6.17373         6.30451
     2018.89938        -0.85533         6.06300
     2018.90212        -0.46739         6.00262
     2018.90485         2.78855         6.11460
     2018.90759        -9.27451         6.02348
     2018.91033         0.34742         6.01250
     2018.91307         8.30436         6.13875
     2018.91581         1.33630         6.00811
     2018.91854         1.29924         6.05641
     2018.92128        -3.70082         6.06300
     2018.92402        -5.72889         6.01470
     2018.92676        -1.74395         6.03665
     2018.92950        -1.59701         6.03226
     2018.93223        -5.84407         6.16400
     2018.93497        -3.42813         6.06081
     2018.93771        -3.65419         6.04983
     2018.94045         0.93474         6.03775
     2018.94318         4.58868         5.88736
     2018.94592         9.29562         6.12228
     2018.94866         4.73056         6.03775
     2018.95140        12.97950         6.10581
     2018.95414         7.71143         5.99384
     2018.95687         9.81737         5.97408
     2018.95961         9.28931         6.03885
     2018.96235         4.81625         6.04873
     2018.96509         7.25019         6.10801
     2018.96783         1.94013         6.01909
     2018.97056         8.28606         6.11130
     2018.97330        -0.37300         5.95432
     2018.97604        -0.55306         6.07069
     2018.97878        -9.41812         5.93456
     2018.98151       -14.05518         5.90822
     2018.98425        -1.27825         6.11899
     2018.98699       -11.59331         6.08715
     2018.98973        -8.59837         6.03995
     2018.99247       -10.29343         6.12448
     2018.99520       -11.40049         6.12887
     2018.99794        -6.09556         6.06849
     2019.00068        -9.27762         6.01580
     2019.00342        -3.15568         6.03007
     2019.00616        -3.51474         6.07727
     2019.00889        -2.24480         6.01031
     2019.01163         0.87614         5.97518
     2019.01437         8.09207         6.04105
     2019.01711        13.12401         5.99933
     2019.01984        -3.23205         5.99933
     2019.02258        -6.73211         6.09813
     2019.02532        -3.96517         6.05641
     2019.02806        -6.11124         6.04873
     2019.03080        -1.63630         6.03775
     2019.03353        -6.63836         5.88626
     2019.03627       -10.83642         5.96310
     2019.03901        -3.39848         5.95432
     2019.04175        -4.03854         5.97847
     2019.04449        -4.06061         5.98506
     2019.04722        -4.84267         5.99165
     2019.04996       -25.94173         6.08605
     2019.05270       -14.41079         6.20461
     2019.05544        -3.60485         6.03556
     2019.05817        -3.94192         6.16729
     2019.06091       -21.01598         6.07837
     2019.06365        -1.76704         6.01470
     2019.06639        -3.15310         6.08825
     2019.06913        -3.27316         6.08715
     2019.07186        -4.99922         6.01470
     2019.07460        -2.44329         5.89614
     2019.07734        -3.32835         5.85991
     2019.08008        -4.07241         5.87638
     2019.08282        -4.18347         6.05202
     2019.08555         1.45247         5.94883
     2019.08829        -3.52660         5.86760
     2019.09103        -7.80466         5.85113
     2019.09377        -4.13872         5.96091
     2019.09650         9.17322         5.99055
     2019.09924         2.57016         5.89614
     2019.10198        -2.69191         5.91919
     2019.10472        -3.89497         5.85333
     2019.10746        -2.43903         5.94005
     2019.11019         0.35291         5.91151
     2019.11293         5.13085         6.09045
     2019.11567         6.05879         6.21779
     2019.11841        12.92472         5.88955
     2019.12115        11.45066         6.08166
     2019.12388        16.01160         6.17937
     2019.12662         1.36054         6.01360
     2019.12936        -4.75452         6.00482
     2019.13210        -4.14059         5.95652
     2019.13483         1.28435         5.97189
     2019.13757         0.46129         6.00701
     2019.14031         2.83323         5.99823
     2019.14305        -1.29683         6.02677
     2019.14579        -7.93189         5.88955
     2019.14852       -11.89296         5.88955
     2019.15126        -2.49702         5.95322
     2019.15400        -8.64808         5.96201
     2019.15674       -12.47114         5.97189
     2019.15948        -4.94520         5.93237
     2019.16221        -7.88927         6.00482
     2019.16495        -5.23433         5.87967
     2019.16769       -11.94939         5.90163
     2019.17043        -8.10145         5.89394
     2019.17316        -8.32551         6.03556
     2019.17590       -11.64158         5.90602
     2019.17864        -1.30364         5.98396
     2019.18138        -0.73170         5.93237
     2019.18412       -10.37776         5.96201
     2019.18685        -6.49782         5.94334
     2019.18959        -8.85588         5.91261
     2019.19233        -4.62795         5.91480
     2019.19507       -10.04201         5.94664
     2019.19780       -12.30507         5.93346
     2019.20054       -11.26313         6.05861
     2019.20328       -19.42419         5.94444
     2019.20602       -14.62226         5.94664
     2019.20876       -14.76432         5.94115
     2019.21149       -10.27438         5.97079
     2019.21423        -4.88544         5.99165
     2019.21697        -7.43750         5.94774
     2019.21971       -10.45256         6.10472
     2019.22245        -9.54563         5.86321
     2019.22518       -25.62869         5.84894
     2019.22792       -10.76075         5.90822
     2019.23066        -5.72681         6.02019
     2019.23340        -4.63987         5.98067
     2019.23613       -13.83994         5.95322
     2019.23887       -12.51500         5.88077
     2019.24161       -12.49306         6.05861
     2019.24435       -12.07912         6.05312
     2019.24709        -8.50218         6.05532
     2019.24982        -6.38124         5.91480
     2019.25256        -6.96231         6.03775
     2019.25530       -15.68537         5.98725
     2019.25804        -1.18843         5.89724
     2019.26078         1.41351         5.97189
     2019.26351         0.53745         6.11021
     2019.26625        -3.80362         5.92798
     2019.26899        -6.63468         5.98177
     2019.27173        -2.27274         6.66678
     2019.27446        -6.56080         5.85552
     2019.27720        -6.40086         6.01360
     2019.27994        -3.08993         5.90382
     2019.28268        -5.54299         5.97298
     2019.28542         0.53195         5.94115
     2019.28815        -3.01711         5.91480
     2019.29089        -2.93817         5.90712
     2019.29363       -13.68123         5.92029
     2019.29637        -9.91530         6.16509
     2019.29911        -5.75636         6.02019
     2019.30184        -0.80142         6.00262
     2019.30458       -15.73348         5.92358
     2019.30732        -6.52354         5.93237
     2019.31006         0.81439         6.12997
     2019.31279       -13.74867         6.08605
     2019.31553         3.41227         5.97957
     2019.31827         0.50521         5.94554
     2019.32101        -5.67285         5.97298
     2019.32375       -15.69791         6.00482
     2019.32648        -9.27098         5.92139
     2019.32922        -9.13704         5.88406
     2019.33196        -5.72310         6.09484
     2019.33470        -4.95616         6.08605
     2019.33744        -7.90422         5.98835
     2019.34017        -7.43629         5.99384
     2019.34291        -4.50335         5.95981
     2019.34565         0.60059         6.11899
     2019.34839        -6.98047         6.09593
     2019.35112        -8.36953         6.03556
     2019.35386        -7.29860         5.97957
     2019.35660        -4.23166         5.91919
     2019.35934        -1.07072         5.95652
     2019.36208        -1.50478         6.02458
     2019.36481        -1.50284         6.11021
     2019.36755        -9.97090         5.96091
     2019.37029        -1.83397         5.96530
     2019.37303         2.87497         5.93895
     2019.37577        -0.63309         6.07069
     2019.37850        -3.22615         5.87638
     2019.38124         0.63079         5.89394
     2019.38398         0.46272         5.90712
     2019.38672        -4.67934         5.96640
     2019.38945        -7.58240         5.92358
     2019.39219        -0.53346         6.01360
     2019.39493        -1.48252         5.99933
     2019.39767        -5.85858         6.02787
     2019.40041        -1.72365         5.94993
     2019.40314        -0.48071         5.94115
     2019.40588         2.63223         6.00372
     2019.40862        -3.19883         5.93237
     2019.41136        -1.85789         6.06081
     2019.41410        -2.73496         6.04214
     2019.41683        -7.89702         6.02019
     2019.41957         4.07592         6.03117
     2019.42231         1.08286         5.97957
     2019.42505        -1.63120         5.91810
     2019.42778         6.02074         6.05641
     2019.43052         2.47367         6.00482
     2019.43326        -5.46839         6.00262
     2019.43600        -6.91145         6.09154
     2019.43874        -8.99851         6.07288
     2019.44147        -7.49557         6.04983
     2019.44421        -5.74364         6.07837
     2019.44695        -8.60370         6.26609
     2019.44969        -1.21776         6.15521
     2019.45243         2.22218         6.11679
     2019.45516        -2.90988         6.07178
     2019.45790         1.22905         6.07069
     2019.46064         4.86199         6.13985
     2019.46338         8.27793         6.42527
     2019.46611        16.15787         6.49004
     2019.46885         6.06881         6.19473
     2019.47159        -2.42325         6.03117
     2019.47433         4.76268         6.12667
     2019.47707         7.79362         6.03336
     2019.47980         6.76656         6.07178
     2019.48254        -0.69950         6.30341
     2019.48528         0.44044         6.17717
     2019.48802        -4.52663         6.08276
     2019.49076        -3.54669         5.96750
     2019.49349         0.92625         5.92578
     2019.49623         0.01919         6.00592
     2019.49897         3.02213         6.00482
     2019.50171         8.16907         5.92798
     2019.50444        -0.46600         5.85772
     2019.50718        -1.15706         5.92249
     2019.50992         4.06488         5.98945
     2019.51266         2.29482         6.00592
     2019.51540         5.55376         6.06300
     2019.51813         2.21969         5.88626
     2019.52087         0.58963         5.87858
     2019.52361         4.41157         5.92358
     2019.52635        -0.24349         6.08386
     2019.52908         0.49145         6.20571
     2019.53182        -6.44662         6.12997
     2019.53456         3.74632         6.03775
     2019.53730         0.31026         6.05312
     2019.54004        -2.68680         6.13106
     2019.54277        10.87614         6.17058
     2019.54551        12.33708         6.44942
     2019.54825         2.13001         5.88406
     2019.55099        -1.94705         5.91370
     2019.55373         4.37589         6.15302
     2019.55646         3.33883         6.08496
     2019.55920        -7.02823         6.31110
     2019.56194        13.28670         9.33217
     2019.56468         1.08764         6.00153
     2019.56741        -0.45342         5.97628
     2019.57015         1.19252         5.94005
     2019.57289         5.26246         6.10581
     2019.57563        -1.90060         5.92798
     2019.57837         4.93233         6.02238
     2019.58110         2.08327         5.93127
     2019.58384         5.18321         6.14424
     2019.58658         6.07415         5.95981
     2019.58932         5.92509         6.05422
     2019.59206         8.32302         6.06849
     2019.59479         7.27296         6.04434
     2019.59753         5.11290         6.16509
     2019.60027        10.67384         6.20901
     2019.60301         1.55178         6.01470
     2019.60574         7.41672         6.26828
     2019.60848        -2.61435         6.22767
     2019.61122        -8.71741         5.91370
     2019.61396         1.11453         6.06081
     2019.61670         0.80047         5.94664
     2019.61943         7.63141         5.88626
     2019.62217        12.71134         6.14424
     2019.62491         2.86328         6.05751
