# ================= DQRFIT RESULTS ================
# INPUT FILE: series/BRSP.rad
# OUTPUT: LDETRENDED
# FILTER FUNCTION: f(t)
# f(t)=+line(t)
# line(t)=+P 1+P 2*t
# heav(t)=(t<0?0:1)
# TOTAL OBSERVATIONS MTOT=  670
# INITIAL TIME INTERVAL= 2022.7488 - 2020.7675 =  1.9813
# TOTAL OBSERVATIONS AFTER PREFILTER M=  654
# TIME-SPAN= 2022.7488 - 2020.7675 =  1.9813
# OBSERVATIONS: USED M=   654 REJECTED MTOT-M=    16 %USED=   97.6119
# N=  2 PARAMETERS
# MAXSIG= 175.00000
# MAXRES=  53.44313
# SCALE FACTOR FOR LENGTHS: SCL=  10.00000
# SCALE FACTOR FOR SIGMAS: SCLSIG=   1.00000
# CHI^2=   3472.865 DOF=   652 CHI^2/DOF=   5.32648
# RMS=     13.289 SDEV=     13.295 MEAN=    0.32712
#  P #       PARAMETER +-    SIGMA %error PARAMETER NAME
# P 1 =     13539.39146 +- 1725.036  12.74 YZERO                              
# P 2 =        -6.72318 +-    0.853  12.69 SLOPE                              
#       T            LDETRENDED       SIG_OBS
     2020.76748        -4.49874        22.28294
     2020.76933         4.75169        13.01896
     2020.77207        -1.06691        12.49045
     2020.77481        -1.86950        12.62892
     2020.77754        18.63791        12.59430
     2020.78028        -4.01368        12.76047
     2020.78302        -5.10028        12.86433
     2020.78576         9.17713        12.65431
     2020.78850         2.15554        12.64738
     2020.79123        -5.01606        12.59892
     2020.79397        -2.94265        12.57353
     2020.79671         2.60576        12.81817
     2020.79945        -8.28983        12.75586
     2020.80219        -2.82443        12.85740
     2020.80492         9.21198        12.55507
     2020.80766         9.60739        12.77201
     2020.81040        -5.77321        12.74662
     2020.81314        -0.51980        12.63584
     2020.81587         4.08061        12.56199
     2020.81861        -3.85499        12.69816
     2020.82135        -0.89658        12.76740
     2020.82409        -1.55617        12.67277
     2020.82683        -4.58176        12.76278
     2020.82956        -5.47736        12.72816
     2020.83230         5.89505        12.83663
     2020.83504        -4.09454        12.79509
     2020.83778        -3.76514        12.58045
     2020.84052         0.78927        12.74432
     2020.84325        -9.42232        12.90818
     2020.84599         0.98509        12.99588
     2020.84873         2.63449        12.55045
     2020.85147        -1.49010        12.50660
     2020.85420         1.24031        12.49045
     2020.85694         2.89871        12.71431
     2020.85968        26.87812        12.58276
     2020.86242        30.14553        12.75355
     2020.86516        23.77093        12.96818
     2020.86789        22.06134        13.06281
     2020.87063        24.94775        12.74893
     2020.87337        30.28916        12.74893
     2020.87611        15.58856        12.91741
     2020.87885         2.36397        13.04204
     2020.88158        10.94138        12.99357
     2020.88432         8.87578        12.81586
     2020.88706         8.42719        13.15974
     2020.88980        -4.59140        12.79278
     2020.89253        -2.10499        12.59892
     2020.89527        17.75641        13.13435
     2020.89801        30.62782        13.31437
     2020.90075        21.04123        12.73970
     2020.90349        13.44363        12.70739
     2020.90622         6.02804        12.74201
     2020.90896         5.54645        13.11358
     2020.91170        -1.57515        13.17359
     2020.91444         2.03126        13.06050
     2020.91718         3.22067        12.67969
     2020.91991       -14.95292        12.71431
     2020.92265        -9.75352        12.73047
     2020.92539       -11.35011        12.66815
     2020.92813       -11.45370        12.75816
     2020.93086        -6.91830        12.73508
     2020.93360        -9.40389        12.70508
     2020.93634       -11.84748        12.72585
     2020.93908         3.31393        12.64969
     2020.94182        -2.14167        12.59430
     2020.94455        -7.66326        12.71431
     2020.94729       -11.64785        12.65200
     2020.95003        -6.71445        12.81355
     2020.95277         3.12796        12.64738
     2020.95551        13.77537        12.99588
     2020.95824        31.65877        13.29360
     2020.96098         9.67918        12.88048
     2020.96372         9.70759        12.91741
     2020.96646        30.26700        13.82904
     2020.96919         3.95640        13.21975
     2020.97193        -6.55219        12.50429
     2020.97467         5.94722        12.88971
     2020.97741        -6.32938        12.95203
     2020.98015       -11.66097        13.26591
     2020.98288       -14.22256        12.93818
     2020.98562         3.12385        12.54353
     2020.98836         5.75725        12.58969
     2020.99110        -3.30334        12.64738
     2020.99384        -7.46593        12.58738
     2020.99657        -6.32453        12.61507
     2020.99931        18.07988        12.62430
     2021.00205         1.91529        12.67508
     2021.00479        16.28369        12.59661
     2021.00752        27.22410        12.63815
     2021.01026        21.58951        12.66123
     2021.01300        22.52492        12.51583
     2021.01574         0.12832        12.63584
     2021.01848         9.70573        12.51352
     2021.02121        -4.96086        12.64969
     2021.02395        -1.50146        12.58738
     2021.02669        -6.76105        12.49968
     2021.02943        -9.88864        12.53430
     2021.03216        -4.84324        12.69585
     2021.03490         0.68217        12.72585
     2021.03764       -11.36842        12.75355
     2021.04038       -14.48301        12.73278
     2021.04312        -7.18161        12.64277
     2021.04585        -7.20820        12.63815
     2021.04859        -8.84479        12.69585
     2021.05133       -13.11239        12.72585
     2021.05407        -9.60998        13.25206
     2021.05681         9.06243        13.00049
     2021.05954       -15.30616        12.63815
     2021.06228       -13.07276        12.56891
     2021.06502       -12.37735        12.60584
     2021.06776         1.28006        12.54584
     2021.07049         6.66846        12.58045
     2021.07323         3.72087        12.59199
     2021.07597       -10.51172        12.50198
     2021.07871       -10.17132        12.60353
     2021.08145        -5.32091        12.55276
     2021.08418         0.96750        12.45352
     2021.08692        -2.76909        12.52737
     2021.08966        -3.72869        12.50198
     2021.09240        -9.79728        12.52737
     2021.09514        -8.85487        12.88279
     2021.09787        19.56553        13.39976
     2021.10061        40.55094        14.09214
     2021.10335         7.69235        13.38361
     2021.10609        18.06376        13.63748
     2021.10882        14.42316        13.42054
     2021.11156        12.71457        13.27052
     2021.11430        -7.04002        13.13666
     2021.11704        -7.34362        12.46737
     2021.11978        -1.16321        12.59430
     2021.12251        10.59420        12.62661
     2021.14442        35.41945        16.81548
     2021.14989        22.72627        17.24937
     2021.15263        30.29868        17.87943
     2021.16358        29.35630        17.29091
     2021.16906       -11.63088        16.47391
     2021.17180        -1.66548        16.46006
     2021.17453        -7.65307        15.45150
     2021.17727       -14.07066        14.50756
     2021.18001       -16.82025        14.61373
     2021.18275       -20.35785        14.71989
     2021.18548       -22.10344        14.37601
     2021.18822       -18.86803        13.64671
     2021.19096       -13.26363        13.61671
     2021.19370       -13.40822        13.37669
     2021.19644       -15.02281        12.98203
     2021.19917       -15.21140        12.87125
     2021.20191       -11.82800        12.67277
     2021.20465       -10.68559        12.73739
     2021.20739       -15.33518        12.65431
     2021.21013       -11.44878        12.92433
     2021.21286       -13.81937        12.83894
     2021.21560        -3.23496        12.46506
     2021.21834        -1.30556        12.49045
     2021.22108         3.45085        12.47429
     2021.22381         3.34326        12.49275
     2021.22655       -12.25033        12.51352
     2021.22929        13.67607        12.45813
     2021.23203         3.78048        12.55507
     2021.23477       -20.30111        12.49968
     2021.23750       -14.24671        12.57353
     2021.24024        -9.85730        12.42813
     2021.24298        -7.05289        12.52506
     2021.24572       -17.73348        12.47429
     2021.24846       -13.27408        12.80894
     2021.25119       -13.87467        12.52276
     2021.25393       -13.67526        12.50429
     2021.25667       -14.34286        12.47660
     2021.25941       -10.92845        12.48121
     2021.26214       -10.86904        12.55045
     2021.26488        -8.04464        12.55045
     2021.26762        -1.04123        12.62661
     2021.27036        -6.17682        12.71662
     2021.27310         0.99959        12.54584
     2021.27583         2.61899        12.55737
     2021.27857       -10.66660        12.79278
     2021.28131       -11.23919        12.71662
     2021.28405       -10.60379        12.74662
     2021.28679       -10.11738        12.81586
     2021.28952       -12.49197        12.71431
     2021.29226       -11.07256        12.87356
     2021.29500        -8.91416        12.73970
     2021.29774        -5.16375        13.18513
     2021.30047        -8.78634        12.81355
     2021.30321        -3.39094        12.83432
     2021.30595        -4.21053        13.16436
     2021.30869         2.70388        13.16436
     2021.31143        -3.96972        12.65200
     2021.31416        -2.09331        12.58969
     2021.31690        -2.63590        12.58507
     2021.31964        -4.09049        12.82740
     2021.32238       -11.84909        13.00049
     2021.32512       -15.16668        12.70508
     2021.32785       -13.30127        12.79047
     2021.33059       -12.11487        12.63123
     2021.33333       -10.49046        12.51352
     2021.33607       -10.98705        12.48583
     2021.33880       -15.36864        12.52737
     2021.34154        -7.61124        12.69585
     2021.34428       -17.50383        12.88741
     2021.34702        -5.17242        12.49968
     2021.49861        -7.71023        25.62711
     2021.50034        -4.10863        12.98203
     2021.50308        -6.99722        12.75124
     2021.50581       -11.64681        12.87587
     2021.50855       -12.40941        12.82509
     2021.51129        -5.63200        12.68662
     2021.51403        -8.72259        13.06281
     2021.51676        -3.83919        12.85510
     2021.51950        -4.53278        12.96357
     2021.52224       -10.87037        12.86433
     2021.52498        -4.30596        12.64508
     2021.52772        -6.16256        12.77432
     2021.53045        -6.41115        12.76047
     2021.53319       -11.34474        12.77201
     2021.53593        -7.94034        12.88510
     2021.53867        -5.65193        13.61209
     2021.54141        -8.14152        12.96818
     2021.54414       -13.59412        13.06512
     2021.54688       -21.83971        12.83432
     2021.54962       -10.90530        12.91741
     2021.55236        -6.54489        12.80894
     2021.55509        -3.62849        12.92895
     2021.55783        -5.43408        12.99126
     2021.56057        -4.38167        12.74432
     2021.56331        -2.03327        12.80432
     2021.56605        -9.22686        12.76278
     2021.56878       -12.17745        12.91510
     2021.57152       -11.64005        12.80663
     2021.57426       -13.36164        12.97972
     2021.57700         4.09877        13.16436
     2021.57974        -6.92982        12.86894
     2021.58247       -11.39442        12.79740
     2021.58521       -10.67201        12.79971
     2021.58795       -10.06360        12.78124
     2021.59069        -6.19220        12.88279
     2021.59342        -6.06679        12.89664
     2021.59616       -14.51438        13.24744
     2021.59890        -4.61797        12.82509
     2021.60164        -4.67157        12.99357
     2021.60438        -2.82716        12.68431
     2021.60711        -2.07875        12.78355
     2021.60985        -1.00135        12.84817
     2021.61259        -3.27694        12.80201
     2021.61533        -5.53253        12.57584
     2021.61807        -1.31313        12.63584
     2021.62080        -4.69672        12.80432
     2021.62354        -8.75131        12.83202
     2021.62628        -8.13490        13.01203
     2021.62902         0.07650        12.61276
     2021.63175        -1.21009        12.73047
     2021.63449        -1.53368        12.65662
     2021.63723        -1.35228        13.41361
     2021.63997        -0.39087        13.01665
     2021.64271         0.11954        13.03281
     2021.64544        -0.93705        12.64508
     2021.64818        -1.96665        12.71201
     2021.65092        -7.88924        12.92203
     2021.65366        -8.14983        12.81355
     2021.65639        -0.96543        12.80663
     2021.65913        -3.76102        12.60123
     2021.66187         4.50139        12.59892
     2021.66461        -4.86421        12.67508
     2021.66735         2.25720        12.70047
     2021.67008        -1.82739        12.94972
     2021.67282         1.18102        13.21744
     2021.67556         3.49842        13.23129
     2021.67830        -3.11917        13.10435
     2021.68104        -2.17876        12.70970
     2021.68377         0.89264        12.77201
     2021.68651        -0.68695        13.16436
     2021.68925        -2.95654        12.75586
     2021.69199         2.30587        12.70739
     2021.69472         5.33927        12.93818
     2021.69746        -0.40232        12.79509
     2021.70020         1.58709        12.68431
     2021.70294        -1.02251        12.79278
     2021.70568         4.33490        12.96588
     2021.70841         4.23031        12.70739
     2021.71115         3.42971        12.85279
     2021.71389        -0.01588        13.16897
     2021.71663        -0.82347        12.82971
     2021.71937        -3.95506        12.78586
     2021.72210        -2.43666        12.76740
     2021.72484        -1.24525        12.83663
     2021.72758        -0.93884        12.70970
     2021.73032        -7.45144        13.42054
     2021.73305         3.61497        12.73970
     2021.73579         9.11438        12.93357
     2021.73853         8.63979        13.12743
     2021.74127        16.65619        12.71431
     2021.74401         3.69060        12.71893
     2021.74674        -2.42699        12.86202
     2021.74948         4.41641        12.92433
     2021.75222         6.02482        12.80894
     2021.75496         8.22423        12.89433
     2021.75770         5.00463        12.95434
     2021.76043         2.83404        13.01665
     2021.76317        -1.63055        12.80894
     2021.76591         1.09586        12.72816
     2021.76865        -1.28074        12.79278
     2021.77138         6.39067        12.64508
     2021.77412        17.11108        12.95203
     2021.77686        25.73648        12.78124
     2021.77960        16.74389        12.88741
     2021.78234        14.04030        12.83894
     2021.78507        37.53871        12.73508
     2021.78781        18.68611        12.97972
     2021.79055         0.53452        12.73739
     2021.79329         0.79293        12.78355
     2021.79603         4.16233        12.72124
     2021.79876        -1.36126        12.85740
     2021.80150         0.51715        13.19898
     2021.80424         2.53755        13.55670
     2021.80698         2.66796        12.72354
     2021.80971         2.34037        12.76047
     2021.81245         9.57678        13.09050
     2021.81519         5.58318        12.67508
     2021.81793        14.42059        12.81817
     2021.82067        25.33100        12.95895
     2021.82340        17.14340        13.16205
     2021.82614         9.87481        12.82740
     2021.82888         6.53622        12.98203
     2021.83162        -1.92937        12.84586
     2021.83436         1.90203        12.89433
     2021.83709        -2.52256        12.98665
     2021.83983        -8.91315        13.09743
     2021.84257         0.82725        13.17820
     2021.84531        28.37566        13.06742
     2021.84804        24.17907        12.87587
     2021.85078        15.90247        12.86894
     2021.85352        11.37888        12.83663
     2021.85626        15.68829        12.93818
     2021.85900        25.80170        12.79740
     2021.86173         1.42410        13.27975
     2021.86447        -9.28349        13.10897
     2021.86721        -3.37008        13.19205
     2021.86995        -2.77568        13.24052
     2021.87269        -0.31327        13.08820
     2021.87542        16.01214        13.07435
     2021.87816         2.77155        12.72354
     2021.88090        -8.88405        12.66815
     2021.88364        -4.77764        12.87818
     2021.88637        -8.78023        12.69585
     2021.88911       -10.53683        12.82971
     2021.89185        -9.06742        12.74432
     2021.89459        -0.62701        12.73508
     2021.89733        -3.33561        12.69585
     2021.90006       -14.61120        12.77663
     2021.90280        -6.81279        12.86664
     2021.90554        -8.36638        12.83202
     2021.90828        -2.32998        12.83432
     2021.91102        -4.71157        12.86433
     2021.91375       -14.84616        12.76740
     2021.91649        -3.76476        12.76970
     2021.91923        -0.83135        13.04665
     2021.92197        -9.47294        13.47593
     2021.92470        -7.59953        12.91510
     2021.92744        42.58587        13.13666
     2021.93018        22.76028        13.33514
     2021.93292         2.88769        13.35591
     2021.93566        27.76109        13.61440
     2021.93839        45.14350        13.58671
     2021.94935        53.44313        13.42284
     2021.95482        38.96394        13.45746
     2021.95756        41.64935        13.46439
     2021.96030        30.94876        13.71826
     2021.96303        27.17616        14.00905
     2021.96577        45.86657        14.45910
     2021.96851        43.82798        14.66219
     2021.97125        41.78639        14.52372
     2021.97399        46.85679        14.95299
     2021.97672        30.01520        14.92991
     2021.97946        14.04561        15.31072
     2021.98220        17.30801        15.58305
     2021.98494        25.72042        15.88770
     2021.98767        11.14383        15.57151
     2021.99041        20.17723        15.39611
     2021.99315         9.64564        15.86231
     2021.99589        32.52105        15.29918
     2021.99863        26.79046        14.92761
     2022.00136        23.75386        14.67373
     2022.00410        33.12427        14.05983
     2022.00684         3.83668        13.39976
     2022.00958         1.54508        13.22898
     2022.01232        37.26949        14.01598
     2022.01505        50.64890        14.20523
     2022.01779        19.26131        14.65758
     2022.02053        18.58471        14.71066
     2022.02327        -2.14488        15.15609
     2022.02600         4.37953        14.86760
     2022.02874       -14.70807        13.62363
     2022.03148       -22.49166        13.09281
     2022.03422       -11.92525        13.05358
     2022.03696        11.33015        13.00280
     2022.03969       -16.12144        13.02588
