# ================= DQRFIT RESULTS ================
# INPUT FILE: series/BSUM.rad
# OUTPUT: LDETRENDED
# FILTER FUNCTION: f(t)
# f(t)=+line(t)+annual(t)+jumps(t)
# line(t)=+P 1+P 2*t
# annual(t)=+P 3*sin(2*pi*t+P 4)
# jumps(t)=+P 5*heav(t-2011.2964  )
# heav(t)=(t<0?0:1)
# TOTAL OBSERVATIONS MTOT= 3165
# INITIAL TIME INTERVAL= 2020.9500 - 2008.4408 = 12.5092
# TOTAL OBSERVATIONS AFTER PREFILTER M= 3145
# TIME-SPAN= 2020.9500 - 2008.4408 = 12.5092
# OBSERVATIONS: USED M=  3145 REJECTED MTOT-M=    20 %USED=   99.3681
# N=  5 PARAMETERS
# MAXSIG= 175.00000
# MAXRES= 155.70661
# SCALE FACTOR FOR LENGTHS: SCL=  10.00000
# SCALE FACTOR FOR SIGMAS: SCLSIG=   1.00000
# CHI^2=   2269.187 DOF=  3140 CHI^2/DOF=   0.72267
# RMS=     16.796 SDEV=     16.798 MEAN=    0.03115
#  P #       PARAMETER +-    SIGMA %error PARAMETER NAME
# P 1 =      4196.45961 +-   64.060   1.53 YZERO                              
# P 2 =        -2.08226 +-    0.032   1.53 SLOPE                              
# P 3 =         5.78898 +-    0.130   2.25 ANNUAL AMPLITUDE                   
# P 4 =        -3.02188 +-    0.032   1.05 ANNUAL PHASE                       
# P 5 =        -0.14600 +-    0.293 200.93 OFFSET 2011.2964                   
#       T            LDETRENDED       SIG_OBS
     2008.44079        -5.07860         4.71211
     2008.44353        -6.48990         4.70956
     2008.44626        -4.18220         4.72656
     2008.44900        -5.47949         4.58714
     2008.45174        -7.34779         4.70616
     2008.45448        -3.21309         4.73251
     2008.45722        -4.63139         4.60415
     2008.45995        -2.65769         4.61605
     2008.48676        -4.61187         6.03061
     2008.49007        -4.10198         4.62625
     2008.49281        -4.10928         4.60330
     2008.49555        -8.46358         4.73676
     2008.49828        -3.63688         4.73421
     2008.50102        -5.12018         4.80392
     2008.50376        -1.17148         4.83707
     2008.50650        -1.77778         4.66705
     2008.50924         1.13893         4.65770
     2008.51197        -2.71637         4.63730
     2008.51460        -0.59791         4.86768
     2008.52019         4.32073         4.66110
     2008.52292        -2.08157         4.80987
     2008.52566        -2.33987         4.77672
     2008.52840         3.81983         4.62540
     2008.53114         5.27053         4.67725
     2008.53388         4.48323         4.68320
     2008.53661        -0.51607         4.65855
     2008.53935        -0.34736         4.61180
     2008.54209        -0.67666         4.59989
     2008.54483         9.44004         4.71721
     2008.54757         5.82374         4.70701
     2008.55030         6.43844         4.66025
     2008.55304         6.95814         4.62795
     2008.55852         4.08054         4.66365
     2008.56125         1.98624         4.64155
     2008.56399         5.50694         4.67045
     2008.56673         3.23264         4.70021
     2008.56947         4.20535         4.62030
     2008.57221         8.93605         4.76651
     2008.57494         8.73375         4.77076
     2008.57768         6.37445         4.82347
     2008.58042         6.16015         4.66280
     2008.58316         3.56685         4.67215
     2008.58572         6.60119         4.98414
     2008.58863         5.13025         4.78947
     2008.59137         3.83895         4.58629
     2008.59411         6.07265         4.60500
     2008.59685         0.84435         4.75801
     2008.59958         6.35006         4.85748
     2008.60232         8.43876         4.86938
     2008.60506         9.41746         4.74186
     2008.60780         4.92616         4.75886
     2008.61054         4.73886         4.68065
     2008.61327         7.14856         4.69256
     2008.61601         7.73926         4.68916
     2008.61875         5.42296         4.67640
     2008.62149         7.32966         4.70106
     2008.62423         8.42136         4.69086
     2008.62696         2.24606         4.75121
     2008.62970         3.36777         4.84047
     2008.63244         7.87447         4.71466
     2008.63495         9.41269         5.34118
     2008.63752         8.26304         5.89630
     2008.64065         6.08357         4.74696
     2008.64339         8.37527         4.67470
     2008.64613         6.83597         4.83282
     2008.64887         2.26867         4.85237
     2008.65160         8.24537         4.67980
     2008.65434         3.94507         4.83452
     2008.65679         8.73318         5.73308
     2008.65982         3.39048         4.87448
     2008.66256         9.59518         4.73761
     2008.66529        12.15688         4.72401
     2008.66780         1.02910         5.18051
     2008.67077         5.46328         4.75716
     2008.67351         8.23598         4.74441
     2008.67602         3.52921         5.62342
     2008.67898         9.83938         4.72911
     2008.68172         6.15808         4.71466
     2008.68446         3.69578         4.74186
     2008.68720         4.25049         4.73846
     2008.68993         3.99819         4.81837
     2008.69267         6.53589         4.70531
     2008.69541         8.08059         4.73931
     2008.69815         9.79129         4.81497
     2008.70089         8.27599         4.71891
     2008.70362         8.23469         4.69256
     2008.70636        11.74739         4.70446
     2008.70910         9.61609         4.85918
     2008.71184         6.34379         4.86938
     2008.71457         2.14449         4.68065
     2008.71731         5.43920         4.74866
     2008.72005         6.47190         4.67470
     2008.72279         6.51660         4.73506
     2008.72553         2.67430         4.73591
     2008.72826         6.49800         4.66535
     2008.73100         7.10770         4.79712
     2008.73340         1.04469         5.47125
     2008.73648         8.24910         4.68150
     2008.73921         9.26980         4.76311
     2008.74469         5.88020         4.68490
     2008.74743         8.01891         4.67640
     2008.75017         9.10761         4.71806
     2008.75290        10.87931         4.69936
     2008.75564        10.24701         4.73251
     2008.75838         9.01871         4.70956
     2008.76112         9.65941         4.67810
     2008.76386         6.96811         4.66280
     2008.76659         1.60881         4.91018
     2008.76933         3.68051         4.87533
     2008.77207         2.16121         4.63135
     2008.77481         0.78391         4.66110
     2008.77754         3.79462         4.60415
     2008.78028         3.75032         4.64155
     2008.78302         2.94902         4.65175
     2008.78576         2.19172         4.63135
     2008.78850         3.74942         4.71041
     2008.79123         2.19512         4.74101
     2008.79397        -0.91918         4.75716
     2008.79671         7.28652         4.70956
     2008.79945         2.35622         4.66110
     2008.80219         9.85392         4.70871
     2008.80504         7.94786         4.86768
     2008.80766         5.09933         4.66875
     2008.81040         7.84803         4.76396
     2008.81314         6.79173         4.66790
     2008.81587         6.04643         4.68320
     2008.81861        -0.90187         4.66960
     2008.82135         2.02883         4.63645
     2008.82409         3.30953         4.76311
     2008.82683         2.46323         4.72656
     2008.82956         2.73593         4.65515
     2008.83230         1.33763         4.67980
     2008.83504         9.62833         4.67300
     2008.83778         9.72704         4.77417
     2008.84052         5.95074         4.71296
     2008.84325        11.56044         4.64495
     2008.84599         8.83114         4.66790
     2008.84873         4.66184         4.67980
     2008.85147        -0.11946         4.72656
     2008.85420         0.64624         4.82687
     2008.85694         9.53594         4.67470
     2008.85968         2.32864         4.69936
     2008.86242         6.78234         4.74696
     2008.86516        11.69604         4.72061
     2008.86789         0.64075         4.78692
     2008.87063         2.27445         4.84642
     2008.87337        -1.12485         4.74951
     2008.87616        -0.77503         4.82262
     2008.87902         1.42291         5.12611
     2008.88158        -0.32975         4.67385
     2008.88432        -0.39005         4.69766
     2008.88706        -3.44235         4.80307
     2008.88980        -2.35565         4.79967
     2008.89156        10.94003         8.68548
     2008.89801         6.66946         4.75971
     2008.90075         2.32316         4.72486
     2008.90349        -2.03514         4.66280
     2008.90622        -3.22144         4.75121
     2008.90896         4.72126         4.71126
     2008.91170        -2.71804         4.74016
     2008.91444         4.16866         4.74781
     2008.91678        -1.54647         5.47465
     2008.91991         1.33706         4.74441
     2008.92265         0.85976         4.68660
     2008.92539        -0.29854         4.74356
     2008.92813         3.54217         4.76481
     2008.93086        -5.01813         4.78692
     2008.93360        -4.32643         4.74016
     2008.93634        -1.61773         4.71381
     2008.93908        -8.90803         4.76991
     2008.94182        -4.74533         4.72826
     2008.94370        -3.27441         7.81923
     2008.94826        -9.37991        10.08899
     2008.95003       -15.77423         4.71296
     2008.95277        -6.53953         4.62625
     2008.95836        -4.21189         4.91698
     2008.96098        -2.42642         4.66705
     2008.96372        -1.12272         4.65090
     2008.96646       -12.63102         4.72401
     2008.96919       -12.26232         4.63135
     2009.00479        -5.57221         4.69596
     2009.00650        12.34835        10.24796
     2009.01574         0.96860         4.71891
     2009.01848         4.28630         4.72146
     2009.02121         1.22800         4.84217
     2009.02395        -7.23430         4.77587
     2009.02669       -13.88860         4.63305
     2009.02943       -15.40890         4.66960
     2009.03216       -10.89520         4.69681
     2009.03490       -14.36650         4.70701
     2009.03764       -11.26080         4.63985
     2009.04038       -10.91310         4.61095
     2009.04312       -15.55140         4.64410
     2009.04585       -14.14469         4.65345
     2009.04859       -11.91599         4.68320
     2009.05133        -7.17229         4.64920
     2009.05407        -9.82759         4.63390
     2009.05681        -6.92189         4.60925
     2009.05943        -6.42643         4.92973
     2009.06234       -11.63537         4.74441
     2009.06502        -7.74879         4.69936
     2009.06776       -11.89409         4.66960
     2009.07049       -15.49539         4.63050
     2009.07308       -12.07501         5.09805
     2009.07597        -5.01798         4.63475
     2009.07859       -10.13652         4.86853
     2009.08145        -6.04958         4.65005
     2009.08418        -3.35488         4.67810
     2009.08692        -6.82118         4.61860
     2009.08964        -6.37952         4.81667
     2009.09240        -7.54278         4.63220
     2009.09514        -5.60808         4.66280
     2009.09787        -0.45538         4.66620
     2009.10061        -0.50768         4.65940
     2009.10335        -8.89598         4.63900
     2009.10609        -2.83527         4.63135
     2009.10882        -9.35357         4.63220
     2009.11156        -6.83787         4.64750
     2009.11430       -13.48917         4.78352
     2009.11704        -2.43547         4.72061
     2009.11943        -6.07748         5.54606
     2009.12251        -0.54107         4.59479
     2009.12525        -4.04537         4.61775
     2009.12799         0.73833         4.65685
     2009.13073         3.25003         4.66365
     2009.13347        -4.84727         4.66960
     2009.13620        -7.58756         4.65175
     2009.13894        -7.62886         4.67300
     2009.14168        -6.51916         4.67300
     2009.14442        -4.25646         4.70021
     2009.14715        -5.01776         4.74186
     2009.14989        -6.79606         4.75971
     2009.15263        -5.39136         4.70701
     2009.15537        -8.00866         4.79202
     2009.15811        -9.29696         4.74866
     2009.16084        -6.47826         4.69766
     2009.16358         1.29344         4.70106
     2009.16632        -7.88185         4.70276
     2009.16906        -5.21815         4.79457
     2009.17180        -4.42245         4.69511
     2009.17453        -7.97275         4.69766
     2009.17727         0.18095         4.77502
     2009.18001        -8.61835         4.63220
     2009.18275        -4.99365         4.64580
     2009.18548        -6.81195         4.65090
     2009.18822        -9.11325         4.70106
     2009.19096        -9.30055         4.61350
     2009.19370        -6.62085         4.62795
     2009.19644        -4.31914         4.60840
     2009.19917         0.77256         4.67895
     2009.20191        -6.16374         4.69256
     2009.20465       -16.90704         4.72656
     2009.20739        -8.52934         4.66535
     2009.21013        -9.54764         4.62200
     2009.21195        -1.67584         7.71126
     2009.21469         0.04186         7.76567
     2009.21743        -6.10044         7.71806
     2009.22016         5.94326         7.69171
     2009.22290        -7.64704         7.72316
     2009.22564        -3.00033         7.77587
     2009.22838        -7.50963         7.80137
     2009.23112        -6.79693         7.79032
     2009.23385       -11.51523         7.82093
     2009.23659        -7.71153         7.85663
     2009.23933        -4.65583         7.93909
     2009.24207        -1.08013         7.94929
     2009.24480        -3.91343         7.94589
     2009.24754        -4.67673         7.93229
     2009.25028        -8.29603         7.94164
     2009.25302         0.05567         8.07766
     2009.25576         1.31538         8.09466
     2009.25849        -8.80692         8.14481
     2009.26123        -6.37022         8.17627
     2009.26397        -4.79552         8.09891
     2009.26671        -5.49682         8.04450
     2009.26945        -3.31712         8.05385
     2009.27310        -2.90852         4.68405
     2009.27583        -5.45382         4.70701
     2009.27857        -8.64112         4.72656
     2009.28131        -7.31842         4.67810
     2009.28405        -4.46972         4.69596
     2009.28679        -5.75601         4.82687
     2009.28952        -7.94431         4.69256
     2009.29226       -11.00461         4.76396
     2009.29500       -11.37191         4.73676
     2009.29774        -6.45021         4.76651
     2009.30047        -9.41051         4.78862
     2009.30321        -4.49481         4.78437
     2009.30595        -1.81711         4.86513
     2009.30869        -0.37941         4.77417
     2009.31143        -7.40371         4.76311
     2009.31416        -4.50001         4.81582
     2009.31690        -5.29330         4.74951
     2009.31964        -5.28460         4.79032
     2009.32238        -2.19690         4.67470
     2009.32397         1.61142        13.65857
     2009.32785        -8.88250         4.78692
     2009.33059        -7.29980         4.68490
     2009.33333        -5.90710         4.66025
     2009.33607        -4.21240         4.66280
     2009.33880        -3.01270         4.64240
     2009.34154        -8.98500         4.73931
     2009.34428        -5.05330         4.71721
     2009.34702        -5.94359         4.67300
     2009.34976        -5.21489         4.61265
     2009.35249        -8.85419         4.63390
     2009.35523       -10.78949         4.68150
     2009.35797        -7.48079         4.77417
     2009.36071        -8.84709         4.78437
     2009.36344        -3.13839         4.63730
     2009.36618        -4.28069         4.63900
     2009.36892        -5.22399         4.65855
     2009.37166        -5.54529         4.69341
     2009.37440       -10.08558         4.63645
     2009.37713        -9.96788         4.67810
     2009.37987        -2.24418         4.81327
     2009.38261        -6.83148         4.64665
     2009.38535        -5.26678         4.63985
     2009.38809        -9.28708         4.66025
     2009.39082        -9.39238         4.66450
     2009.39356        -6.73368         4.65600
     2009.39630        -5.11698         4.62540
     2009.39904        -5.77028         4.68320
     2009.40177        -3.54458         4.64920
     2009.40451        -1.05487         4.68660
     2009.40725        -5.45017         4.65005
     2009.40999        -1.64147         4.62795
     2009.41273        -5.31577         4.69426
     2009.41546         1.35093         4.68746
     2009.41820        -3.40437         4.70786
     2009.42094        -4.63967         4.66280
     2009.42368        -5.10497         4.74186
     2009.42642        -4.18727         4.66535
     2009.42915        -1.38057         4.76736
     2009.43189        -2.64287         4.72146
     2009.43463         0.37084         4.68575
     2009.43737        -0.56546         4.71126
     2009.44010        -5.38276         4.64750
     2009.44284        -6.67406         4.66365
     2009.44558        -1.97736         4.65175
     2009.44832        -2.07866         4.72741
     2009.45106        -2.04196         4.71721
     2009.45379        -1.15426         4.66790
     2009.45653        -1.57856         4.66535
     2009.45927        -2.26486         4.68831
     2009.46201         2.49784         4.72911
     2009.46475         6.16155         4.84727
     2009.46748        -0.99275         4.87873
     2009.47022         1.08195         4.66535
     2009.47570        -4.07665         4.68660
     2009.47843        -1.02295         4.77502
     2009.48117        -2.46925         4.76396
     2009.48391        -1.76555         4.68320
     2009.48665        -5.35785         4.71296
     2009.48939        -1.57115         4.74356
     2009.49212        -1.28945         4.75801
     2009.49486        -9.31174         4.88553
     2009.49760        -1.95604         4.77672
     2009.50034        -2.64334         4.66705
     2009.50308         0.20136         4.69936
     2009.50581         0.62006         4.69086
     2009.50855        -1.46724         4.70531
     2009.51129        -2.39754         4.75376
     2009.51403        -0.07884         4.69596
     2009.51676         2.84186         4.64495
     2009.51950         3.33456         4.66960
     2009.52224        -6.51974         4.66875
     2009.52498         1.72397         4.69511
     2009.52772        -3.10333         4.75036
     2009.53045         3.71137         4.71636
     2009.53319        -0.54993         4.67215
     2009.53593         2.22677         4.66280
     2009.53867        -0.12053         4.67130
     2009.54141         2.88117         4.65770
     2009.54414         5.64687         4.78097
     2009.54688        -0.53043         4.69171
     2009.54962         0.59227         4.65090
     2009.55236        -0.08203         4.65005
     2009.55509         7.64568         4.80052
     2009.55783         9.75038         4.68490
     2009.56057         2.07308         4.93993
     2009.56331         6.84278         4.92208
     2009.56605         1.86248         5.12951
     2009.56878        -2.03882         5.03770
     2009.57152         5.99388         4.74186
     2009.57426         6.07458         4.72996
     2009.57700         5.72428         4.95099
     2009.57974         4.44398         4.85748
     2009.58247         3.11368         4.70956
     2009.58521         0.95939         4.78182
