# ================= DQRFIT RESULTS ================
# INPUT FILE: series/BTON.rad
# OUTPUT: LDETRENDED
# FILTER FUNCTION: f(t)
# f(t)=+line(t)+annual(t)
# line(t)=+P 1+P 2*t
# annual(t)=+P 3*sin(2*pi*t+P 4)
# heav(t)=(t<0?0:1)
# TOTAL OBSERVATIONS MTOT= 1913
# INITIAL TIME INTERVAL= 2009.4428 - 2003.3593 =  6.0835
# TOTAL OBSERVATIONS AFTER PREFILTER M= 1905
# TIME-SPAN= 2009.4428 - 2003.3593 =  6.0835
# OBSERVATIONS: USED M=  1905 REJECTED MTOT-M=     8 %USED=   99.5818
# N=  4 PARAMETERS
# MAXSIG= 175.00000
# MAXRES=  50.63492
# SCALE FACTOR FOR LENGTHS: SCL=  10.00000
# SCALE FACTOR FOR SIGMAS: SCLSIG=   1.00000
# CHI^2=   1884.555 DOF=  1901 CHI^2/DOF=   0.99135
# RMS=      6.970 SDEV=      6.968 MEAN=    0.22508
#  P #       PARAMETER +-    SIGMA %error PARAMETER NAME
# P 1 =      4219.87418 +-  165.939   3.93 YZERO                              
# P 2 =        -2.09298 +-    0.083   3.95 SLOPE                              
# P 3 =         5.48818 +-    0.206   3.76 ANNUAL AMPLITUDE                   
# P 4 =        -2.34213 +-    0.037   1.59 ANNUAL PHASE                       
#       T            LDETRENDED       SIG_OBS
     2003.35934        10.66058         6.10542
     2003.36208         7.17031         6.01183
     2003.36481         9.25804         6.19901
     2003.36755         4.26577         6.29659
     2003.37303        -5.83877         6.17213
     2003.37577        -6.25104         6.04269
     2003.37850         0.85869         6.20100
     2003.38124        -0.31157         6.08551
     2003.38398         1.86116         6.09447
     2003.38672         1.47989         6.31949
     2003.38945         4.83662         6.08650
     2003.39219         3.56735         6.37923
     2003.39493         5.65008         6.08351
     2003.39767         8.32681         6.22888
     2003.40041        -0.06346         6.43200
     2003.40314        11.98427         6.46485
     2003.40588         5.98700         6.53256
     2003.40862         5.05373         6.38022
     2003.41136         8.39946         6.03572
     2003.41410         7.76019         6.07654
     2003.41683         3.52192         6.21494
     2003.41957         4.16065         6.25676
     2003.42505        14.90511         6.21793
     2003.42778         8.45984         6.23685
     2003.43052         1.83457         6.14823
     2003.43326         5.86330         6.14923
     2003.43600         2.85003         6.14724
     2003.43874         7.23176         6.08252
     2003.44147        -1.29651         6.07953
     2003.44421         1.25322         6.19702
     2003.44695         2.36395         6.29758
     2003.44969         4.85968         6.05862
     2003.45243        -1.96059         6.01481
     2003.45516         0.32314         6.02278
     2003.45767        -1.33060         6.67892
     2003.46064        -2.44640         6.19802
     2003.46338         3.50933         7.14589
     2003.46611        10.77306         6.03373
     2003.46885         4.60779         6.11040
     2003.47159        -4.69148         6.04468
     2003.47433         6.42925         6.11438
     2003.47707         8.67698         6.17312
     2003.47980        15.33971         6.21195
     2003.48254         5.25245         6.68490
     2003.48528         7.21318         6.38520
     2003.48802        -0.54209         6.31849
     2003.49076        10.15264         6.49373
     2003.49349         5.05437         6.31252
     2003.49623         1.85110         6.13927
     2003.49897        -0.43317         6.16416
     2003.50171         6.95356         6.48178
     2003.50444        -0.54771         6.54351
     2003.50718         5.01702         6.38122
     2003.50992         6.19375         6.26373
     2003.51540         0.43621         6.33044
     2003.51791        10.70646         6.51762
     2003.52908         7.65286         6.22490
     2003.53182        -3.37541         6.66299
     2003.53456        14.34932         7.16680
     2003.53730         7.82905         6.29360
     2003.54004         2.49978         6.45689
     2003.54277        -3.51449         6.29360
     2003.54551        -6.51176         6.28364
     2003.54825        -3.99603         6.82927
     2003.55110         5.71694         6.91788
     2003.55373        -4.09657         6.85615
     2003.55646        -0.13884         6.19005
     2003.55920        12.31389         6.62814
     2003.56194        12.84962         6.45888
     2003.56468        11.67135         6.37027
     2003.56741         3.13408         6.20299
     2003.57015         3.42781         6.40611
     2003.57289         7.50054         6.45091
     2003.57563        12.34627         6.28862
     2003.57837        11.36400         6.19503
     2003.58105        17.06562         6.95472
     2003.63586         5.09634         6.00884
     2003.63860         6.50007         6.25776
     2003.64407         9.35953         6.23884
     2003.64681         4.41826         6.01979
     2003.64955         2.56699         6.26771
     2003.65229         8.21072         6.01780
     2003.65503         2.02345         6.14126
     2003.65776        -1.94282         5.98893
     2003.66050         4.11691         6.10343
     2003.67419        12.09356         6.50866
     2003.67693         6.43229         6.01382
     2003.67967         4.79902         6.06957
     2003.68240         7.19476         6.27369
     2003.68514        -4.85051         6.22490
     2003.68839       -11.65171         9.94968
     2003.69016         3.33099         7.70545
     2003.69336         4.64168         6.42901
     2003.69611         7.25144         6.19304
     2003.69883         6.13614         6.18308
     2003.70157        14.00187         6.13628
     2003.70425         4.33048         6.26771
     2003.70706         5.89836         6.45490
     2003.70978        -5.65094         6.69187
     2003.71252        10.59079         6.20200
     2003.71526         6.25152         6.24879
     2003.71800         3.54825         6.09745
     2003.72073        12.73998         6.37325
     2003.72347         0.24471         6.40014
     2003.72615        11.80632         6.80338
     2003.72895         7.10317         6.35732
     2003.73169        -1.11510         6.52658
     2003.73442        13.84063         6.20299
     2003.73716         2.49336         6.36927
     2003.73990         5.65809         6.15122
     2003.74264         4.04982         6.36429
     2003.74538         9.22255         6.24581
     2003.74811         2.93728         6.36827
     2003.75085        -3.58499         6.31650
     2003.75359         6.46874         6.44494
     2003.75633        -6.13953         6.05564
     2003.75906         9.24520         6.05066
     2003.76180         3.62293         6.44295
     2003.76454        -6.93734         6.46685
     2003.76728        -7.15961         6.51265
     2003.77002         0.20812         6.15321
     2003.77275        -9.10715         6.21892
     2003.77549       -11.78442         6.19802
     2003.77823       -18.34569         6.21892
     2003.78097        -8.03296         6.15022
     2003.78376        -0.29611         6.24680
     2003.78644         2.23251         6.28165
     2003.78918         2.22524         5.88936
     2003.79192         4.89297         6.33044
     2003.79466         1.08470         6.17810
     2003.79739        -1.06657         6.03174
     2003.80013        10.01516         6.26473
     2003.80287         2.00689         5.87642
     2003.80561        16.62162         6.77152
     2003.80835         0.76335         6.14425
     2003.81108         0.71408         6.12434
     2003.81382        -5.11019         6.28563
     2003.81656        -4.94046         5.95109
     2003.81930         3.45527         6.05564
     2003.82203         7.27200         6.03074
     2003.82477         5.15773         7.23649
     2003.82745        -7.09266         6.88702
     2003.83025        -5.56980         6.17810
     2003.83299        -1.14608         5.84356
     2003.83572         5.79565         6.16118
     2003.83846         1.38938         6.18607
     2003.84120         0.24311         6.42503
     2003.84394        -2.99916         6.32148
     2003.84668        -4.16543         5.89832
     2003.84941         7.56430         6.06758
     2003.85215        -1.79397         5.96603
     2003.85489        13.46476         6.00187
     2003.85763         2.42349         6.54550
     2003.86036        12.85622         7.01347
     2003.86310        11.20595         7.17875
     2003.86584         4.29268         6.21992
     2003.86858         8.19041         6.14027
     2003.87679        -2.58640         6.21992
     2003.87953        -1.49467         6.34139
     2003.88227        -4.94393         6.79143
     2003.88501        -5.62720         6.70182
     2003.88774         8.12653         7.06922
     2003.89048         0.97126         6.50468
     2003.89322         1.38399         7.42169
     2003.91786         0.92456         6.82927
     2003.92060         1.19329         6.28563
     2003.92334        -4.19398         6.55347
     2003.92607        -2.00425         6.39018
     2003.92881         0.07348         6.19304
     2003.93155        -2.22379         6.22988
     2003.93429        10.71994         6.55944
     2003.93702        -1.09233         6.03274
     2003.93971         3.24828         5.98893
     2003.94250         7.07613         6.04369
     2003.94507        -7.23950         6.37823
     2003.95893        -5.77949         6.23087
     2003.96167         1.80024         6.19105
     2003.96440         6.41397         6.37126
     2003.96714        -8.10130         6.12234
     2003.96988        -3.34157         6.32446
     2003.97262         6.92416         6.25776
     2003.97535        -0.38111         6.05862
     2003.97809        -9.38038         6.20797
     2003.98083        -4.49765         6.05763
     2003.98357        -0.61191         6.14724
     2003.98631       -18.20518         5.86248
     2003.98904       -18.23545         6.12234
     2003.99178        -5.60072         6.60524
     2003.99452        -7.84199         6.29360
     2003.99726       -14.15326         6.11239
     2004.00273       -19.84080         6.23884
     2004.00547       -19.54607         6.11239
     2004.00821        -7.60434         6.16217
     2004.01089       -20.81973         6.40611
     2004.01357        -8.61312         6.40113
     2004.01574        15.86342         8.49900
     2004.03559       -13.90604         6.04468
     2004.03833       -14.35231         5.92222
     2004.04106       -10.50458         6.17512
     2004.04380        -7.00185         5.93217
     2004.04654       -13.75612         5.95308
     2004.04928        -6.10839         6.17014
     2004.05201       -13.87366         6.07356
     2004.05470       -10.16105         6.32646
     2004.05755        -6.57908         6.37524
     2004.06023       -22.02147         6.60325
     2004.06297       -14.37774         6.09745
     2004.06570       -16.01101         6.00386
     2004.06844        -0.81328         6.04369
     2004.07198       -28.60687         9.37618
     2004.07392         9.17318        11.03695
     2004.07666        -1.47309         6.20100
     2004.07939         1.06764         6.11040
     2004.08213        -6.79662         5.94711
     2004.08487       -13.91989         5.93616
     2004.08761        -4.23716         5.90927
     2004.09034        -1.04643         6.15819
     2004.09308       -14.94970         6.46286
     2004.09582        -8.50297         5.97001
     2004.09856        -5.15724         6.10243
     2004.10130        -7.54251         6.03871
     2004.10403       -13.94478         6.25576
     2004.10671        -5.80217         6.16914
     2004.10951        -1.52032         6.04369
     2004.11225        -2.33259         6.31152
     2004.11498       -10.42986         6.04269
     2004.11772         6.59987         6.30853
     2004.12046       -13.48840         6.13728
     2004.12320        -7.28967         6.50468
     2004.12594        -2.53194         6.10144
     2004.12867        -8.67121         6.39117
     2004.13141       -18.67448         6.21295
     2004.13415       -18.01075         6.37226
     2004.13683        -6.13514         6.12135
     2004.13963         2.49271         5.87044
     2004.14236        -0.33156         6.11040
     2004.14504        -3.91095         6.22291
     2004.14784        -4.04110         6.52758
     2004.15058        -1.88537         6.18208
     2004.15331         0.05236         6.15221
     2004.15609       -13.16283         6.26871
     2004.15879       -19.87418         6.06758
     2004.16153        -4.94645         6.29061
     2004.16427       -11.56772         6.14325
     2004.16700        -6.40799         6.13131
     2004.16974        -9.93826         6.18806
     2004.17248        -8.88553         6.35334
     2004.17522         1.01920         6.39914
     2004.17796        -5.19007         6.23685
     2004.18069        -3.18934         6.16217
     2004.18438        -7.60863        11.12158
     2004.18984        -0.54619        11.13851
     2004.19164        -2.63941         6.19702
     2004.19438        -7.92668         6.22291
     2004.19712        -1.22295         6.15122
     2004.19986        -6.65222         6.26771
     2004.20260       -10.77749         6.26970
     2004.20533       -12.88976         6.18109
     2004.20807        -0.81703         6.66797
     2004.21081         4.61570         6.53355
     2004.21355         2.41043         6.49871
     2004.21629        -0.76184         6.41009
     2004.21902        -2.40611         6.64507
     2004.22176        -5.28838         6.41009
     2004.22450         0.83135         6.50767
     2004.22724         7.75408         6.35832
     2004.22997        -2.89819         6.32048
     2004.23271        -4.31246         6.33840
     2004.23545        -1.77573         6.52459
     2004.23819        -8.51100         6.34338
     2004.24093        -6.51527         6.46386
     2004.24366        -8.50954         6.40014
     2004.24640        -8.41581         6.14724
     2004.24914        -8.31508         6.24979
     2004.25188        -2.52035         6.15719
     2004.25462        -1.83562         6.26970
     2004.25735         0.16711         6.23685
     2004.26009        -3.24516         6.23286
     2004.26283        -5.06043         6.08750
     2004.26557         4.83330         6.44992
     2004.26830        -4.30497         6.00187
     2004.29939         1.97110        10.46245
     2004.30116        -6.76920         6.09247
     2004.30390        -1.14047         6.16018
     2004.30663        -2.84574         5.98893
     2004.30937         9.69199         6.10442
     2004.31211        -3.17228         6.12234
     2004.31485        -3.44555         6.25178
     2004.31759        -3.10682         6.08849
     2004.32032         3.81991         6.18408
     2004.32407       -14.52224        10.57197
     2004.32580         0.03137         6.23983
     2004.32854         0.61210         6.26672
     2004.33128        -1.20217         6.25278
     2004.33401         2.38956         6.39217
     2004.33675        -1.71971         6.28962
     2004.33949         6.42802         6.53355
     2004.34223        14.36975         6.55645
     2004.34496         6.51948         6.20200
     2004.34770         3.31021         6.19702
     2004.35044        -1.19806         6.29260
     2004.35318        -4.82233         6.41109
     2004.35592         4.76040         6.18905
     2004.35865        -0.70687         6.24382
     2004.36139        11.52786         6.19403
     2004.36779        -3.64274         9.69180
     2004.36961         0.89805         6.25178
     2004.37875         0.76319         9.95167
     2004.38056         5.21297         6.26572
     2004.38329         7.10571         6.14425
     2004.38603         5.44344         6.18208
     2004.38877         8.82317         6.24083
     2004.39151         0.57490         6.15918
     2004.39425         3.77163         6.08053
     2004.39698        -0.51464         6.31750
     2004.39972        10.73409         6.07455
     2004.40246         1.39282         6.32944
     2004.40613        -2.37049        11.55171
     2004.40794        -2.60472         6.18806
     2004.41067         9.65201         6.15022
     2004.41341         1.46874         5.94014
     2004.41615         2.32947         6.05464
     2004.41889         3.71020         6.06261
     2004.42162        -5.54007         6.06758
     2004.42521         2.34543         9.50562
     2004.42710        -5.63361         6.23486
     2004.42984        -3.32488         6.31351
     2004.43258        -4.89415         6.18507
     2004.43909       -12.49952        12.88192
     2004.44196       -21.07551        22.32580
     2004.44353         3.87277         6.02278
     2004.44626         8.45950         6.27468
     2004.44900         1.27023         6.32646
     2004.45287        -4.06768        17.81643
     2004.45561         9.06607        18.41084
     2004.46081        -5.34106        10.05024
     2004.46269       -14.42512         6.21096
     2004.47169       -11.25227         9.37618
     2004.47364         4.37380         6.17611
     2004.47638       -15.16347         6.16815
     2004.47912        -4.11374         6.12633
     2004.48186         5.43799         6.25676
     2004.48459        -2.96427         6.06758
     2004.48733        -0.42154         6.22888
     2004.49007        -6.02481         6.30754
     2004.49281       -15.30008         6.55048
     2004.49555         0.30865         6.24282
     2004.49828        10.52738         6.21793
     2004.50102        -5.14089         6.11737
     2004.50376        -4.35216         6.34637
     2004.50650       -10.80043         6.39317
     2004.50924         0.60530         6.28066
     2004.51197         7.56003         6.36031
     2004.51471        -2.33524         6.33741
     2004.52019        -6.30078         6.21395
     2004.52292       -10.20205         6.07555
     2004.52566         0.10568         6.09148
     2004.53114         6.54314         6.37624
     2004.53388        -4.68713         6.21594
     2004.53661         1.59760         6.30555
     2004.53935         5.99833         6.53555
     2004.54209         6.93606         6.47182
     2004.54483        12.44879         6.35533
     2004.54757        -5.31848         6.47780
     2004.55121       -15.15885        12.47170
     2004.55304         3.78998         6.07854
     2004.55578         3.88071         6.12434
     2004.55852         5.02344         6.02875
     2004.56125         0.50317         6.27767
     2004.56399        -4.54610         6.20698
     2004.56673         3.35963         6.19403
     2004.56947        -0.26064         6.19204
     2004.57221         2.41509         6.08351
     2004.57494         0.04082         6.22789
     2004.57768         2.01955         6.14525
     2004.58042         7.47628         6.19304
     2004.58316        -3.86898         6.19204
     2004.58590        -1.25125         6.19503
     2004.58863         8.75148         6.23585
     2004.59137        12.02321         6.20399
     2004.59411         3.40894         6.51464
     2004.59685         0.12167         6.36927
     2004.59958        -0.46560         6.26174
     2004.60232         6.88613         6.15918
     2004.60506         4.07586         6.02875
     2004.60780         1.37359         6.02178
     2004.61054         3.14032         6.02079
     2004.61327        -0.28495         6.03373
     2004.61601         4.85978         6.29061
     2004.61875         7.99751         6.22689
     2004.62149        -1.26476         6.07256
     2004.62423         2.40697         6.39715
