# ================= DQRFIT RESULTS ================
# INPUT FILE: series/BUFF.rad
# OUTPUT: LDETRENDED
# FILTER FUNCTION: f(t)
# f(t)=+line(t)
# line(t)=+P 1+P 2*t
# heav(t)=(t<0?0:1)
# TOTAL OBSERVATIONS MTOT=  647
# INITIAL TIME INTERVAL= 2018.6938 - 2004.1369 = 14.5569
# TOTAL OBSERVATIONS AFTER PREFILTER M=  645
# TIME-SPAN=    0.0000 -    0.0000 =  0.0000
# OBSERVATIONS: USED M=   645 REJECTED MTOT-M=     2 %USED=   99.6909
# N=  2 PARAMETERS
# MAXSIG= 175.00000
# MAXRES=  18.62410
# SCALE FACTOR FOR LENGTHS: SCL=  10.00000
# SCALE FACTOR FOR SIGMAS: SCLSIG=   1.00000
# CHI^2=    655.018 DOF=   643 CHI^2/DOF=   1.01869
# RMS=      5.890 SDEV=      5.895 MEAN=    0.03669
#  P #       PARAMETER +-    SIGMA %error PARAMETER NAME
# P 1 =      -745.73972 +-  102.728  13.78 YZERO                              
# P 2 =         0.37188 +-    0.051  13.75 SLOPE                              
#       T            LDETRENDED       SIG_OBS
     2004.13690         3.18293         6.09719
     2004.13964         4.05991         5.81964
     2004.14237         7.95489         5.88524
     2004.14511         1.78187         5.93974
     2004.14785        10.68186         5.93571
     2004.15059         5.00984         5.95589
     2004.15332        -7.58318         6.00838
     2004.15606        -6.56920         5.99223
     2004.15880         6.29578         5.92561
     2004.16154         5.13577         5.92561
     2004.16428        -0.48625         5.93268
     2004.16701        -6.84227         6.01746
     2004.16975        -2.87429         6.07701
     2004.17249         2.03269         6.16179
     2004.17523         4.54368         6.13151
     2004.17797         9.21566         6.07903
     2004.18070        -0.95036         5.88524
     2004.18344        -4.24838         5.87717
     2004.18618        -6.08040         6.05379
     2004.18892         2.49558         5.98011
     2004.19165         6.03857         5.93873
     2004.19439         6.56055         5.98718
     2004.19713         1.04253         5.94681
     2004.19987        -4.17949         6.01241
     2004.20261        -2.96151         5.93873
     2004.20534         1.85548         5.89937
     2004.20808         3.84646         6.29098
     2004.21082         6.15044         6.30511
     2004.21356        12.79142         6.22739
     2004.21629        -3.03360         6.17592
     2004.21903        -2.82062         6.10628
     2004.22177         1.50837         6.15472
     2004.22451         6.34635         6.28190
     2004.22725         7.43433         6.19106
     2004.22998         3.05831         6.20418
     2004.23272        16.81929         6.28291
     2004.23546         6.25928         6.19711
     2004.23820        -0.80874         6.21326
     2004.24094        -0.64176         6.45953
     2004.24367         6.91522         6.13555
     2004.24641         8.04420         6.00030
     2004.24915         2.14319         6.07095
     2004.25189         2.56217         5.94378
     2004.25462         1.26615         5.95690
     2004.25736         7.47013         6.02553
     2004.26010         4.04811         5.97204
     2004.42163         7.02004         5.82670
     2004.42437         1.76102         5.85193
     2004.42711         2.14901         5.81257
     2004.42985         7.53099         5.81964
     2004.43259         5.17297         5.86102
     2004.43532         7.90395         5.93974
     2004.43806        12.17693         5.87414
     2004.44080        -2.27708         5.95589
     2004.44354         8.26390         5.91451
     2004.44627         5.18088         5.90341
     2004.44901         6.20786         5.94984
     2004.45175        -1.79116         6.08004
     2004.45449         6.72482         5.97305
     2004.45723         2.76781         6.02654
     2004.45996         1.36879         6.08104
     2004.46270         0.47477         6.19611
     2004.46544        -6.36825         6.00030
     2004.46818         6.74073         5.95892
     2004.47092         0.17072         5.95791
     2004.47365         3.05070         5.90644
     2004.47639        -1.39232         5.97911
     2004.47913         4.70766         6.01544
     2004.48187        -1.20936         6.21831
     2004.48460         1.64662         6.01847
     2004.48734         7.64361         5.93268
     2004.49008         4.70659         5.94782
     2004.49282         2.51657         6.03260
     2004.49556        -0.01045         5.94479
     2004.49829         5.27853         6.03159
     2004.50103         0.34652         5.95488
     2004.50377        -2.05150         5.93571
     2004.50651         3.41248         5.96598
     2004.50924        -1.58454         5.90341
     2004.68994         9.08426         5.91047
     2004.69268         0.54225         5.92763
     2004.69542         7.43023         5.93167
     2004.69816        12.07521         5.98617
     2004.70089        12.07319         6.05178
     2004.70363        11.15517         5.94176
     2004.70637        14.06115         5.88322
     2004.70911         9.54014         5.84588
     2004.71185        10.56812         5.82266
     2004.71458        18.62410         6.01140
     2004.71732         9.79508         5.79642
     2004.72006         4.46206         5.79844
     2004.72280        -2.17995         5.86203
     2004.72554        -2.91197         5.77523
     2004.72827         4.80201         5.81863
     2004.73101         2.00699         5.75908
     2004.73375         2.50097         5.79743
     2004.73649         5.06896         5.78330
     2004.73922         4.93894         5.82468
     2004.74196         9.04492         5.84689
     2004.74470        10.77290         5.83679
     2004.74744         4.02388         5.86304
     2004.75018         3.35986         5.81358
     2004.75291         4.87385         5.85496
     2004.75565         5.73683         5.78936
     2004.75839         4.31681         5.80853
     2004.76113         3.62979         5.84891
     2004.76387         7.69877         5.83074
     2004.76660         4.63676         5.75403
     2004.76934         8.01874         6.05985
     2004.77208         6.58272         5.95185
     2004.77482        12.79370         6.01544
     2004.77755        13.46668         6.01948
     2004.78029         8.20567         5.88120
     2004.78303         6.19565         6.00131
     2004.78577         6.19463         5.80551
     2004.78851         7.96261         5.87010
     2004.79124        10.18859         5.85496
     2004.79398        13.56157         5.87010
     2004.79672         6.80756         5.87818
     2004.79946        11.53854         5.84588
     2004.80220        13.50852         5.79238
     2004.80493        11.14850         5.83377
     2004.80767         5.07648         5.85597
     2004.81041         7.15247         5.73990
     2004.81315         7.02245         5.72577
     2004.81588        12.20843         5.73990
     2004.81862        10.82741         6.04269
     2004.82136         6.98639         5.89836
     2004.82684        12.80336         5.72981
     2004.82957        17.44434         5.91350
     2004.83231         9.91732         5.75706
     2004.83505         5.36430         5.98011
     2004.83779        11.15128         5.79844
     2004.84052         8.65727         5.95589
     2004.84326        17.25525         7.28918
     2004.84600        12.16223         5.80349
     2004.84874        12.17721         5.89130
     2004.85148         6.13419         5.93268
     2004.85969        -2.80086         6.35860
     2004.86243         6.46012         7.56674
     2004.86517         0.75510         6.66442
     2004.87612         1.01903         6.62304
     2004.87885        -3.41499         6.42925
     2004.88159        -2.32601         6.39797
     2005.19097        -7.04206         5.84891
     2005.19371        -8.76007         5.94984
     2005.19645       -13.37209         5.83679
     2005.19918        -4.72611         5.85900
     2005.20192        -1.39313         5.97608
     2005.20466        -1.25415         5.97406
     2005.20740        -0.47117         5.99424
     2005.21013        -8.86318         5.88928
     2005.21287        -3.87620         5.84083
     2005.21561        -9.33522         5.86001
     2005.21835        -6.97724         5.86001
     2005.22109        -4.32326         5.85900
     2005.22382        -9.22627         5.86304
     2005.22656        -7.92429         5.90543
     2005.22930        -3.90331         5.89231
     2005.23204        -3.88333         5.80046
     2005.23478        -4.69435         5.88019
     2005.23751         4.02563         5.98314
     2005.24025         5.77162         6.00434
     2005.24299         3.25260         5.95589
     2005.24573        -1.32242         5.97507
     2005.24846         0.16856         5.84588
     2005.25120        -1.89146         5.95084
     2005.25394        12.25353         6.12444
     2005.25668         7.08851         6.25162
     2005.25942         6.13649         6.02856
     2005.26215        -5.93353         5.91552
     2005.26489         2.79045         6.02049
     2005.26763        11.01244         6.04572
     2005.27037         6.21142         6.07499
     2005.27311         6.68540         6.03764
     2005.27584        -0.54662         5.94984
     2005.27858        -2.14564         5.92965
     2005.28132         6.40034         6.06187
     2005.28406         2.66433         6.13252
     2005.28679         0.86531         6.02553
     2005.28953         1.85829         5.84184
     2005.29227         2.34527         5.94681
     2005.29501         3.30425         5.93167
     2005.29775         4.17824         5.86606
     2005.30048         4.65322         5.88221
     2005.30322         0.91020         5.84285
     2005.30596         0.42618         5.80853
     2005.30870        -2.71084         5.95185
     2005.31144         3.58114         5.91552
     2005.31417        -1.46387         5.87010
     2005.31691        -6.59089         5.87212
     2005.31965        -3.03591         5.86404
     2005.32239        -2.78593         6.00938
     2005.32512         2.76405         5.99929
     2005.32786        -8.94896         5.93066
     2005.33060        -0.04198         5.91956
     2005.33334         1.04800         5.86505
     2005.33608        -0.55002         5.95892
     2005.33881         3.32696         5.89231
     2005.34155         2.23795         6.00131
     2005.34429         2.92893         5.87717
     2005.34703        -1.44609         5.81964
     2005.34977        -2.31211         5.84184
     2005.35250         3.39087         5.93974
     2005.35524        -0.11915         6.06792
     2005.62903        -2.98896         6.03361
     2005.63176         1.09902         5.89130
     2005.63450        -2.96700         5.93772
     2005.63724         1.74999         6.00232
     2005.63998        -3.13103         5.99626
     2005.64272         2.51795         5.87515
     2005.64545        -5.04707         5.91956
     2005.64819        -1.02009         5.95387
     2005.65093         0.99589         5.93671
     2005.65367        -1.40212         5.96094
     2005.65640        -0.37314         5.96296
     2005.65914        -5.44216         5.92662
     2005.66188         0.94082         5.88019
     2005.66462         0.45580         5.91552
     2005.66736         0.15379         5.86808
     2005.67009        -1.47123         5.87616
     2005.67283        -1.30425         5.82771
     2005.67557         1.70073         5.83377
     2005.67831        -2.37729         5.86505
     2005.68105        -5.17830         5.84689
     2005.68378        -0.32432         5.89836
     2005.68652         6.38166         5.98819
     2005.68926        -2.89636         5.90744
     2005.69200        -1.87638         5.93470
     2005.69473         2.87560         5.93571
     2005.69747        -1.13441         5.90744
     2005.70021         4.92757         6.03058
     2005.70295         1.85955         6.03865
     2005.70569        -4.37447         6.06792
     2005.70842        -1.11349         6.11334
     2005.71116        -6.11150         5.99223
     2005.71390         0.91348         5.86606
     2005.71664        -3.31954         5.92662
     2005.71938        -3.02256         5.89836
     2005.72211        -2.82858         5.97911
     2005.72485        -0.17960         5.87717
     2005.72759        -0.75061         5.89937
     2005.73033        -3.80863         6.00737
     2005.73306        -0.45765         5.90744
     2005.73580         1.97133         5.93369
     2005.73854         2.19431         6.07297
     2005.74128         1.95830         6.03159
     2005.74402         4.65028         6.00938
     2005.74675         2.99826         5.77119
     2005.74949         1.23024         5.90946
     2005.75223         1.07322         6.00434
     2005.75497         0.88121         6.01342
     2005.75770         0.40519         5.89836
     2005.76044         2.68717         5.84991
     2005.76318         3.76915         5.78633
     2005.76592         4.37813         5.83578
     2005.76866         7.16811         5.89231
     2005.77139         2.02410         5.87313
     2005.77413         5.41408         5.82064
     2005.77687         4.59806         5.94075
     2005.77961         1.39504         6.04774
     2005.78235         1.42402         5.98819
     2005.78508        -0.91199         5.83881
     2005.78782         3.46799         5.84285
     2005.79056         1.84997         5.82367
     2005.79330         4.76695         5.85395
     2005.79603         4.69193         5.99424
     2005.79877         4.81191         6.09518
     2005.80151         6.74490         6.03966
     2005.80425         3.43088         5.84386
     2005.80699         2.96786         5.80248
     2005.80972         4.21484         5.87918
     2005.81246         2.46182         5.86404
     2005.81520        -0.56219         5.96195
     2005.81761         2.49491         6.93693
     2006.13005       -11.54528         5.79642
     2006.13279       -10.53230         5.77220
     2006.13553        -6.84632         5.74697
     2006.13827        -2.85534         5.74697
     2006.14100        -6.17335         5.76311
     2006.14374        -1.10937         5.77422
     2006.14648        -3.15139         5.76513
     2006.14922        -8.57841         5.73586
     2006.15196       -10.60643         5.75908
     2006.15469        -9.32744         5.74091
     2006.15743        -6.78146         5.80651
     2006.16017        -4.01948         5.91350
     2006.16291        -9.62850         5.92662
     2006.16564        -8.76952         5.72981
     2006.16838        -5.86453         5.91350
     2006.17112        -2.44355         5.75201
     2006.17386        -3.86157         5.72173
     2006.17660        -6.46559         5.80349
     2006.17933        -5.99761         5.73183
     2006.18207        -4.26663         5.79339
     2006.18481        -2.37864         5.81762
     2006.18755        -0.04366         5.77523
     2006.19029         0.64432         5.82569
     2006.19302        -5.86370         5.79642
     2006.19576        -2.41672         5.87111
     2006.19850        -0.72873         5.85092
     2006.20124        -1.02975         5.91451
     2006.20397       -12.25077         6.06691
     2006.20671        -6.16879         5.94075
     2006.20945       -11.25781         5.84891
     2006.21219        -7.44783         5.82771
     2006.21493        -6.28684         5.87212
     2006.21766        -6.61186         5.94883
     2006.22040        -8.48488         5.90744
     2006.22314       -12.81090         5.92763
     2006.22588        -8.49792         6.00232
     2006.22862        -1.33093         6.06893
     2006.23135        -3.66895         6.05682
     2006.23409        -5.67997         5.96397
     2006.23683        -9.60699         5.87616
     2006.23957        -8.21601         5.74596
     2006.24230        -4.95102         5.77422
     2006.24504        -8.16404         5.79844
     2006.24778        -0.00606         5.77825
     2006.25052        -7.37708         5.78936
     2006.25326        -0.90310         5.76816
     2006.25599        -2.91912         5.81156
     2006.25873       -14.58113         5.87414
     2006.26147        -7.98115         5.99223
     2006.26421        -7.39617         6.02452
     2006.26695        -6.89319         5.89432
     2006.26968        -3.58721         5.76513
     2006.27242        -7.23422         5.79339
     2006.27516        -2.43124         6.01039
     2006.27790        -5.07726         6.05581
     2006.28063       -13.46728         5.79743
     2006.28337        -3.08830         5.80853
     2006.28611        -3.25832         5.90744
     2006.28885        -3.67333         5.92158
     2006.29159        -7.63935         5.93470
     2006.29432        -4.07237         5.83679
     2006.29706        -4.42339         5.81560
     2006.29980        -0.83341         5.95791
     2006.30254        -5.65842         5.83377
     2006.30528        -4.79244         5.87616
     2006.30801        -8.37946         5.89231
     2006.31075        -7.33248         5.80147
     2006.31349        -7.95550         5.95993
     2006.31623        -5.45551         5.84991
     2006.32170        -3.19955         5.91047
     2006.32444        -7.66357         5.82064
     2006.32718       -11.82459         5.84689
     2006.32992       -13.90661         5.78431
     2006.33265        -6.67262         5.86001
     2006.33539        -4.95764         5.75706
     2006.33813        -1.92266         5.87212
     2006.34087        -8.67368         5.80147
     2006.34361        -8.81670         5.78633
     2006.34634        -3.48671         5.84184
     2006.34908        -9.33673         5.92258
     2006.35182        -4.85275         5.87616
     2006.35456        -7.69877         5.80651
     2006.35729       -13.69179         5.85092
     2006.36003       -10.08380         5.80954
     2006.36277       -10.25182         5.88221
     2006.36551       -11.92584         5.85900
     2006.36825        -7.17786         5.87616
     2006.37098        -8.56188         5.97608
     2006.37372        -8.79290         6.03058
     2006.37646        -9.55891         5.89029
     2006.37920       -10.72793         6.10123
     2006.38193       -13.11195         6.11132
     2006.38467        -1.74897         6.00131
     2006.38741       -11.73499         6.08609
     2006.39015       -11.10000         5.96598
     2006.85558         7.18691         6.66139
     2006.85832         2.89389         6.19812
     2006.86106        -5.37213         6.29401
     2006.86653        -4.76516         6.31318
     2006.87201         0.27080         5.90442
     2006.87475         1.35278         6.01241
     2006.87749         2.51977         6.17996
     2006.88296        -6.59927         5.92057
     2006.89665        -5.76336         6.05178
     2006.89939        -2.12438         5.90341
     2006.90213        -1.60440         5.85496
     2006.90486         5.61658         6.02957
     2006.91308         0.01953         5.95690
     2006.91582        -5.37249         5.97305
     2006.91855        -8.05751         5.87010
     2006.92129        -6.71652         5.92763
     2006.92403        -8.69054         5.97406
     2006.92677        -8.39056         5.93974
     2006.92951        -5.89158         6.04269
     2006.93224        -6.69560         5.93671
     2006.93498        -4.78062         6.11132
     2006.93772        -1.16163         6.04370
     2006.94046        -1.23765         6.00434
     2006.94319        -4.50167         5.99929
     2006.94593        -7.32969         6.28492
     2006.96236         4.04320         6.49991
