# ================= DQRFIT RESULTS ================
# INPUT FILE: series/BURR.rad
# OUTPUT: LDETRENDED
# FILTER FUNCTION: f(t)
# f(t)=+line(t)+annual(t)
# line(t)=+P 1+P 2*t
# annual(t)=+P 3*sin(2*pi*t+P 4)
# heav(t)=(t<0?0:1)
# TOTAL OBSERVATIONS MTOT=  814
# INITIAL TIME INTERVAL= 2019.1923 - 2005.9767 = 13.2156
# TOTAL OBSERVATIONS AFTER PREFILTER M=  811
# TIME-SPAN= 2019.1923 - 2005.9767 = 13.2156
# OBSERVATIONS: USED M=   811 REJECTED MTOT-M=     3 %USED=   99.6314
# N=  4 PARAMETERS
# MAXSIG= 175.00000
# MAXRES=  19.00198
# SCALE FACTOR FOR LENGTHS: SCL=  10.00000
# SCALE FACTOR FOR SIGMAS: SCLSIG=   1.00000
# CHI^2=    772.163 DOF=   807 CHI^2/DOF=   0.95683
# RMS=      5.617 SDEV=      5.621 MEAN=   -0.00844
#  P #       PARAMETER +-    SIGMA %error PARAMETER NAME
# P 1 =      -308.66824 +-   82.991  26.89 YZERO                              
# P 2 =         0.15436 +-    0.041  26.71 SLOPE                              
# P 3 =         2.98234 +-    0.297   9.96 ANNUAL AMPLITUDE                   
# P 4 =        -2.61895 +-    0.123   4.71 ANNUAL PHASE                       
#       T            LDETRENDED       SIG_OBS
     2005.97673        -2.79432         5.72136
     2005.97947        -2.89275         5.74484
     2005.98221         7.19683         5.69984
     2005.98495         4.99141         5.82505
     2005.98768         6.84299         5.66658
     2005.99042         6.78756         5.86222
     2005.99316         5.47914         5.76147
     2005.99590         3.27572         5.73603
     2005.99864         1.25729         5.80646
     2006.00411         1.09845         5.69006
     2006.01233       -11.51882         5.71940
     2006.01506        -8.62224         5.76636
     2006.01780        -2.51466         5.82211
     2006.02054        -0.26809         5.82407
     2006.02328        -0.36351         5.82505
     2006.02601         0.74607         5.87591
     2006.02875        -0.35035         5.84754
     2006.03149         1.48122         5.77223
     2006.03423         1.95380         5.70571
     2006.03697         9.41138         5.80451
     2006.03970        -0.07804         5.72429
     2006.04244        -0.62247         5.81037
     2006.04518         4.47211         5.86417
     2006.04792        -5.02431         5.68615
     2006.05065         1.25427         5.70864
     2006.05339        -1.24816         5.69006
     2006.05613         2.20342         5.65680
     2006.05887        -0.03200         5.60789
     2006.06161        -0.65243         5.53942
     2006.06434         6.74215         5.66952
     2006.06708        -2.85227         5.52279
     2006.06982        -4.03769         5.48953
     2006.07256        -5.02012         5.58735
     2006.07530        -5.55354         5.55898
     2006.07803       -12.14596         5.49638
     2006.08077         0.20162         5.51594
     2006.08351        -4.59981         5.51594
     2006.08625        -2.41623         5.72723
     2006.08898       -11.05565         5.75755
     2006.09172        -3.22807         5.48953
     2006.09446         6.80250         5.71353
     2006.09720        -3.52092         5.53159
     2006.09994        -5.61234         5.55018
     2006.10267        -5.13076         5.52279
     2006.10541        -9.70319         5.48953
     2006.10815        -3.24561         5.64604
     2006.11089        -4.92703         5.73603
     2006.11363       -10.17545         5.56876
     2006.11636        -9.13188         5.59615
     2006.11910        -4.99930         5.54431
     2006.12184         1.21428         5.58833
     2006.12458         0.88685         5.54529
     2006.12731        -4.10557         5.54040
     2006.13005        -1.72599         5.60398
     2006.13279        -2.35141         5.56485
     2006.13553         1.86916         5.51888
     2006.13827         6.42174         5.59126
     2006.14100         5.75532         5.53159
     2006.14374         4.00090         5.54627
     2006.14648         5.55147         5.62256
     2006.14922        -0.81895         5.60887
     2006.15196        -2.15237         5.53062
     2006.15469        -0.71379         5.57561
     2006.15743        -2.59922         5.69495
     2006.16017        -3.06864         5.67343
     2006.16291         1.26094         5.79864
     2006.16564        -3.94848         5.57366
     2006.16838       -14.27891         5.69397
     2006.17111        -1.03833         5.65093
     2006.17386         2.96325         5.56094
     2006.17660         0.12583         5.64702
     2006.17933        -1.58160         5.59126
     2006.18207         0.33398         5.54138
     2006.18481         1.81556         5.63528
     2006.18755         1.47513         5.51692
     2006.19029         7.55771         5.72332
     2006.19302         1.60029         5.63724
     2006.19576        -3.64013         5.68810
     2006.19851         9.28244         5.95710
     2006.20124         5.02702         5.88569
     2006.20397        -9.12740         5.94928
     2006.20671        -4.15982         5.85733
     2006.20945        -1.21625         5.69593
     2006.21219        -2.53567         5.77320
     2006.21493        -2.28709         5.68810
     2006.21766        -0.47451         5.70767
     2006.22040        -4.00494         5.81820
     2006.22314        -7.71036         5.79961
     2006.22588        -1.32178         5.89645
     2006.22862         0.94180         5.90917
     2006.23135        -2.21163         5.78983
     2006.23409         2.65895         5.77125
     2006.23683        -5.56347         5.77027
     2006.23957         7.18111         5.86906
     2006.24230         2.31368         5.56290
     2006.24504         0.74626         5.63332
     2006.24778         1.71084         5.64897
     2006.25052        -4.38259         5.59126
     2006.25326        -7.55701         5.56094
     2006.25599         1.85257         5.70767
     2006.25873         3.69715         5.57952
     2006.26147         0.07672         5.76636
     2006.26421        -4.50270         5.89156
     2006.26695         2.29288         5.81624
     2006.26971        -5.38655         6.57140
     2006.27242         5.74403         5.94732
     2006.27517         5.23561         6.35033
     2006.27790        -3.52581         5.93754
     2006.28063        -1.57623         5.60104
     2006.28337         8.85034         6.03633
     2006.28611         8.93892         5.82407
     2006.28885         0.49150         5.64897
     2006.29159         6.93908         5.68419
     2006.29432         0.93465         5.56485
     2006.29706         0.25223         5.57463
     2006.29978         1.35581         5.89352
     2006.30255         3.33138         6.13122
     2006.30528        -6.67804         5.83385
     2006.30801         1.21054         5.74581
     2006.31075        -0.61388         5.80157
     2006.31349        -2.08931         5.90721
     2006.31623        -1.92873         5.65680
     2006.32170        -1.44157         5.74679
     2006.32441        -5.22599         5.72821
     2006.32718        -6.40142         5.98156
     2006.32992        -2.91384         6.02459
     2006.33261        -1.81426         5.90917
     2006.33539        -1.32969         6.30729
     2006.33813         1.57989         6.21045
     2006.34087         3.91847         6.00503
     2006.34361         3.42905         6.06177
     2006.34634         1.88862         6.22023
     2006.34908        -6.50980         6.53814
     2006.35181        -0.59522         6.23588
     2006.35451        -3.49264         6.05785
     2006.35727        -1.88706         6.64574
     2006.36007         4.34551         6.86387
     2006.36277        -1.20991         6.73377
     2006.36551        -8.53133         6.53227
     2006.36825        -6.18376         6.98810
     2006.37098        -3.54718         7.08005
     2006.37372        -2.41660         7.18569
     2006.37642         2.64498         6.65943
     2006.37923        -3.64545         6.95582
     2006.38193         6.60213         6.77681
     2006.38467         4.25071         6.23099
     2006.38738         1.30329         5.87689
     2006.39016        -0.97814         6.11459
     2006.39289        -3.41356         6.01383
     2006.39562        -3.22898         6.51955
     2006.39831         3.64660         6.44228
     2006.40108        -3.17983         6.13219
     2006.40384        -0.00325         6.03535
     2006.40650         1.56534         6.00308
     2006.40931        -0.49010         6.33761
     2006.41204        -3.57652         6.54009
     2006.41479        -1.18194         6.33663
     2006.41753        -0.96336         6.71714
     2006.42026         5.83421         6.36500
     2006.42300        -4.77021         6.49216
     2006.42574         5.65337         6.19089
     2006.42848         2.29095         6.32979
     2006.43114        12.52853         6.86974
     2006.88296         3.45579         5.70962
     2006.88570         3.77637         5.73701
     2006.88844        -0.31905         5.81526
     2006.89118        -0.16448         5.67636
     2006.89391        -2.62790         5.95808
     2006.89665         1.60168         5.78788
     2006.89939         2.56726         5.69104
     2006.90213         6.65683         5.65876
     2006.90486         0.88441         5.74092
     2006.90760         3.82299         5.72429
     2006.91034        -0.08443         5.64604
     2006.91308         5.34014         5.67930
     2006.91582        -0.68728         5.75168
     2006.91855        -1.14270         5.70473
     2006.92129        -0.24512         5.69006
     2006.92403        -1.37855         5.69788
     2006.92677         2.18803         5.74581
     2006.92951         2.91361         5.83092
     2006.93224         2.25919         5.71940
     2006.93498         2.38176         5.80157
     2006.93772         4.22634         5.83287
     2006.94046         4.87092         5.85537
     2006.94319        -1.53550         5.82016
     2006.94593        -4.46793         5.91113
     2006.94867        -8.83135         5.82016
     2006.95141         4.35623         5.86124
     2006.95415         6.45680         6.17915
     2006.95688         7.52238         5.79668
     2006.95962         2.92696         5.79375
     2006.96236         2.81754         5.77418
     2006.96510         1.52811         5.83874
     2006.96784         2.31869         5.76831
     2006.97057         1.34027         5.81722
     2006.97331        -5.53315         5.87004
     2006.97605         1.52942         5.89645
     2006.97879         2.53900         5.93460
     2006.98152        -1.51042         5.85537
     2006.98426        -3.08884         5.90037
     2006.98700        -3.51827         6.17719
     2006.98974        -5.83269         6.07839
     2006.99248        -5.06111         6.09307
     2006.99521        -4.53853         6.00014
     2006.99795         1.74004         6.13611
     2007.00343         2.16320         5.96982
     2007.00616        -3.38322         6.01873
     2007.00890        -4.70265         5.94145
     2007.01164        -3.81207         5.86124
     2007.01438        -6.94649         5.84461
     2007.01712       -11.44192         5.84852
     2007.01985        -5.87634         5.80744
     2007.02259        -1.20976         5.69593
     2007.02533         1.88282         5.72527
     2007.02807        -2.28161         5.86124
     2007.03081        -2.18703         5.60691
     2007.03354        -5.55545         5.56387
     2007.03628        -2.51987         5.52768
     2007.03902        -5.36730         5.52768
     2007.04176        -3.89772         5.62256
     2007.04449        -3.49314         5.55018
     2007.04723        -7.54556         5.68419
     2007.04997        -2.65599         5.78201
     2007.05271         0.04559         5.75560
     2007.05545        -0.68683         5.51105
     2007.05818        -4.27425         5.51007
     2007.06092        -3.78668         5.52572
     2007.52909        -5.52794         5.61963
     2007.53183        -2.78737         5.73799
     2007.53457        -9.93179         5.70864
     2007.53731         1.10879         5.72136
     2007.54005        -3.48263         5.65093
     2007.54278        -2.88506         5.75853
     2007.54552         3.02352         5.75951
     2007.54826        -5.57790         5.68712
     2007.55100        -4.84832         5.69788
     2007.55374        -5.35675         5.63039
     2007.55647        -0.79717         5.60300
     2007.55921        -1.53459         5.93460
     2007.56195        -0.25201         5.85830
     2007.56469         0.85056         5.70571
     2007.56742        -6.33786         5.68125
     2007.57016        -2.34228         5.63724
     2007.57290        -1.16670         5.62550
     2007.57564        -3.88613         5.63724
     2007.57838        -2.28855         5.65973
     2007.58111        -4.19197         5.66169
     2007.58385         1.70260         5.70277
     2007.58659        -5.70582         5.61963
     2007.58933         1.48376         5.67930
     2007.59206        -4.08066         5.63039
     2007.59480         6.58491         5.71940
     2007.59754        -5.82251         5.72429
     2007.60028         0.67007         5.52964
     2007.60302        -0.63935         5.57268
     2007.60575        -5.79978         5.65680
     2007.60849         0.13980         5.64408
     2007.61123        12.59338         5.61180
     2007.61397        -5.18904         5.55311
     2007.61671        -1.21047         6.02068
     2007.61944         5.24911         5.98253
     2007.62218        -5.03731         5.99623
     2007.62492        -1.22973         5.82602
     2007.62766         3.69184         5.90134
     2007.63039         0.72542         6.15861
     2007.63313       -16.42700         5.95710
     2007.63587        -1.41642         5.87689
     2007.63861         0.87315         5.87885
     2007.64135        -0.66427         5.63235
     2007.64408         4.89031         5.90624
     2007.64682        -6.28712         5.82798
     2007.64956         6.93046         6.08133
     2007.65230         1.09504         6.04514
     2007.65504         2.83562         5.87885
     2007.65777        -0.13281         5.98742
     2007.66051        -4.06023         5.90819
     2007.66325         0.70435         6.14785
     2007.66599        -4.80207         5.97666
     2007.66872        -2.02250         5.97569
     2007.67146        -1.97292         5.87787
     2007.67420         0.19766         6.05590
     2007.67694         3.14924         6.05198
     2007.67968         0.43481         5.88569
     2007.68241         3.82739         5.85733
     2007.68515         3.14597         6.05883
     2007.68789         0.89455         6.01188
     2007.69063         0.13712         5.84168
     2007.69337        -0.24930         5.92580
     2007.69610         2.62428         5.91406
     2007.69884         3.78686         5.93167
     2007.70158         4.21243         5.88667
     2007.70432         3.06001         6.15469
     2007.70705         1.24959         5.92678
     2007.70979         7.87716         5.89645
     2008.53936       -10.01989         5.80744
     2008.54210       -12.57831         5.67539
     2008.54484       -11.01573         5.86515
     2008.54757        -4.76115         5.73799
     2008.55031         0.77242         5.62256
     2008.55305         1.00800         5.65387
     2008.55579        -8.58542         5.72821
     2008.55853         0.52716         5.64995
     2008.56126        -5.04727         5.62941
     2008.56400        -3.76969         5.58148
     2008.56674         2.10989         5.57366
     2008.56948        -3.21953         5.54822
     2009.51677        -2.63276         5.66267
     2009.51951        -9.86418         5.69788
     2009.52225       -14.37560         5.60789
     2009.52499       -10.67802         5.68615
     2009.52773       -11.19145         5.94145
     2009.53046        -9.56587         5.60985
     2009.53320       -11.45829         5.54822
     2009.53594        -4.50871         5.57952
     2009.53868       -14.40314         5.63235
     2009.54141        -6.64456         5.62159
     2009.54415        -8.13498         5.55409
     2009.54689        -3.52940         5.67245
     2009.54963       -13.99383         5.52279
     2009.55237        -2.41225         5.60104
     2009.55510        -5.68367         5.59420
     2011.15127        10.98895         5.37019
     2011.15401        12.49252         5.32618
     2011.15675         4.53210         5.36824
     2011.15948         4.65968         5.37509
     2011.16222         0.87826         5.36335
     2011.16496        -4.38217         5.41812
     2011.16770        -3.67959         5.41323
     2011.17044        -2.65401         5.43867
     2011.17317        -3.02143         5.45432
     2011.17591       -10.60086         5.35650
     2011.17865         0.49172         5.46801
     2011.18139        -1.74970         5.42399
     2011.18413        -6.51012         5.38878
     2011.18686         1.11545         5.45921
     2011.18960        -1.81697         5.43769
     2011.19234        -3.29439         5.41323
     2011.19508         1.11519         5.58148
     2011.19781        -8.88724         5.58833
     2011.20055        -3.38766         5.51496
     2011.20329        -3.43108         5.47779
     2011.20603        -1.79451         5.48268
     2011.20877         0.85607         5.46410
     2011.21150        -1.59235         5.45040
     2011.21424       -16.18077         5.42399
     2011.21698        -2.90520         5.49638
     2011.21972         2.80438         5.51301
     2011.22246        -2.40504         5.49442
     2011.22519        -6.95246         5.43573
     2011.22793        -0.66289         5.46019
     2011.23067        -1.30331         5.40247
     2011.23341         0.85027         5.44258
     2011.23614         0.49185         5.43378
     2011.23888        -7.93558         5.46410
     2011.24162        -4.86500         5.46801
     2011.24436         1.43558         5.50616
     2012.47092         5.15125         5.48268
     2012.47365         9.71883         5.63137
     2012.47639        14.55140         5.63821
     2012.47913         8.24998         5.60789
     2012.48187        14.77056         5.58735
     2012.48460        14.83314         5.56974
     2012.48734         4.99371         5.41910
     2012.49008        10.85929         5.51496
     2012.49282        10.74487         5.43867
     2012.49556        14.56445         5.52866
     2012.49829         4.79702         5.68321
     2012.50103        19.18360         5.52670
     2012.50377        10.37918         5.74288
     2012.50651         9.33876         5.58442
     2012.50924        10.96433         5.72821
     2012.51198         8.47491         5.65876
     2012.51472         9.10049         5.43378
     2012.51746         8.85607         5.48562
     2012.52020         6.67864         5.48660
     2012.52293        10.06922         5.59028
     2012.52567        11.80080         5.51007
     2012.52841         4.93538         5.43378
     2012.53115        11.03695         5.53648
     2012.53389        12.56953         5.51790
     2012.53662        13.84811         5.51790
     2012.53936         2.00468         5.55409
     2012.54210         5.54526         5.47192
     2012.54484        14.94084         5.51301
     2012.54757        15.74642         5.60398
     2012.55031        21.22099         5.50910
     2012.55305        10.02757         5.51496
     2012.55579        15.36215         5.48758
     2012.55853        13.19673         5.67734
     2012.56126        -0.92670         5.59811
     2014.28885         4.74464         5.89254
