# ================= DQRFIT RESULTS ================
# INPUT FILE: series/BUTT.rad
# OUTPUT: LDETRENDED
# FILTER FUNCTION: f(t)
# f(t)=+line(t)+annual(t)
# line(t)=+P 1+P 2*t
# annual(t)=+P 3*sin(2*pi*t+P 4)
# heav(t)=(t<0?0:1)
# TOTAL OBSERVATIONS MTOT=  798
# INITIAL TIME INTERVAL= 2019.4771 - 2006.6092 = 12.8679
# TOTAL OBSERVATIONS AFTER PREFILTER M=  795
# TIME-SPAN= 2019.4771 - 2006.6092 = 12.8679
# OBSERVATIONS: USED M=   795 REJECTED MTOT-M=     3 %USED=   99.6241
# N=  4 PARAMETERS
# MAXSIG= 175.00000
# MAXRES=  17.87872
# SCALE FACTOR FOR LENGTHS: SCL=  10.00000
# SCALE FACTOR FOR SIGMAS: SCLSIG=   1.00000
# CHI^2=    630.536 DOF=   791 CHI^2/DOF=   0.79714
# RMS=      5.036 SDEV=      5.039 MEAN=    0.02080
#  P #       PARAMETER +-    SIGMA %error PARAMETER NAME
# P 1 =      1299.15329 +-  171.621  13.21 YZERO                              
# P 2 =        -0.64395 +-    0.085  13.21 SLOPE                              
# P 3 =         5.45994 +-    0.252   4.62 ANNUAL AMPLITUDE                   
# P 4 =         3.09782 +-    0.065   2.11 ANNUAL PHASE                       
#       T            LDETRENDED       SIG_OBS
     2006.60918        -4.46243         5.23732
     2006.61191         3.19534         5.08643
     2006.61465        -2.28590         5.07304
     2006.61739        -2.87414         5.07929
     2006.62013         4.01263         5.27214
     2006.62287        -4.49461         5.17482
     2006.62560        -1.76885         5.15696
     2006.62834        -2.86608         5.15518
     2006.63108        -5.77732         5.02393
     2006.63382        -4.00156         5.02304
     2006.63656        -2.39180         5.10250
     2006.63929        -0.92803         5.13196
     2011.64682         0.52957         5.22750
     2011.64956        10.01833         5.20696
     2011.65225        13.17306         5.90961
     2011.65504         5.27786         5.66677
     2011.65777         0.31562         5.39624
     2011.66048         7.91436         5.48284
     2011.66325         8.43115         5.90961
     2011.66599         2.26891         6.01497
     2011.66872         5.32867         6.18818
     2011.67146         8.30944         5.49534
     2011.67420         7.46420         5.40963
     2011.67694        13.03396         5.79176
     2011.67968         9.66772         5.76498
     2011.68241         2.22849         5.59266
     2011.68515         5.17425         5.51231
     2011.68767         7.68287         5.73283
     2014.57906         3.40178         5.04893
     2014.58180         4.15455         5.12571
     2014.58454         2.03031         5.10964
     2014.58727         1.74707         5.32838
     2014.59001         0.29784         5.21589
     2014.59275         7.32860         5.21053
     2014.59549         3.38336         5.15607
     2014.59823         6.07013         5.28642
     2014.60096         2.99689         5.26946
     2014.60370        -0.36835         5.18107
     2014.60644        -8.57259         5.27124
     2014.60918        -4.34282         5.30428
     2014.61191         0.37694         5.49981
     2014.61465        10.54870         5.22571
     2014.61739         5.93447         5.38731
     2014.62013         0.41423         5.25874
     2014.62287         5.44199         5.16946
     2014.62560         6.41776         5.17214
     2014.62834         6.30952         5.12482
     2014.63108         2.90328         5.17035
     2014.63382         6.30404         5.39088
     2014.63656        10.26881         5.21946
     2014.63929        -7.22543         5.20071
     2014.64203         3.04833         5.12839
     2014.64477         1.13810         5.09446
     2014.64751         2.81686         5.14536
     2014.65024         1.37762         5.14268
     2014.65298         6.41439         5.13018
     2014.65572         6.33015         5.12928
     2014.65846         7.10191         5.14536
     2014.66120         4.65168         5.15607
     2014.66393        12.18744         5.16768
     2014.66667         7.92820         5.11946
     2014.66941         6.02496         5.09268
     2014.67215        -0.31327         5.13732
     2014.67488         2.67249         5.08375
     2014.67762         2.31125         5.11054
     2014.68036         6.43402         5.11946
     2014.68310        -0.18722         5.15250
     2014.68584        -2.20446         5.21142
     2014.68857         4.51731         5.12839
     2014.69131         3.96407         5.09446
     2014.69405         2.14683         5.09000
     2014.69679         2.59359         5.12482
     2014.69953         4.45336         5.13286
     2014.70226         6.06412         5.11768
     2014.70500         3.23188         5.13553
     2014.70774         8.70365         5.14446
     2014.71048        11.08541         5.15607
     2014.71321         4.12617         5.27035
     2014.71595         6.15694         5.16678
     2014.71869         7.02070         5.04447
     2014.72143         7.14746         5.05518
     2014.72417        10.52123         5.06589
     2014.72690         5.74199         5.14446
     2014.72964         8.15875         5.10339
     2014.73238        15.81951         5.14982
     2014.73512         2.08028         5.08464
     2014.73786         6.21204         5.06411
     2014.74059         2.58680         5.11946
     2014.74333         9.79557         5.22839
     2014.74607         4.49433         5.11500
     2014.74881         5.27509         5.09446
     2014.75154         4.61286         5.17214
     2014.75428         3.92262         5.04447
     2014.75702         1.69438         5.08464
     2014.75976         2.29914         5.03732
     2014.76250         4.46091         5.03643
     2014.76523         4.38267         5.04179
     2014.76797         5.16143         5.05786
     2014.77071         3.14420         5.05518
     2014.77345         3.54096         5.03822
     2014.77619         4.81472         5.08464
     2014.77892         8.65249         5.05339
     2014.78166         9.23525         5.05250
     2014.78440         5.43601         5.09000
     2014.78714        -6.01223         5.23999
     2014.78987         7.02254         5.06500
     2014.79261         3.23730         5.09268
     2014.79535         3.59806         5.04089
     2014.79809         8.21783         5.15518
     2014.80083         8.66959         5.10964
     2014.80356         6.02535         5.17750
     2014.80630         6.17712         5.10250
     2014.80904        -1.79212         5.04714
     2014.81178        11.81364         5.01500
     2014.81452        18.72941         5.17393
     2014.81725         0.75817         5.09536
     2014.81999        10.98893         5.03911
     2014.82273        11.18169         5.12125
     2014.82547         9.36946         5.07214
     2014.82820         0.97422         5.09179
     2014.83094         0.45498         5.20428
     2014.83368        -0.09325         5.17214
     2014.84463        -7.79020         5.94979
     2014.84737         7.01956         5.74266
     2014.85011         9.45132         5.64891
     2014.85285         5.48909         5.73283
     2014.86654         0.06591         5.29803
     2014.86927        -0.70433         5.18018
     2014.87201        -8.57557         5.30696
     2014.87475         2.00319         5.13643
     2014.87749         3.75596         5.16410
     2014.88022         4.39372         5.13286
     2014.88296         4.64548         5.15518
     2014.88570         3.66124         5.37749
     2014.88844         6.45301         5.42035
     2014.89118        -5.39723         5.62302
     2014.89391         5.02453         5.33285
     2014.89665        14.91030         5.29624
     2014.89939         3.26606         5.39535
     2014.90213         2.47882         5.31767
     2014.90486        -6.95441         5.15875
     2014.90760         0.99935         5.32213
     2014.91034       -16.45189         5.23821
     2014.91308        -1.35513         5.14000
     2014.91582         2.18264         5.19000
     2014.91855         8.00640         5.18285
     2014.92129        -2.70584         5.17214
     2014.92677         3.83869         5.16053
     2014.93224         1.83122         5.16143
     2014.93498        -1.63702         5.17928
     2014.93772         2.18674         5.12571
     2014.96236         5.60361         5.02929
     2014.96510         2.02837         5.14714
     2014.97605        -5.35258         5.02572
     2014.97879        -5.01181         5.08196
     2014.98152         4.14595         5.14714
     2014.98974       -11.19576         5.25160
     2014.99248        -2.74600         5.06054
     2014.99521        -1.26323         5.02215
     2014.99795         5.70953         5.00340
     2015.00069         1.00629         4.99536
     2015.00343         0.21006         5.04000
     2015.00616        -1.35518         5.04625
     2015.00890        -0.91542         5.15875
     2015.01164         6.54134         5.10429
     2015.01438        -1.79989         5.03554
     2015.01712        -0.36113         5.09625
     2015.01985         5.75363         5.09357
     2015.02259         5.82040         5.21410
     2015.02533         4.71916         5.09893
     2015.02807         4.38892         5.08107
     2015.03081         2.55569         5.07661
     2015.03354        -2.28255         5.09625
     2015.03628         2.45421         5.10339
     2015.03902         2.13097         5.10250
     2015.04176        -2.54326         5.26142
     2015.04449        -0.57250         5.09625
     2015.04723       -14.05474         5.43463
     2015.04997         2.57703         5.10607
     2015.05271        -1.33321         5.02215
     2015.05545        -0.45445         5.03286
     2015.05818         4.77532         5.00072
     2015.06092         1.00408         5.04179
     2015.06366         3.21584         5.13821
     2015.06640         3.13761         5.01768
     2015.06914        -1.57463         5.03197
     2015.07187        -1.43387         5.03018
     2015.07461         2.61189         5.02929
     2015.07735        -3.77234         5.06322
     2015.08009        -2.87358         5.04447
     2015.08282         1.62918         5.03464
     2015.08556         3.76795         5.01590
     2015.08830        -3.70829         5.13732
     2015.09104        -0.33353         5.16143
     2015.09378         7.84224         5.09000
     2015.09633         6.89388         5.40874
     2015.49350         5.78964         5.11500
     2015.49624         1.89240         5.17482
     2015.49898         4.18317         5.13732
     2015.50172         3.75293         5.05429
     2015.50445        -3.08531         5.13107
     2015.50719        -5.67855         5.05518
     2015.50993         0.27822         5.06768
     2015.51267         4.26498         5.06232
     2015.51541         2.23074         5.05072
     2015.51814         0.45251         5.05339
     2015.52088         5.54327         4.98822
     2015.52362         9.19103         5.08732
     2015.52636         1.20180         5.04536
     2015.52909         1.40656         5.04089
     2015.53183         5.16332         4.97215
     2015.53457         1.47708         4.95965
     2015.53731         1.59385         4.94983
     2015.54005         4.45761         5.12928
     2015.54278         5.26437         5.11232
     2015.54552         3.03014         5.09268
     2015.54826         3.20890         5.05250
     2015.55100         5.54266         5.06322
     2015.55374        16.32343         5.32838
     2015.55647         9.54919         5.18107
     2015.55921         8.13395         5.09000
     2015.56195        10.85572         5.09714
     2015.56469        -0.11252         5.11411
     2015.56742         8.21124         5.17750
     2015.57016         9.49400         5.24267
     2015.57290         6.67177         5.23375
     2015.57564         3.22653         5.09000
     2015.57838         3.76629         5.05518
     2015.58111         4.46406         5.06947
     2015.58385        13.21382         5.13553
     2015.58659        13.44758         5.19446
     2015.58933         6.13035         5.14536
     2015.59206         9.34011         5.25249
     2015.59480         3.23087         5.12571
     2015.59754         9.31663         5.13018
     2015.60028         3.95640         5.21232
     2015.60302         9.17716         5.20339
     2015.60575         6.26792         5.17035
     2015.60849         1.13469         5.09000
     2015.61123         5.33345         5.07125
     2015.61397        11.00921         5.09536
     2015.61671         9.67698         5.04625
     2015.61944        10.76174         4.96500
     2015.62218        11.23850         4.96054
     2015.62492         8.58527         4.98108
     2015.62766         7.40903         4.96947
     2015.63039         7.40279         4.97393
     2015.63313         7.57255         4.98018
     2015.63587        21.83432         5.07393
     2015.63861        10.85308         4.99000
     2015.64135         8.09784         5.00697
     2015.64408         8.16661         5.01768
     2015.64682        10.85137         5.05339
     2015.64956         5.93213         4.98465
     2015.65230         8.62890         4.99625
     2015.65504         8.92466         4.98465
     2015.65777         7.27842         5.15161
     2015.66051         5.58918         5.00786
     2015.66325        10.67495         4.95518
     2015.66599        10.01371         5.08375
     2015.66872        17.26547         5.15071
     2015.67146         3.52524         5.00697
     2015.67420        12.34500         5.03107
     2015.67694         4.06976         4.99715
     2015.67968        10.43653         4.96858
     2015.68241         9.29429         4.96858
     2015.68515         6.63605         4.92751
     2015.68789         7.47782         4.98554
     2015.69063         7.47358         5.00518
     2015.69337         5.51034         5.12214
     2015.69610         6.91810         5.00340
     2015.69884        14.15587         4.98643
     2015.70158        12.50363         4.98822
     2015.70432         3.84639         5.08732
     2015.70705         5.36416         4.98822
     2015.70979         9.27492         5.02304
     2015.71253         9.82468         4.96233
     2015.71527         6.50545         4.94179
     2015.71801        12.53221         4.93018
     2015.72074        11.38897         4.98465
     2015.72348        10.79373         5.02840
     2015.72622         5.68250         4.99893
     2015.72896         1.63826         4.94179
     2015.73170         5.74302         4.95340
     2015.73443         7.11779         4.96590
     2015.73717         9.44655         5.00965
     2015.73991        14.80231         5.15339
     2015.74265        10.00808         5.15875
     2015.74538         9.41884         5.21321
     2015.74812        -0.74940         5.21589
     2015.75086         0.23337         4.99268
     2015.75360         6.04613         5.04714
     2015.75634        14.29889         5.04357
     2015.75907         6.10865         4.98465
     2015.76737         2.16800         5.21946
     2015.77003         1.50571         5.03464
     2015.77276         4.15947         5.06232
     2015.77550        -6.85777         5.09000
     2015.77824         9.42500         4.93376
     2015.78098         8.09376         4.97393
     2015.78371         9.55852         5.01054
     2015.78645         8.33328         4.98465
     2015.78919         5.31205         4.99268
     2015.79193         7.54281         5.02750
     2015.79467         4.91857         5.02036
     2015.79740         6.61334         5.00875
     2015.80014         4.80810         5.12393
     2015.80288         5.67886         5.01411
     2015.80562         7.31163         5.00786
     2015.80836         6.32139         4.98108
     2015.81109         2.62315         4.98733
     2015.81383         3.87192         5.03822
     2015.81657         3.26968         5.03464
     2015.81931         7.13944         5.06322
     2015.82204         6.42820         5.01857
     2015.82478        13.31697         4.97572
     2015.82752        12.29173         5.07839
     2015.83026        -4.12751         5.04625
     2015.83300        -8.43074         5.06857
     2015.83573        -2.97598         5.07393
     2015.83847         8.90678         5.13821
     2015.84121         2.64555         5.09982
     2015.84395         3.59831         5.08286
     2015.84669         3.35607         5.05250
     2015.84942         7.10283         5.08286
     2015.85216         4.89060         5.19892
     2015.85490        11.89636         5.14625
     2015.85764         9.86612         5.09000
     2015.86037         5.86989         5.08018
     2015.86311         7.42965         5.10875
     2015.86585         7.78341         5.07571
     2015.86859         5.93218         5.09357
     2015.87133        13.06994         5.12571
     2015.87406         7.57870         5.06411
     2015.87680        -1.14954         5.13286
     2015.87954        -1.39177         5.31499
     2015.88228         0.84699         5.16053
     2015.88502         1.23875         5.17750
     2015.88775         5.82652         5.08375
     2015.89049        11.58128         5.09089
     2015.89323        12.56304         5.10607
     2015.89597        11.36881         5.15339
     2015.89870        13.72757         5.09357
     2015.90144         5.96933         5.03554
     2015.90418         5.61310         5.06768
     2015.90692         6.28786         5.06411
     2015.90966         6.98262         5.06679
     2015.91239         6.77938         5.08732
     2015.91513         5.53115         5.07125
     2015.91787         7.03291         5.06589
     2015.92061         9.83867         5.13553
     2015.92334         5.34544         5.15964
     2015.92608         4.39420         5.10071
     2015.92882        10.00296         5.19625
     2015.93156        -6.66627         5.30606
     2015.93977         4.03801         5.47927
     2015.94251         0.58778         5.25428
     2015.95894        -0.75864         5.28731
     2016.04929         1.01154         5.00340
     2016.05202        -9.25170         5.05072
     2016.05476         2.55306         4.97036
     2016.05750         2.97083         4.99893
     2016.06024        -4.70741         5.06679
     2016.06298        -5.33265         4.95161
     2016.06571         3.37411         4.92483
     2016.06845         1.20988         4.93733
     2016.07119        -1.88636         4.98197
     2016.07393        -2.54160         4.98911
     2016.07666       -11.19583         5.13911
     2016.07940       -12.44307         4.95697
     2016.08214         1.59369         4.99982
     2016.08488        -1.01954         4.91858
     2016.09583        -7.66649         4.90786
     2016.09857        -4.17573         4.92483
     2016.10131       -10.09997         4.95161
     2016.10404        -9.39420         4.93643
     2016.10678        -8.87744         4.93822
     2016.10952        -5.80268         4.92304
     2016.11226        -6.47691         4.90340
     2016.11499       -11.77215         4.92572
     2016.11773        -9.87439         4.92929
     2016.12058       -10.00655         5.21500
     2016.12320        -9.82987         4.92572
     2016.12594        -6.84510         4.92929
     2016.12867         1.16066         4.91143
     2016.13141        -1.38558         4.95161
     2016.13415         0.45618         4.98018
     2016.13689        -1.52405         4.93643
     2016.13963        -3.21129         4.92036
     2016.14236        -7.10353         4.88019
     2016.14510        -5.45076         4.88465
     2016.14784        -8.80100         4.89715
