# ================= DQRFIT RESULTS ================
# INPUT FILE: series/CCPW.rad
# OUTPUT: LDETRENDED
# FILTER FUNCTION: f(t)
# f(t)=+line(t)+annual(t)+jumps(t)
# line(t)=+P 1+P 2*t
# annual(t)=+P 3*sin(2*pi*t+P 4)
# jumps(t)=+P 5*heav(t-2016.2204  )
# heav(t)=(t<0?0:1)
# TOTAL OBSERVATIONS MTOT= 1950
# INITIAL TIME INTERVAL= 2020.1477 - 2014.5818 =  5.5659
# TOTAL OBSERVATIONS AFTER PREFILTER M= 1916
# TIME-SPAN= 2020.1477 - 2014.6037 =  5.5440
# OBSERVATIONS: USED M=  1916 REJECTED MTOT-M=    34 %USED=   98.2564
# N=  5 PARAMETERS
# MAXSIG= 175.00000
# MAXRES=  45.85501
# SCALE FACTOR FOR LENGTHS: SCL=  10.00000
# SCALE FACTOR FOR SIGMAS: SCLSIG=   1.00000
# CHI^2=   1379.178 DOF=  1911 CHI^2/DOF=   0.72170
# RMS=      5.388 SDEV=      5.389 MEAN=    0.04906
#  P #       PARAMETER +-    SIGMA %error PARAMETER NAME
# P 1 =      1085.41033 +-  230.263  21.21 YZERO                              
# P 2 =        -0.53634 +-    0.114  21.30 SLOPE                              
# P 3 =         2.60878 +-    0.156   5.98 ANNUAL AMPLITUDE                   
# P 4 =         3.05588 +-    0.084   2.76 ANNUAL PHASE                       
# P 5 =        -1.70733 +-    0.404  23.66 OFFSET 2016.2204                   
#       T            LDETRENDED       SIG_OBS
     2014.60369        -2.93293         4.84828
     2014.60643        -8.68446         4.80241
     2014.60917        -6.69900         4.90860
     2014.61190         6.05747         5.21018
     2014.61464        -2.54806         5.17365
     2014.61738         0.54841         5.22292
     2014.62012         0.24588         5.05727
     2014.62286         3.05635         5.02158
     2014.62559         2.07081         5.10569
     2014.62833         1.84428         4.85932
     2014.63107         2.77575         5.03348
     2014.63381        -4.27978         5.07680
     2014.63655         0.64269         4.81600
     2014.63928         5.81716         4.88566
     2014.64202        -1.73138         4.87292
     2014.64476        -3.33091         4.89840
     2014.64750         0.45956         4.82364
     2014.65023        -4.95097         4.80665
     2014.65297         7.15150         4.80326
     2014.65571         4.32897         4.96806
     2014.65845        11.12044         4.96382
     2014.66119         5.14490         4.96976
     2014.66392        10.69937         4.90690
     2014.66666         7.96484         4.83809
     2014.66940         8.96631         4.83469
     2014.67214        10.64878         4.87631
     2014.67488         0.90425         4.82110
     2014.67761         3.44571         4.91284
     2014.68035         4.17018         4.75823
     2014.68309        -1.71935         4.79051
     2014.68583         5.77912         4.87971
     2014.68856         4.57659         4.89925
     2014.69130         1.54706         4.98930
     2014.69404        -2.86348         4.82194
     2014.69678        -0.40701         4.83214
     2014.69952         4.57346         4.88991
     2014.70225         0.82393         4.79646
     2014.70499        -1.23260         4.78796
     2014.70773        -3.22113         4.91624
     2014.71047         3.91434         4.76503
     2014.71321         7.84180         4.87801
     2014.71594         3.53927         4.92899
     2014.71868        -0.70426         4.74973
     2014.72142         2.53321         4.73529
     2014.72416         3.31268         4.74634
     2014.72689         4.84515         4.91454
     2014.72963         2.09961         4.92644
     2014.73237         6.50508         4.96467
     2014.73511        -7.29045         4.88736
     2014.73785        -2.15598         4.78881
     2014.74058        -0.29751         4.81090
     2014.74332         7.66496         4.96976
     2014.74606        12.99342         4.99185
     2014.74880         2.66189         4.80750
     2014.75154         5.63936         5.05387
     2014.75427         1.22783         4.84743
     2014.75701        -6.42570         4.83469
     2014.75975        -0.59523         4.90690
     2014.76249        10.12424         4.79986
     2014.76522         5.19670         4.81685
     2014.76793        10.39116         5.01989
     2014.77002        10.39427         6.61191
     2014.78992        -0.07805         4.94088
     2014.79260         6.54039         4.81005
     2014.79534         7.51586         4.77437
     2014.79808        10.74033         4.95022
     2014.80082        15.33079         4.85678
     2014.80355         8.53726         4.94428
     2014.80629         0.91173         4.95702
     2014.80903         4.28820         5.07935
     2014.81176        47.96466        12.65378
     2014.81451         8.28514         4.85423
     2014.81724        16.33460         4.88056
     2014.81998         6.53207         4.93663
     2014.82272         3.62154         4.97741
     2014.82546        17.41501         4.99100
     2014.82820         1.80148         4.78202
     2014.83093         5.74195         4.89500
     2014.83367         3.76241         4.82704
     2014.83641         2.67388         4.81770
     2014.83915         7.63335         4.83214
     2014.84188         6.81682         4.99525
     2014.84462        -0.25671         5.00799
     2014.84736         7.79776         4.85932
     2014.85010         1.23423         5.01394
     2014.85284        -0.25131         4.88311
     2014.85557         9.69116         5.03008
     2014.85831         5.50063         4.98166
     2014.86105        -0.24690         4.82789
     2014.86379        -2.30543         4.84148
     2014.86653         0.22504         4.81685
     2014.86926        -0.03350         4.80835
     2014.87200        -0.40703         4.87207
     2014.87474         0.71544         4.91200
     2014.87748        -2.87009         4.87716
     2014.88021         1.68538         4.82110
     2014.88295         5.37985         4.97401
     2014.88569         4.56131         4.98590
     2014.88843        11.03878         5.02243
     2014.89117        14.53025         5.07341
     2014.89390         5.43772         5.00290
     2014.89664         3.82819         4.98251
     2014.89938         2.73066         5.01479
     2014.90212         5.51413         5.01734
     2014.90485        -5.12841         4.86187
     2014.90759        11.36406         5.13202
     2014.91033         7.85153         4.88141
     2014.91307        -1.50900         4.73104
     2014.91581        -0.33553         4.65374
     2014.91854         5.32894         4.70641
     2014.92128         3.69440         4.63845
     2014.92402         0.29887         4.74804
     2014.92676         7.92934         4.77862
     2014.92950        -1.15519         4.77267
     2014.93223        -7.24872         4.69536
     2014.93497         0.11275         4.72425
     2014.93771        -2.12579         4.72765
     2014.94045         8.29368         4.77862
     2014.94318        12.97515         5.15071
     2014.94592         5.78962         4.82619
     2014.94866        -0.11791         4.67583
     2014.95140       -11.32144         4.77777
     2014.95414         1.01503         4.66393
     2014.95687         5.78849         4.73784
     2014.95961         7.75896         4.71660
     2014.96235         4.27543         4.62740
     2014.96509         3.13190         4.81685
     2014.96783        -2.24263         4.63675
     2014.97056         7.63484         4.76673
     2014.97330         2.48630         4.76248
     2014.97604        -5.69023         4.76503
     2014.97878        -0.80776         4.71320
     2014.98151         8.25171         4.79986
     2014.98425         0.20218         4.70896
     2014.98699         2.82765         4.68432
     2014.98973        -0.22089         4.70896
     2014.99247        -6.58442         4.66988
     2014.99520        -8.32195         4.64524
     2014.99794         2.34952         4.67328
     2015.00068        -3.92601         4.63760
     2015.00342        -2.28354         4.66053
     2015.00616        -8.54107         4.66818
     2015.00889       -13.56461         4.81345
     2015.01163        -6.68014         4.83129
     2015.01437        -5.26167         4.84148
     2015.01711        -2.43520         4.75313
     2015.01984        -0.38873         4.63505
     2015.02258        -0.56326         4.72085
     2015.02532         3.44720         4.62910
     2015.02806        -6.55433         4.70216
     2015.03080        -0.66686         4.62740
     2015.03353        -4.99539         4.65289
     2015.03627         0.63708         4.62230
     2015.03901         2.28055         4.69112
     2015.04175        11.36601         4.71745
     2015.04449         2.04948         4.79561
     2015.04722         6.48395         4.74464
     2015.04996         1.44342         4.65544
     2015.05270        -6.26311         4.64014
     2015.05544        -3.03564         4.68432
     2015.05817         3.04183         4.70641
     2015.06091         1.14529         4.68942
     2015.06365         9.91276         4.85083
     2015.06639         2.19523         4.67243
     2015.06913        -0.24830         4.64524
     2015.07186         0.09117         4.74209
     2015.07460        -4.85936         4.71575
     2015.07734        -5.78090         4.61891
     2015.08008        -5.36943         4.62740
     2015.08282        -1.87596         4.66053
     2015.08555        -0.45749         4.72255
     2015.08829        -1.61002         4.77777
     2015.09103         4.70145         4.67667
     2015.09377        -1.10408         4.68602
     2015.09650        11.59438         5.01139
     2015.10198        16.25932         4.87207
     2015.10472         9.52879         4.86527
     2015.10746        10.15926         4.85763
     2015.11019        -2.64327         4.75313
     2015.11293        -0.89981         4.82025
     2015.11567         2.39666         4.85253
     2015.11841         0.11313         4.66818
     2015.12115        -4.23540         4.77182
     2015.12388        -8.82193         4.75738
     2015.12662        -4.11446         4.71575
     2015.12936        -2.27300         4.66733
     2015.13210        -3.58153         4.86017
     2015.13483        -1.83906         4.82110
     2015.13757         0.35141         4.75653
     2015.14031        -1.66712         4.74549
     2015.14305        -2.55865         4.65204
     2015.14579        -5.65718         4.73529
     2015.14852         1.21428         4.71830
     2015.15126         0.20075         4.72255
     2015.15400        -4.06478         4.71490
     2015.15674         2.89569         4.76333
     2015.15948         0.63416         4.67667
     2015.16221        -2.09137         4.69961
     2015.16495        -0.43191         4.70556
     2015.16769        -3.55144         4.73189
     2015.17043        -2.20197         4.68347
     2015.17316        -3.16550         4.94853
     2015.17590        -3.70203         5.00205
     2015.17864         2.20744         4.80326
     2015.18138         1.41790         4.77012
     2015.18412         6.71537         4.77607
     2015.18685         9.94184         4.85423
     2015.19233        -5.76522         5.06491
     2015.19507        -3.14675         4.73614
     2015.19780         2.61572         4.80410
     2015.20054         3.48518         5.10144
     2015.20328         1.06365         4.83469
     2015.20602         1.79612         4.90945
     2015.20876        -4.18841         4.81600
     2015.21149        -5.91194         4.70726
     2015.21423        -1.91547         4.91964
     2015.21697        -2.43301         4.98336
     2015.21971        -0.29354         4.79476
     2015.22245        -2.44507         4.77777
     2015.22518         0.19240         4.85763
     2015.22792        -3.22713         4.71066
     2015.23066        -1.97966         4.75228
     2015.23340         3.02280         4.88651
     2015.23613         3.43927         4.98166
     2015.23887         1.27674         5.12523
     2015.24161         2.92421         5.17705
     2015.24435         6.70168         5.10399
     2015.24709        -1.25585         4.85847
     2015.24982        -0.50138         4.74039
     2015.25256        -2.34692         4.85253
     2015.25530        -1.46545         4.77777
     2015.25804        -0.29698         4.72595
     2015.26078         3.80349         4.74804
     2015.26351         2.92296         4.83639
     2015.26625         1.00043         4.72340
     2015.26899        -2.32311         4.80920
     2015.27172         5.06936         4.96806
     2015.27720         4.84430         4.83724
     2015.27994         3.47677         4.76503
     2015.28542        -1.01130         4.90690
     2015.28815        -5.62683         4.87716
     2015.29089         0.32764         4.76927
     2015.29363         2.19711         4.73359
     2015.29637        -1.77442         4.79391
     2015.29911         5.29405         4.74379
     2015.30184         5.49652         4.75738
     2015.30458         5.25198         4.91030
     2015.30732         3.08245         4.62146
     2015.31279        -3.58161         4.72850
     2015.31553        -3.33714         4.71320
     2015.31827        -8.07967         4.72000
     2015.32101        -0.41521         4.66478
     2015.32375         4.01526         4.85593
     2015.32648        -4.99727         4.71745
     2015.32922        -3.17880         4.80410
     2015.33196         1.71967         4.61126
     2015.33470         4.12814         4.63675
     2015.33744        -1.40739         4.75313
     2015.34017        -5.70893         4.80410
     2015.34289        -2.77247         4.72765
     2015.34566         1.75502         4.71490
     2015.34839         1.94948         4.71660
     2015.35112        -3.90805         4.70811
     2015.35386         1.10242         4.65798
     2015.35660        -5.51212         4.67158
     2015.35934        -2.06265         4.97231
     2015.36481        -3.39571         4.74294
     2015.36755         2.58976         4.64694
     2015.37029        -1.56577         4.69451
     2015.37850        -1.64437         4.81260
     2015.38124        -4.66390         4.69112
     2015.38398        -0.91543         4.74549
     2015.38672        -5.11496         4.71660
     2015.38945        -2.82549         4.62570
     2015.39219         1.68097         4.77267
     2015.39493        -4.25956         4.69706
     2015.39767        -4.28309         4.82194
     2015.40041        -4.79262         4.82704
     2015.40314        -6.07415         4.88141
     2015.40588        -1.41268         4.67667
     2015.40862         0.83278         4.89500
     2015.41410         4.59272         4.90690
     2015.41683        -6.45081         4.72085
     2015.41957        -6.74134         4.62825
     2015.42231        -3.40687         4.62825
     2015.42505        -4.69141         4.74464
     2015.42778        -4.92894         4.75993
     2015.43052        -3.30847         4.76418
     2015.43326        -3.30400         4.65883
     2015.43600        -0.48153         4.70471
     2015.43874        -4.03806         4.72595
     2015.44147        -1.70459         4.90095
     2015.44421        -1.80513         4.70471
     2015.44695        -4.45266         4.61466
     2015.44969        -3.19419         4.64779
     2015.45243        -1.09072         4.83384
     2015.45516        -7.55025         4.70301
     2015.45790        -3.19478         4.88141
     2015.46064        -2.83332         4.82789
     2015.46338        -3.42785         4.71745
     2015.46611        -3.71538         4.77947
     2015.46885         4.33409         4.76163
     2015.47159        -1.20344         4.62485
     2015.47433        -7.69897         4.80580
     2015.47707        -3.83151         4.78287
     2015.47980        -4.44704         4.72510
     2015.48254        -3.17057         4.83299
     2015.48528        -7.17810         4.63420
     2015.48802         0.22037         4.71236
     2015.49076         0.41984         4.99440
     2015.49349        -1.07369         4.90775
     2015.49623        -6.44723         5.06406
     2015.49897        -2.37476         4.78541
     2015.50171         4.83171         4.68092
     2015.50444        -9.60282         4.90435
     2015.50718        -3.08835         4.67837
     2015.50992        -5.83888         4.65883
     2015.51266        -5.40242         4.62146
     2015.51540        -0.03695         4.57558
     2015.51813        -4.81348         4.75398
     2015.52087         4.01499         4.77182
     2015.52361        -3.91254         4.66988
     2015.52635         5.06493         4.72255
     2015.52908        -1.12761         4.67243
     2015.53182        -3.40314         4.62740
     2015.53456        -3.56067         4.77522
     2015.53730        -2.00420         4.80326
     2015.54004        -3.21373         4.76842
     2015.54277        -4.26826         4.70301
     2015.54551         1.44521         4.76673
     2015.54825        -2.27333         4.77352
     2015.55099         0.99414         4.81940
     2015.55373         4.54461         4.81175
     2015.55646        -1.65592         4.86187
     2015.55920        -4.48945         4.79561
     2015.56194        -2.91398         4.78796
     2015.56468         1.19548         4.77947
     2015.56741        -3.58305         4.90860
     2015.57015         3.12242         5.08020
     2015.57289         0.62789         4.99355
     2015.57563        -5.29664         4.88056
     2015.57837        -4.19717         4.89076
     2015.58110        -1.44870         4.90520
     2015.58384        -1.78024         5.01309
     2015.58658         4.05223         4.98930
     2015.58932         2.29370         4.86867
     2015.59206        -1.69683         4.92049
     2015.59479         0.49264         4.98336
     2015.60027         7.41857         5.02583
     2015.60301         3.80604         4.95447
     2015.60574        -3.05149         5.06151
     2015.60848         0.33198         5.13797
     2015.61122        10.92345         4.99525
     2015.61396         6.30892         4.97061
     2015.61670         2.73038         4.83894
     2015.61943         1.77585         4.74634
     2015.62217        -2.75868         4.84488
     2015.62491         2.48379         4.73784
     2015.62765        -1.17574         4.74124
     2015.63039        -0.70927         4.88311
     2015.63312         0.65520         4.86782
     2015.63586         4.99466         4.92049
     2015.63860        -0.84287         4.77012
     2015.64134        -2.87040         4.78626
     2015.64407         3.79507         4.81600
     2015.64681         2.60754         4.89585
     2015.64955        -5.65799         4.75313
     2015.65229        -2.55753         4.76503
     2015.65503         5.47594         4.78541
     2015.65776        -1.63259         4.86867
     2015.66050         0.78588         4.93323
     2015.66324         7.20235         4.74379
     2015.66598         2.91282         4.94937
     2015.66872        -2.71372         4.91624
     2015.67145         3.29075         4.77777
     2015.67419        -1.74578         4.72850
     2015.67693         0.82469         4.71490
     2015.67967        -0.05584         4.83384
     2015.68240        -2.61137         4.75398
     2015.68514        -2.95490         4.79476
     2015.68788        -0.27644         4.79561
     2015.69062         1.52603         5.18639
     2015.69336        -4.20450         4.88226
     2015.69609         6.79697         4.83724
     2015.69883         9.55544         4.90095
     2015.70157         3.91091         5.00290
     2015.70431         6.57437         4.84063
     2015.70705         4.06884         4.81005
     2015.70978         6.27631         4.76163
     2015.71252        -3.78522         4.72850
