# ================= DQRFIT RESULTS ================
# INPUT FILE: series/CHLW.rad
# OUTPUT: LDETRENDED
# FILTER FUNCTION: f(t)
# f(t)=+line(t)+annual(t)
# line(t)=+P 1+P 2*t
# annual(t)=+P 3*sin(2*pi*t+P 4)
# heav(t)=(t<0?0:1)
# TOTAL OBSERVATIONS MTOT= 1811
# INITIAL TIME INTERVAL= 2022.7488 - 2017.4757 =  5.2731
# TOTAL OBSERVATIONS AFTER PREFILTER M= 1781
# TIME-SPAN= 2022.7488 - 2017.4757 =  5.2731
# OBSERVATIONS: USED M=  1781 REJECTED MTOT-M=    30 %USED=   98.3435
# N=  4 PARAMETERS
# MAXSIG= 175.00000
# MAXRES=  41.65126
# SCALE FACTOR FOR LENGTHS: SCL=  10.00000
# SCALE FACTOR FOR SIGMAS: SCLSIG=   1.00000
# CHI^2=   4554.957 DOF=  1777 CHI^2/DOF=   2.56328
# RMS=     10.256 SDEV=     10.251 MEAN=   -0.39647
#  P #       PARAMETER +-    SIGMA %error PARAMETER NAME
# P 1 =     -3883.74799 +-  310.163   7.99 YZERO                              
# P 2 =         1.92047 +-    0.154   8.00 SLOPE                              
# P 3 =         6.47915 +-    0.335   5.17 ANNUAL AMPLITUDE                   
# P 4 =        -2.86434 +-    0.070   2.46 ANNUAL PHASE                       
#       T            LDETRENDED       SIG_OBS
     2017.47570        -2.00155         9.24913
     2017.47843         2.40219         9.17708
     2017.48117         2.79893         9.47968
     2017.48391        12.32867         9.39642
     2017.48665         7.91042         9.40763
     2017.48939        13.51616         9.11304
     2017.49212         5.21590         9.24433
     2017.49486         4.47564         9.39322
     2017.49760         8.70239         9.59335
     2017.50034        19.59813         9.33718
     2017.50308        14.20887         9.23472
     2017.50581         3.74261         9.16748
     2017.50855         3.67435         9.33879
     2017.51129         5.42910         9.28915
     2017.51403        17.17284         9.35319
     2017.51676        14.27558         9.36760
     2017.51950         4.62132         9.17548
     2017.52224        10.84606         9.19149
     2017.52498         3.51681         9.40923
     2017.52772         9.19555         9.55973
     2017.53045        16.10629         9.35159
     2017.53319        13.60703         9.17228
     2017.53593        11.70677         9.51970
     2017.53867        11.93352         9.32278
     2017.54141        14.24426         9.14026
     2017.54414        18.28100         9.27955
     2017.54688        14.00374         9.26514
     2017.54962         4.71248         9.24593
     2017.55236         9.64823         9.29396
     2017.55509         9.76897         9.28595
     2017.55783         6.18371         9.49248
     2017.56057        10.30645         9.23472
     2017.56331        13.94619         9.28275
     2017.56605         3.25594         9.43165
     2017.56878         2.54668         9.54852
     2017.57152        20.18042         9.10183
     2017.57426         6.09916         9.28915
     2017.57700        14.92190         9.24272
     2017.57974        12.56065         9.27474
     2017.58247        15.67539         9.24753
     2017.58521         6.22513         9.06981
     2017.58795         0.32987         9.35319
     2017.59069         7.66861         9.52611
     2017.59342        11.99936         9.20910
     2017.59616        12.80910         9.17548
     2017.59890        12.56684         9.43004
     2017.60164        11.53658         9.41243
     2017.60438         4.69933         9.16587
     2017.60711        12.98707         9.39322
     2017.60985         8.75281         9.60295
     2017.61259        25.55355         9.25713
     2017.61533        16.32529         9.26514
     2017.61807         4.76804         9.29876
     2017.62080        12.68778         9.15147
     2017.62354        18.01852         9.48608
     2017.62628        16.49126         9.42684
     2017.62902        14.75700         9.96639
     2017.63175         1.54775         9.24753
     2017.63449         7.88049         9.43645
     2017.63723        20.02823         9.06341
     2017.63997        27.24397         9.32117
     2017.64271        21.06071         9.52130
     2017.64544        15.79946         9.34999
     2017.64818         7.02020         9.36760
     2017.65092        13.63694         9.16427
     2017.65366        24.69468         9.15627
     2017.65639        20.79742         9.24913
     2017.65913        18.38717         9.49409
     2017.66187        19.28991         9.17388
     2017.66461        15.01465         9.61576
     2017.66735        20.52439         9.72143
     2017.67008        17.90213         9.21551
     2017.67282        15.03588         9.48448
     2017.67556        15.24262         9.20430
     2017.67830        11.67936         9.02338
     2017.68104        22.28310         9.12585
     2017.68377        26.85284         9.31477
     2017.68651        22.12859         9.78227
     2017.68925        19.38333         9.63818
     2017.69199        19.05407         9.32598
     2017.69472        24.42581         9.01378
     2017.69746        26.25955         9.34359
     2017.70020        21.21730         9.42364
     2017.70294        23.40004         9.92316
     2017.70568        18.80478         9.46046
     2017.70841        18.34452         9.05701
     2017.71115        20.93327         9.21230
     2017.71389        19.40101         9.21871
     2017.71663        18.31875         9.24272
     2017.71937        18.71049         9.18669
     2017.72213        10.79119         9.19309
     2017.72484        12.40298         9.05380
     2017.72758        13.37872         9.18028
     2017.73032        18.01346         9.07302
     2017.73305        14.33920         9.14026
     2017.73579        12.21294         9.12265
     2017.73853         8.50669         9.19149
     2017.74127         5.75043         9.44605
     2017.74401        12.13417         9.69742
     2017.74674        13.91791        10.19533
     2017.74948         7.91665        10.09927
     2017.75222        12.34540         9.57894
     2017.75496         8.05214         9.43485
     2017.75770         9.98488         9.74705
     2017.76043        10.38662         9.54212
     2017.76317        14.22036         9.62537
     2017.76591        21.52411        10.25938
     2017.76865         7.55485         9.52611
     2017.77138         5.78859         9.55172
     2017.77412        11.73433         9.97760
     2017.77686         8.01707         9.73584
     2017.77960         9.95582        10.10568
     2017.78234         8.34056         9.55172
     2017.78507         9.66730         9.27955
     2017.78781         5.52904         9.43004
     2017.79055        10.78078         9.66379
     2017.79329        12.28853        10.29940
     2017.79603         3.61127        10.58278
     2017.79876        19.05101        10.80693
     2017.80150         8.04275        12.11977
     2017.80424        15.45549        10.47551
     2017.80698        -1.53176        10.65163
     2017.80971         4.02598        10.03843
     2017.81245        -1.70428         9.71182
     2017.81519        -7.03954        10.74929
     2017.81793         1.43221        10.35864
     2017.82067         7.18095         9.84151
     2017.82340        13.90669         9.51170
     2017.82614         5.72043         9.62057
     2017.82888         2.98317        10.11208
     2017.83162        13.15792         9.56933
     2017.83436        10.64666         9.88313
     2017.83709         5.76040        10.59719
     2017.83983        13.96614        11.05348
     2017.84257         4.89188         9.97599
     2017.84531        -3.88337        10.51394
     2017.84807        -0.47668         9.91676
     2017.85078        14.16011         9.27314
     2017.85352         9.81085         9.49569
     2017.85626         0.30759         9.94397
     2017.85900         2.23934         9.90235
     2017.86173         9.95008         9.83991
     2017.86447        -0.81118        10.73808
     2017.86721        10.12256        10.84055
     2017.86995         5.58930        10.88538
     2017.87269         7.46605        10.80533
     2017.87542         1.69579        12.25105
     2017.87816         2.16253        12.09095
     2017.88094         8.13120        12.66091
     2017.88364         2.80601        11.07270
     2017.88637        -5.26224        11.99009
     2017.88911         9.86050        12.42556
     2017.89185        -3.54576        11.55621
     2017.89457         6.08802        12.03491
     2017.90280        -1.62379        12.08134
     2017.90554        18.08195        12.41115
     2017.90828         2.32469        11.79796
     2017.91102        -0.00457        11.92765
     2017.91373        -5.65878        11.95006
     2017.91649        -4.09108        11.96287
     2017.91923         5.01566        12.43837
     2017.92197         0.71140        11.95967
     2017.92470        -3.16985        11.58823
     2017.92744       -10.02911        12.04932
     2017.93018        -1.84137        11.08390
     2017.93292         3.94237        10.40187
     2017.93566         6.37011        10.23856
     2017.93839         2.24786        10.52995
     2017.94113        -1.46540        10.30581
     2017.94387        10.22534         9.95998
     2017.94661        10.53308        10.27859
     2017.94935         1.41382        10.43389
     2017.95208         9.37357        10.46271
     2017.95482        -5.65769        10.89338
     2017.95756        -9.03195        11.52259
     2017.96030        -5.54921        11.66348
     2017.96303       -11.92647        12.97632
     2017.96577        -3.68672        14.43005
     2017.96851        10.65402        16.04548
     2017.97125         9.96376        11.33847
     2017.97394         2.25958        12.67532
     2017.97646         7.25575        11.46655
     2017.97946       -11.30501        11.01026
     2017.98220         5.56373        10.55877
     2017.98494        -6.85353        10.91580
     2017.98767        -9.18579        11.31926
     2017.99041       -27.81905        14.30037
     2018.01232        -9.45011        10.88217
     2018.01505         4.11063         9.98560
     2018.01779        -3.39263        10.37465
     2018.02053        -4.12188        11.87321
     2018.02327       -10.66914        11.89883
     2018.02600        -0.80640        12.79060
     2018.02874        -4.56066        12.37273
     2018.03148       -16.02691        13.71759
     2018.03422       -26.60817        13.88410
     2018.03696        -0.98843        10.10728
     2018.03969        -5.35469        10.82134
     2018.04243       -18.68195        11.51458
     2018.04517       -15.76220        11.57702
     2018.04791       -20.72146        12.81942
     2018.05065       -11.59172        12.49441
     2018.05338       -13.59798        13.36857
     2018.05612       -15.89224        12.49601
     2018.05886       -13.96849        12.65931
     2018.06160       -14.44275        13.09639
     2018.06433       -14.76401        14.05701
     2018.06707        -9.44827        13.19566
     2018.06981       -17.82353        12.90107
     2018.07255       -14.14278        12.91068
     2018.07529       -38.88004        13.54628
     2018.07802       -25.06230        14.94398
     2018.08076       -12.36756        13.37337
     2018.08350        -8.55182        12.38074
     2018.08624       -23.42407        14.06982
     2018.08898       -26.07533        13.91932
     2018.09171       -12.80359        12.36633
     2018.09445       -14.66585        14.37081
     2018.09719        -1.96511        12.46879
     2018.09993       -20.95436        12.68813
     2018.10266       -33.49262        13.37177
     2018.10540       -10.23188        12.94109
     2018.10814       -14.06514        12.55685
     2018.11088        -2.39240        11.45534
     2018.11362       -11.40165        11.03908
     2018.11635       -10.18891        10.69485
     2018.11909       -14.52617        11.08070
     2018.12457        -6.23169        11.17676
     2018.12731       -23.54394        13.78163
     2018.13004        -8.36020        13.62793
     2018.13278        -3.47346        13.68717
     2018.13552       -12.62672        11.05989
     2018.13826        -6.00497        10.96063
     2018.14099       -11.93623        11.13514
     2018.14373       -18.85949        11.00705
     2018.14647        -4.30675        12.74577
     2018.14921       -41.83101        15.20655
     2018.15195        -0.84526        12.01250
     2018.15468       -10.04552        12.44798
     2018.15742       -12.91278        12.59847
     2018.16016        -9.97704        11.43293
     2018.16290        -4.93130        12.08455
     2018.16564       -20.90555        12.74257
     2018.16837       -25.91081        13.47584
     2018.17111        -3.45207        11.43133
     2018.17385       -11.76233        12.41115
     2018.17659        -4.20359        10.91580
     2018.17932       -12.52084        10.95262
     2018.18206       -10.57510        11.86841
     2018.18480       -13.71736        12.38394
     2018.18754        -4.71562        11.12873
     2018.19028        -6.20888        10.12649
     2018.19301       -10.47713        10.10568
     2018.19575         0.88861         9.77907
     2018.19849       -19.74965        11.90523
     2018.20123        -7.74491        12.46239
     2018.20397        -4.65317        10.66283
     2018.20670       -10.46842        10.74449
     2018.20944        -9.67868        10.61320
     2018.21218        -7.77994        11.28884
     2018.21492       -27.75320        10.88538
     2018.21765       -11.53846        10.55396
     2018.22041       -14.17975        12.59367
     2018.22313       -25.97497        15.97824
     2018.22587       -22.47623        14.11785
     2018.22861       -19.12949        12.07974
     2018.23134       -18.90975        13.92733
     2018.23408       -43.98400        16.00386
     2018.23682       -26.68426        12.15499
     2018.23956       -16.64052        12.58086
     2018.24230       -20.38178        16.14475
     2018.24503       -20.95703        11.87161
     2018.24777        -8.27429        11.06469
     2018.25051       -21.05055        12.52643
     2018.25325       -20.64181        12.77939
     2018.25598       -11.41807        12.24145
     2018.25872       -53.83932        17.29909
     2018.26146       -19.38358        14.19950
     2018.26420       -19.17784        13.28211
     2018.26694       -30.29610        13.61192
     2018.26967       -26.39236        13.34135
     2018.27241       -22.52661        13.71119
     2018.27515       -23.09187        13.82806
     2018.27789       -19.72413        15.39387
     2018.28062       -21.01139        13.56069
     2018.28336       -13.31065        10.33142
     2018.28610        -9.09090         9.92796
     2018.28884        -5.16016         9.83670
     2018.29158        -5.02542        10.37945
     2018.29431       -12.16368        12.06213
     2018.29705       -12.14194        10.94942
     2018.29979       -13.05919        10.85816
     2018.30253       -11.94345        12.68813
     2018.30527       -17.32271        10.49152
     2018.30800       -15.57997        10.03523
     2018.31074       -16.17123         9.79028
     2018.31348       -12.45148         9.95678
     2018.31622        -8.51874         9.58054
     2018.31895        -0.49300         9.33879
     2018.32169        -3.57926         9.01858
     2018.32443        -5.01452         9.08262
     2018.32717        -7.26177         8.91611
     2018.32991        -2.61603         9.38361
     2018.33264        -2.54829         8.94173
     2018.33538       -13.32755         9.68461
     2018.33812        -8.02480         9.36280
     2018.34086       -13.21506         9.09863
     2018.34360       -11.77432         9.18028
     2018.34633       -13.57158         9.11945
     2018.34907       -10.90884         8.94653
     2018.35181        -6.93209         9.35960
     2018.35455        -8.25335         9.06341
     2018.35728         1.75739         9.03619
     2018.36002        -4.43787         9.26514
     2018.36276        -6.89513         9.38041
     2018.36550        -6.53638         8.98336
     2018.36824        -4.05164         8.96735
     2018.37097        -2.10290         9.55813
     2018.37371        -2.92216         9.16267
     2018.37645        -3.02642         9.39482
     2018.37919        -3.67867         8.89530
     2018.38193        -1.42093         8.82005
     2018.38466        -0.36619         8.92252
     2018.38740        -3.17245         9.21871
     2018.39014         3.11929         9.42044
     2018.39288        -2.92296         9.18028
     2018.39561         0.16478         9.18349
     2018.39835        -0.73348         9.09383
     2018.40109        -1.44774         9.11144
     2018.40383        -7.53200         9.27154
     2018.40657        -0.89625         9.14186
     2018.40930         3.67249         9.58054
     2018.41204        -0.26877         8.95134
     2018.41478        -3.47803         9.04900
     2018.42299        -4.26480         9.22671
     2018.42573         3.13494         8.98496
     2018.42847        -2.53232         8.83126
     2018.43121        -1.57958         9.14026
     2018.43394        -4.24383         9.02979
     2018.43668        -0.39509         9.02819
     2018.43942         2.36265         9.15947
     2018.44216         3.27339         8.98176
     2018.44490        -2.02586         8.87129
     2018.44721       -14.33631        10.76370
     2018.45136         7.26373        19.34200
     2018.45311         0.09236         9.15147
     2018.45585         1.79610         9.04740
     2018.45859        -0.78215         9.03299
     2018.46132        -8.29441         9.16587
     2018.46406        -2.30567         9.05060
     2018.46680        -2.58093         9.18509
     2018.46954        12.09481         9.20430
     2018.47227         5.86356         9.25713
     2018.47503         4.41227         8.99617
     2018.47775         0.97104         9.08102
     2018.48049         7.06878         9.12905
     2018.48323        -4.37748         9.22351
     2018.48596         0.54627         9.00577
     2018.48870        -1.65499         9.08903
     2018.49144        -0.17425         8.90971
     2018.49418        -0.43651         9.26994
     2018.49692         5.39523         9.59495
     2018.49965        -1.77002         9.27474
     2018.50239        -7.56228         8.99296
     2018.50513        -8.58954         9.16267
     2018.50787         1.54420         9.06021
     2018.51060        -0.09806         9.46367
     2018.51334        -5.36831         9.30196
     2018.51608        -1.42457         9.21230
     2018.51882         2.22417         9.11464
     2018.52156         3.24791         9.00577
     2018.52429         2.90265         9.03299
     2018.52703        -4.92560         9.29236
     2018.52977         1.72014         9.29075
     2018.53251         1.41388         9.48448
     2018.53525         3.43862         9.09543
     2018.53798         3.10036         9.14666
     2018.54072        -1.20689         9.10504
     2018.54346         1.66485         9.29236
     2018.54620         2.39259         9.19950
     2018.54893         4.48633         9.30516
     2018.55167         2.96608         9.15307
     2018.55441         4.88282         9.18669
     2018.55715        -2.76144         9.31957
     2018.55989        -1.95170         9.52450
     2018.56262        -0.36896         9.24913
     2018.56536         3.05279         9.16427
     2018.56810         1.48053         8.89690
     2018.57084        -1.19073         8.98976
     2018.57357         1.99001         9.46367
     2018.57631        -1.67025         9.66860
     2018.57905         2.49250         9.54692
