# ================= DQRFIT RESULTS ================
# INPUT FILE: series/CIHL.rad
# OUTPUT: LDETRENDED
# FILTER FUNCTION: f(t)
# f(t)=+line(t)+annual(t)
# line(t)=+P 1+P 2*t
# annual(t)=+P 3*sin(2*pi*t+P 4)
# heav(t)=(t<0?0:1)
# TOTAL OBSERVATIONS MTOT= 3673
# INITIAL TIME INTERVAL= 2022.7488 - 2011.7016 = 11.0472
# TOTAL OBSERVATIONS AFTER PREFILTER M= 3666
# TIME-SPAN= 2022.7488 - 2011.7016 = 11.0472
# OBSERVATIONS: USED M=  3666 REJECTED MTOT-M=     7 %USED=   99.8094
# N=  4 PARAMETERS
# MAXSIG= 175.00000
# MAXRES=  25.50122
# SCALE FACTOR FOR LENGTHS: SCL=  10.00000
# SCALE FACTOR FOR SIGMAS: SCLSIG=   1.00000
# CHI^2=   5112.430 DOF=  3662 CHI^2/DOF=   1.39608
# RMS=      6.386 SDEV=      6.386 MEAN=    0.02654
#  P #       PARAMETER +-    SIGMA %error PARAMETER NAME
# P 1 =      1231.31544 +-   65.261   5.30 YZERO                              
# P 2 =        -0.61036 +-    0.032   5.30 SLOPE                              
# P 3 =         5.57652 +-    0.147   2.63 ANNUAL AMPLITUDE                   
# P 4 =        -3.09646 +-    0.037   1.20 ANNUAL PHASE                       
#       T            LDETRENDED       SIG_OBS
     2011.70157         4.08081         6.40994
     2011.70431         6.93348         6.43830
     2011.70705        10.68515         6.61081
     2011.70978         6.46882         6.45721
     2011.71252         3.35450         6.39931
     2011.71526        -2.78083         6.55055
     2011.71800         3.98084         6.52692
     2011.72073         9.11751         6.35087
     2011.72347         6.30818         6.36859
     2011.72621         3.38985         6.30479
     2011.72895         7.89852         6.29179
     2011.73169         2.53919         6.48438
     2011.73442         5.55486         6.53637
     2011.73716         1.26154         6.66043
     2011.73990        10.35521         6.31778
     2011.74264         6.36188         6.30597
     2011.74538         3.48355         6.45839
     2011.74811         4.34722         6.57536
     2011.75085         6.67089         6.43003
     2011.75359         0.67856         6.44657
     2011.75633        17.15123         6.49974
     2011.75906        26.13990         6.43003
     2011.76180         7.43158         6.44421
     2011.76454         2.46625         6.49974
     2011.76728         9.44192         6.43830
     2011.77002        -0.85141         6.53873
     2011.77275         7.37626         6.91683
     2011.77549         7.90693         6.71951
     2011.77823        -4.43040         6.46666
     2011.78077         5.97015         7.11888
     2011.78371        -0.60306         6.54700
     2011.78644         3.49162         6.42885
     2011.78918         6.24629         6.60017
     2011.79192         2.35596         6.61553
     2011.79466        -1.10237         6.49383
     2011.79739         4.61130         6.48793
     2011.80013         1.64397         6.39340
     2011.80287         1.52964         6.44303
     2011.80561         3.04431         6.48556
     2011.80835         2.41998         6.44421
     2011.81108         6.51465         6.68288
     2011.81382        -1.40067         6.45602
     2011.81656         1.37200         6.40876
     2011.81930         2.17367         6.41821
     2011.82203         2.55434         6.39813
     2011.82477         4.47901         6.60136
     2011.82751         8.34568         6.47847
     2011.83025         0.94035         6.41940
     2011.83299        -0.48598         6.40522
     2011.83572        -0.53531         6.53755
     2011.83846         1.78737         6.47257
     2011.84120         9.35104         6.40876
     2011.84394         7.75471         6.36504
     2011.84668         4.25538         6.49383
     2011.84941         1.48105         6.41821
     2011.85215        -4.50828         6.43239
     2011.85489        -1.90061         6.51628
     2011.85763         3.51106         6.57064
     2011.86036         8.67773         6.42176
     2011.86310         4.44741         6.47138
     2011.86584         1.04108         6.48202
     2011.86858         8.76675         6.45366
     2011.87132         0.06042         6.44303
     2011.87405         0.44209         6.38868
     2011.87679        20.25976         6.44303
     2011.87953         5.92343         6.46902
     2011.88227         1.36310         6.46548
     2011.88501         6.39177         6.41113
     2011.88743        -2.37775         7.47453
     2011.89048        -2.65188         6.45012
     2011.89322        -5.58521         6.51156
     2011.89596         1.67646         6.47493
     2011.89869         7.07513         6.45602
     2011.90143        -2.52620         6.41821
     2011.90417        -4.30453         6.50447
     2011.90691         0.13814         6.41349
     2011.90965         3.07081         6.37804
     2011.91238        -2.77952         6.66162
     2011.91512        -0.52884         6.49383
     2011.91786         4.38683         6.63444
     2011.92060        -4.99250         6.47493
     2011.92334        -7.64583         6.53519
     2011.92607        -3.36016         6.54700
     2011.92881        -2.45249         6.66870
     2011.93155         1.12518         6.56591
     2011.93429        -0.76715         6.63798
     2011.93702         2.13352         6.38041
     2011.93976         1.63620         6.37686
     2011.94250         1.20787         6.41821
     2011.94524        14.06354         6.41821
     2011.94798        14.03621         6.43121
     2011.95071         5.99088         6.38513
     2011.95345         1.40755         6.46548
     2011.95619        -0.57378         6.59427
     2011.95893         0.90389         6.48675
     2011.96167         6.93256         6.56945
     2011.96440         4.51923         6.49974
     2011.96714         2.33591         6.40522
     2011.96988         5.38358         6.40404
     2011.97262        -0.59275         6.47611
     2011.97535        -2.10708         6.52574
     2011.97809         1.47659         6.57773
     2011.98083         0.26126         6.48438
     2011.98357         4.16993         6.38159
     2011.98631         2.72960         6.36741
     2011.98904         0.26227         6.66989
     2011.99178        20.23895         6.53046
     2011.99452        17.21962         6.47847
     2011.99726        13.93329         6.39340
     2012.00273         0.96763         6.39813
     2012.00547        -6.38570         6.44303
     2012.00821         2.25097         6.52219
     2012.01095         2.70564         6.40994
     2012.01368         8.37531         6.34496
     2012.01642         6.62399         6.39340
     2012.01916         1.96466         6.39458
     2012.02190         2.96233         6.38159
     2012.02464         3.73200         6.40167
     2012.02737         1.80667         6.36977
     2012.03011         3.95034         6.36268
     2012.03285         0.49201         6.38868
     2012.03559         0.77368         6.40758
     2012.03833        -1.01265         6.35677
     2012.04106         2.95102         6.35677
     2012.04380         4.06570         6.38159
     2012.04654        -0.07163         6.38159
     2012.04928        -1.24296         6.45602
     2012.05201         2.45871         6.47966
     2012.05475        21.07138         6.44539
     2012.05749        18.17405         6.39931
     2012.06023        16.16072         6.47493
     2012.06297         2.24039         6.46075
     2012.06570         8.94606         6.52219
     2012.06844        -8.02226         6.54819
     2012.07118        -1.85759         6.34141
     2012.07392        -1.38392         6.37686
     2012.07666        -5.33925         6.35914
     2012.07939         0.71442         6.49383
     2012.08213         1.57209         6.41467
     2012.08487        -0.47224         6.43239
     2012.08761         1.76843         6.52574
     2012.09034        -1.85590         6.38041
     2012.09308         2.59478         6.41349
     2012.09582         2.48045         6.44539
     2012.09856         2.73912         6.47257
     2012.10130         0.48379         6.58836
     2012.10403        -4.94654         6.46902
     2012.10677         9.48613         6.53873
     2012.10951        -0.82620         6.56473
     2012.11225         7.79847         6.51510
     2012.11498         1.18914         6.51865
     2012.11772         4.30182         6.52337
     2012.12046         5.13149         6.55055
     2012.12320         2.52016         6.50211
     2012.12594        -0.70417         6.37332
     2012.12867        -1.94550         6.40994
     2012.13141         2.84317         6.50801
     2012.13415         5.46484         6.42294
     2012.13689         8.64651         6.44539
     2012.13963         1.88618         6.55173
     2012.14236        -0.18415         6.68407
     2012.14510        -0.30247         6.49502
     2012.14784        -5.31680         6.48438
     2012.15058        -2.23913         6.45957
     2012.15331        -2.75546         6.40285
     2012.15605         0.51721         6.52337
     2012.15879        -0.15712         6.53046
     2012.16153         0.63155         6.43948
     2012.16427        -2.75678         6.50211
     2012.16700         1.54089         6.54110
     2012.16974        -2.33643         6.42176
     2012.17248        -1.10276         6.42412
     2012.17522        -2.39509         6.46784
     2012.17796         0.03758         6.48675
     2012.18069        -0.72675         6.55528
     2012.18343        -3.98208         6.46193
     2012.18617        -6.89341         6.44421
     2012.18891        -6.30574         6.51274
     2012.19164        -2.56607         6.53283
     2012.19438        -6.02039         6.50092
     2012.19712        -0.11072         6.47611
     2012.19986        -1.63405         6.52101
     2012.20260         7.00962         6.51156
     2012.20533        14.87929         6.49265
     2012.20807         2.72596         6.34260
     2012.21081        -0.24037         6.20553
     2012.21355        -0.54570         6.26107
     2012.21614       -13.50512         6.67343
     2012.21902        -0.39536         6.28943
     2012.22176        -0.86168         6.40522
     2012.22450        -8.51001         6.37213
     2012.22724        -5.08034         6.44657
     2012.22997        -0.41267         6.43239
     2012.23271         2.79900         6.49620
     2012.23545        -3.36133         6.26698
     2012.23819         0.90634         6.42176
     2012.24093        -4.86999         6.31542
     2012.24366         7.19468         6.27643
     2012.24640         5.83236         6.49383
     2012.24914        -2.67097         6.42176
     2012.25188        -4.34930         6.40404
     2012.25462       -10.26663         6.39458
     2012.25735        -8.52696         6.34378
     2012.26009        -3.26129         6.37213
     2012.26283        -3.82962         6.40876
     2012.26557        -5.62295         6.41349
     2012.26830        -5.94028         6.39222
     2012.27104        -9.52860         6.46193
     2012.27378        -4.32793         6.33314
     2012.27652         0.42574         6.39577
     2012.27926         0.53841         6.60372
     2012.28199        -2.48592         6.39104
     2012.28473        -0.79525         6.36032
     2012.28747        -5.51458         6.36741
     2012.29021         2.24609         6.39695
     2012.29295        -6.30424         6.41940
     2012.29568       -11.38857         6.42294
     2012.29842        -1.00089         6.39813
     2012.30116       -12.17922         6.40876
     2012.30390       -13.29855         6.19845
     2012.30663        -9.98788         6.23035
     2012.30937        -3.51921         6.24453
     2012.31211         0.67846         6.61908
     2012.31485        -1.59387         6.54582
     2012.31759        -1.88020         6.38868
     2012.32032        -6.96353         6.39222
     2012.32306        -5.49985         6.32605
     2012.32580        -8.39218         6.29415
     2012.32854        -8.28551         6.41467
     2012.33128        -2.19684         6.40758
     2012.33401         0.04483         6.47138
     2012.33675        -7.31550         6.38159
     2012.33949        -8.40083         6.33196
     2012.34223       -11.95216         6.25398
     2012.34496       -11.32749         6.24334
     2012.34770        -7.10081         6.38041
     2012.35036        -5.55819         6.48675
     2012.35318        -3.63747         6.51392
     2012.35592        -2.41880         6.28115
     2012.35865        -5.94813         6.30597
     2012.36139        -7.05346         6.24334
     2012.36413        -8.63579         6.28115
     2012.36687        -6.78812         6.26107
     2012.36961        -4.84445         6.25634
     2012.37234        -1.83477         6.35677
     2012.37508         0.12590         6.29888
     2012.37782        -5.39843         6.39340
     2012.38056        -5.72276         6.24334
     2012.38329        -7.87309         6.40994
     2012.38603        -7.90942         6.44303
     2012.38877       -11.06675         6.50211
     2012.39151        -2.02008         6.41703
     2012.39425        -4.87841         6.31542
     2012.39698         5.87426         6.54346
     2012.39972        -4.32006         6.33905
     2012.40246        -4.64939         6.19372
     2012.40520       -13.44872         6.22562
     2012.40794        -3.61905         6.25634
     2012.41067        -2.99638         6.41113
     2012.41341        -0.70371         6.32724
     2012.41615       -10.07304         6.44775
     2012.41889        -3.44637         6.52101
     2012.42162        -5.92670         6.30833
     2012.42363         6.42453         9.59069
     2012.42710        10.51565         6.45012
     2012.42984        -3.95968         6.32960
     2012.43258        -8.14701         6.37095
     2012.43531        -8.56634         6.33314
     2012.43805        -8.05467         6.28706
     2012.44079       -13.08000         6.30715
     2012.44353        -7.99833         6.33669
     2012.44626        -4.91166         6.38395
     2012.44900        -4.80698         6.41231
     2012.45174        -2.75631         6.33078
     2012.45448        -4.22664         6.34378
     2012.45722        -4.95597         6.38159
     2012.45995        -0.55330         6.72187
     2012.46269        -6.91963         6.34968
     2012.46543        -4.57996         6.31069
     2012.46817        -4.73429         6.34732
     2012.47091        -7.18962         6.40876
     2012.47364        -2.89995         6.38513
     2012.47638        -0.25327         6.40522
     2012.47912        -3.11260         6.34023
     2012.48186        -3.31293         6.34968
     2012.48459        -6.92426         6.38041
     2012.48733        -7.66459         6.40049
     2012.49007        -1.90692         6.38395
     2012.49281        -4.45125         6.37922
     2012.49555        -3.02058         6.34850
     2012.49828         0.92609         6.40758
     2012.50102        -5.55123         6.43948
     2012.50376        -3.51156         6.47375
     2012.50650        -1.80489         6.29888
     2012.50924        -2.77822         6.40758
     2012.51197         3.66245         6.44303
     2012.51471         5.21612         6.37095
     2012.51701         2.75653         7.94124
     2012.52019        -4.51454         6.48202
     2012.52292         1.31313         6.39813
     2012.52566         4.46481         6.30833
     2012.52840         2.31148         6.39104
     2012.53114        -2.14785         6.40404
     2012.53388        -2.17218         6.37922
     2012.53661        -5.62551         6.43948
     2012.53935         3.92716         6.32960
     2012.54209         5.34583         6.33669
     2012.54483         2.78550         6.52219
     2012.54757         1.38017         6.42294
     2012.55030        -4.57216         6.38159
     2012.55208        -0.10807        11.57335
     2012.55578         2.84519         6.33787
     2012.55852        -1.81014         6.28943
     2012.56125        -0.81947         6.34378
     2012.56399        -2.49980         6.33669
     2012.56673         1.44887         6.33787
     2012.56947         0.57554         6.38395
     2012.57221         0.78121         6.29179
     2012.57494         2.57888         6.34496
     2012.57768         6.31056         6.40994
     2012.58042         3.59523         6.34378
     2012.58316        -3.17110         6.33551
     2012.58590         1.95557         6.36504
     2012.58863         5.38424         6.32015
     2012.59137         0.83591         6.37686
     2012.59411         7.95458         6.36150
     2012.59685         1.74825         6.53519
     2012.59958         5.80592         6.41467
     2012.60232         3.70960         6.70179
     2012.60506         3.87727         6.34496
     2012.60780         6.72894         6.34141
     2012.61054         9.46761         6.33432
     2012.61327         8.27628         6.29888
     2012.61601        11.54095         6.35205
     2012.61875         6.31562         6.33432
     2012.62149        10.16629         6.42058
     2012.62423        10.60396         6.34496
     2012.62696        -0.30237         6.43003
     2012.62970         0.59331         6.43003
     2012.63244        -0.12402         6.45484
     2012.63518         9.31265         6.42412
     2012.63791         7.10032         6.39813
     2012.64065        15.44199         6.45012
     2012.64339        10.41566         6.35796
     2012.64613         9.99833         6.35323
     2012.64887         5.50300         6.32133
     2012.65160         9.55767         6.39695
     2012.65434         6.41035         6.42530
     2012.65708        11.12002         6.55882
     2012.65982         4.06769         6.50329
     2012.66256         9.08236         6.36741
     2012.66529        13.96903         6.37568
     2012.66803         8.15770         6.44066
     2012.67077         8.43237         6.40285
     2012.67351         6.01404         6.38986
     2012.67624         6.90171         6.37922
     2012.67898         9.95439         6.31187
     2012.68172         5.44206         6.36032
     2012.68446         7.50573         6.33078
     2012.68720         6.78940         6.35087
     2012.68993         6.59707         6.33314
     2012.69267         8.68574         6.44066
     2012.69541         5.45341         6.29415
     2012.69815         4.27108         6.45602
     2012.70089         1.53375         6.34614
     2012.70362         0.04843         6.35087
     2012.70636         8.18010         6.39340
     2012.70910         3.88377         6.29179
     2012.71184         9.69544         6.39222
     2012.71457         9.63811         6.30715
     2012.71706         9.53363         6.95582
     2012.72005        10.62045         6.29651
     2012.72279         6.58812         6.32487
     2012.72553        12.36479         6.35796
     2012.72826        10.65246         6.48675
     2012.73100         3.42614         6.52101
     2012.73374         6.15981         6.45484
     2012.73648         7.16448         6.35559
     2012.73921         6.94815         6.43358
     2012.74195        11.66182         6.45248
     2012.74469        10.97949         6.39577
     2012.74743        12.51716         6.37332
     2012.75017         3.42883         6.37804
     2012.75290         8.86250         6.32251
     2012.75564         3.89718         6.29651
     2012.75838         5.03685         6.34023
     2012.76112        11.71752         6.30597
     2012.76386         6.89819         6.30479
     2012.76659         9.44186         6.31542
     2012.76933         8.73353         6.31424
     2012.77207         9.53620         6.31306
     2012.77481         5.28587         6.24216
