# ================= DQRFIT RESULTS ================
# INPUT FILE: series/CLCV.rad
# OUTPUT: LDETRENDED
# FILTER FUNCTION: f(t)
# f(t)=+line(t)+annual(t)
# line(t)=+P 1+P 2*t
# annual(t)=+P 3*sin(2*pi*t+P 4)
# heav(t)=(t<0?0:1)
# TOTAL OBSERVATIONS MTOT= 4119
# INITIAL TIME INTERVAL= 2022.7488 - 2010.6502 = 12.0986
# TOTAL OBSERVATIONS AFTER PREFILTER M= 4094
# TIME-SPAN= 2022.7488 - 2010.6502 = 12.0986
# OBSERVATIONS: USED M=  4094 REJECTED MTOT-M=    25 %USED=   99.3931
# N=  4 PARAMETERS
# MAXSIG= 175.00000
# MAXRES=  85.29518
# SCALE FACTOR FOR LENGTHS: SCL=  10.00000
# SCALE FACTOR FOR SIGMAS: SCLSIG=   1.00000
# CHI^2=   5719.829 DOF=  4090 CHI^2/DOF=   1.39849
# RMS=      9.323 SDEV=      9.282 MEAN=    0.88767
#  P #       PARAMETER +-    SIGMA %error PARAMETER NAME
# P 1 =      5490.18117 +-   74.128   1.35 YZERO                              
# P 2 =        -2.72514 +-    0.037   1.35 SLOPE                              
# P 3 =         4.07367 +-    0.175   4.28 ANNUAL AMPLITUDE                   
# P 4 =         2.74540 +-    0.056   2.04 ANNUAL PHASE                       
#       T            LDETRENDED       SIG_OBS
     2010.65023        19.83615        11.02045
     2010.65297        16.13361        12.06821
     2010.65468        21.96926        15.20204
     2010.65938        10.06307        15.06132
     2010.66119        12.11399        11.85889
     2010.66392        20.49845        13.02019
     2010.66667         7.89593        10.80640
     2010.66940        17.59638        11.91684
     2010.67214        15.78084        10.58881
     2010.67488        14.26930        10.41733
     2010.67761        19.79276        10.57816
     2010.68035        22.82722         9.51621
     2010.68309        25.69768         9.72198
     2010.68583        10.42414        12.92085
     2010.68856         9.90860        13.46838
     2010.69221        10.23253        14.40972
     2010.69404        23.29753        10.03536
     2010.69678         8.18899         9.82013
     2010.69952        24.07545         9.91237
     2010.70225        28.37191        11.23331
     2010.70499        19.42437         9.80830
     2010.70773         9.59883        10.74609
     2010.71047        32.85129        11.74182
     2010.71193        19.43228        42.24288
     2010.71701        30.64412        37.60954
     2010.71963        20.41227        15.10389
     2010.72142        29.78514         9.51384
     2010.72416        22.68960        13.03793
     2010.72689        13.11206         9.06446
     2010.72963        19.35052        10.26596
     2010.73237        23.20598         8.60326
     2010.73511        20.80044         8.51693
     2010.73785        20.30990         9.23594
     2010.74058        20.50436         8.88589
     2010.74332        22.60182         8.58197
     2010.74606        23.29229         8.70969
     2010.74880        17.52476         8.66830
     2010.75154        33.29421         8.36438
     2010.75427        37.26367         9.39085
     2010.75701        18.16713        11.42134
     2010.75975        24.91759         9.15197
     2010.76249        23.88405         8.19290
     2010.76522        25.05951         9.77519
     2010.76796        19.05197        12.53060
     2010.77066        24.25632        10.79576
     2010.77431         5.88727        14.35413
     2010.77618        25.08036         9.81185
     2010.77891        24.38482         7.97649
     2010.78165        25.91628         7.89962
     2010.78439        31.08974         8.19645
     2010.78713        32.71020         8.10066
     2010.78987        22.59866         8.57961
     2010.79260        27.61812         8.98996
     2010.79534        21.64958         8.04035
     2010.79808        29.98905         7.84286
     2010.80082        29.89251         8.12195
     2010.80355        28.44997         7.90908
     2010.80629        31.02943         8.22365
     2010.80892        26.13159        13.39152
     2010.81535        27.62112        17.61569
     2010.81819        25.99585        14.96553
     2010.81998        30.20873        12.45018
     2010.82155         9.52002        24.85425
     2010.82639        27.20121        13.98990
     2010.82710        15.46914        20.79446
     2010.83186        -0.35790        84.77430
     2010.83463        16.96164        14.28673
     2010.83641        17.10450         8.96513
     2010.83915        29.98296         8.10894
     2010.84188        20.52242         8.04744
     2010.84462        29.76388        11.35275
     2010.84736        31.10234        11.59873
     2010.85002        21.97260         9.01479
     2010.85381        39.30592        16.24508
     2010.85516        30.07559        31.13492
     2010.85929        37.64884        15.30848
     2010.86105        21.34065         9.21583
     2010.86379        18.46511         8.40813
     2010.86643        21.11131         9.78347
     2010.87294        17.52406        16.31603
     2010.87563        22.44338        13.88347
     2010.87748        28.40842         8.56423
     2010.88018        27.80577        21.22846
     2010.88390        49.99392        56.87137
     2010.88668        37.15049        16.41773
     2010.88925        35.05750        21.59743
     2010.89471        65.45538       114.77395
     2010.89753        21.66708        14.47831
     2010.89938        29.39110        13.13844
     2010.90200        39.10625        11.88255
     2010.90593       -12.47605        41.87273
     2010.90851        23.89800        16.25217
     2010.91123        27.82141        13.79123
     2010.91208        26.55971        16.02275
     2010.91682        20.54163        15.45748
     2010.92219        14.03425        14.31747
     2010.92402        23.25525         9.71015
     2010.92654        12.73012        22.40513
     2010.93057        19.40409        21.47089
     2010.93332        35.01459        18.60314
     2010.93487        44.32283        20.11684
     2010.94685        17.47748        14.23706
     2010.94784        11.64216        12.82624
     2010.95242        -4.72335        30.42892
     2010.95513        29.09904        16.66016
     2010.95687        23.29079        11.11624
     2010.95961        17.39625         9.71606
     2010.96223        33.33138        12.60037
     2010.97436         8.27044        18.64098
     2010.97604        18.73901        13.54407
     2010.97981        11.82228        19.26420
     2010.98151        22.48193        15.37825
     2010.98295        15.27186        59.38435
     2010.99620        -1.36104        15.20796
     2010.99794        27.04970        10.52022
     2011.00342        26.23962        10.65148
     2011.00616        26.71308         9.04081
     2011.00889        23.77454         8.34900
     2011.01163        29.32601         9.20992
     2011.01437        23.83947        10.61364
     2011.01711        21.26193         8.95330
     2011.01984        19.48539         8.76409
     2011.02258        15.55585         8.34545
     2011.02532        15.71631        11.72999
     2011.02741        24.80301        11.23804
     2011.03178       -14.48510       101.46640
     2011.04543        18.59312        14.33403
     2011.04717        30.18484        12.56371
     2011.05088         4.37596        14.29146
     2011.05270        17.29492         8.38448
     2011.05544        16.81838         8.98641
     2011.05817        15.22384        10.77565
     2011.06091        28.73330         8.22365
     2011.06365        34.66377        11.58454
     2011.06639        14.05523         8.67421
     2011.06913        17.78669         9.21820
     2011.07186        23.91115         9.63328
     2011.07460        16.45361         7.88543
     2011.07734        20.47707         7.80620
     2011.08008        21.57853         9.79175
     2011.08282        12.45899         8.82440
     2011.08556        15.12047         9.21228
     2011.08829        19.89391         7.91854
     2011.09103        13.47138         8.28041
     2011.09377        21.82984         8.39985
     2011.09639        -5.82503        10.92702
     2011.10015        13.69223        14.64741
     2011.10198        16.18322         8.07583
     2011.10469        27.61360        11.22740
     2011.10836        18.42362        14.34113
     2011.11019        19.26160         8.14560
     2011.11293        20.91906         8.02261
     2011.11567        13.63653        10.52022
     2011.11841        32.94199        10.21156
     2011.12110        37.89233        18.57121
     2011.12758        23.14699        15.47167
     2011.12924        26.87849        36.44943
     2011.13300        14.79375        14.18148
     2011.13460        38.31012        13.54643
     2011.13856        15.19591        15.21860
     2011.14031        23.87367        12.24678
     2011.14302        19.05306        11.00980
     2011.14680         1.67236        17.37089
     2011.15220        31.04708        14.79287
     2011.15400        19.44998        12.62521
     2011.15674        19.80444        10.58762
     2011.15941        20.63373         9.63683
     2011.16323        26.21415        21.65301
     2011.16495         9.08982        11.71817
     2011.16769         3.83628        12.79550
     2011.17043        21.77575        13.27799
     2011.17296        -2.68235        13.73446
     2011.17685         0.75625        15.18430
     2011.17864        16.97713        10.29434
     2011.18134        12.99247        11.84943
     2011.18500        11.50646        15.17603
     2011.18671         2.05511        12.85817
     2011.19060        19.71572        17.12373
     2011.19233        21.87743        11.03582
     2011.19487        32.07035        14.08451
     2011.19875        18.07193        15.32858
     2011.19934        25.44353        22.71496
     2011.20430         8.07005        32.94308
     2011.20697        10.69834        17.75405
     2011.20876         7.32220        21.49927
     2011.21149        17.48166        13.41280
     2011.21423         7.63912        12.56844
     2011.21697        23.98058        14.13654
     2011.21971        25.98404        11.04173
     2011.22245        20.49651        10.91283
     2011.22509         6.08471        23.17499
     2011.22795        17.81951        16.59512
     2011.23066        19.39189        16.32549
     2011.23707         8.32436        14.95843
     2011.23883         9.51314        10.85607
     2011.24254        14.63626        15.32740
     2011.24435        14.50919        11.83170
     2011.24709        10.24667         9.16025
     2011.24982         8.68612         9.11295
     2011.25256        12.21958        11.17655
     2011.25530         9.91004         9.51029
     2011.25804        16.69450        13.07577
     2011.26072        19.57382        11.11032
     2011.26442        17.69188        13.93550
     2011.26625        16.56588        12.94450
     2011.26899        14.86134         9.66994
     2011.27173        15.32480        13.98635
     2011.27544        35.52092        17.01139
     2011.27720        21.94573        12.01499
     2011.27994        11.37419        10.65858
     2011.28268        18.73965        13.59847
     2011.28534         4.64789        13.17629
     2011.28901         1.55490        16.68027
     2011.29178        23.65844        14.07386
     2011.29363        25.45249        13.33712
     2011.29637        17.12495        10.07911
     2011.29911        18.52841        10.11577
     2011.30184        17.66688        14.80115
     2011.30458        10.26034        10.20683
     2011.30732        22.48580         9.87689
     2011.31006        15.12126        12.07767
     2011.31271         3.50149        24.34929
     2011.31644        19.02465        14.06440
     2011.31827        12.36164        12.32483
     2011.32101         1.40710        10.35111
     2011.32375        24.68256        14.10816
     2011.32648         2.92202        11.82460
     2011.32923        -4.01250        10.16781
     2011.33196        10.86895        10.16071
     2011.33470        -0.90659        11.37995
     2011.33744         8.72987        10.79221
     2011.34017        19.32433        10.80877
     2011.34289        10.17973        13.99936
     2011.34660        27.68984        16.73821
     2011.34839         6.97671        13.21176
     2011.35112        27.54317        14.57409
     2011.35386        20.27464        11.88964
     2011.35660        12.58810        11.77611
     2011.35934        10.36956        13.98044
     2011.36208        10.03502        11.91093
     2011.36481        -1.10452        11.61055
     2011.36755        15.55694        12.84871
     2011.37029        17.02240        13.52988
     2011.37303        29.31186        18.31932
     2011.37577         9.89132        13.45538
     2011.37850        10.31478        13.47075
     2011.38124        13.50425        13.29454
     2011.38398        19.70971        12.23850
     2011.38672        16.08617        13.80187
     2011.38945        19.89863        12.53060
     2011.39219        25.67509        13.38206
     2011.39480        -6.57280        21.11966
     2011.39865        19.95468        18.68592
     2011.40133        23.42200        14.54926
     2011.40314        19.70093        13.14909
     2011.40588        11.80739        11.82460
     2011.40858        28.20974        15.59348
     2011.41136        38.30632        20.30250
     2011.41410        17.83479        14.99746
     2011.41683        25.99424        13.10060
     2011.41957        16.46870        12.54124
     2011.42223         6.50794        14.83781
     2011.42601        30.81424        52.66139
     2011.42873        35.24866        15.43856
     2011.43052        25.68554        14.80943
     2011.43326        17.79001        14.29855
     2011.43600        12.29247        14.09515
     2011.43874        11.08593        13.85627
     2011.44147        19.31939        12.92676
     2011.44515        19.61840        15.46221
     2011.44695        15.24531        13.89884
     2011.44969        14.58377        14.38252
     2011.45243         3.77823        14.86501
     2011.45516         3.75769        13.00127
     2011.45790        14.34215        14.39907
     2011.46061       -10.97745        17.07998
     2011.46434         2.31769        14.87329
     2011.46611         6.19054        14.93005
     2011.46885         3.34000        14.96435
     2011.47159        -4.48754        15.60412
     2011.47433         7.61392        13.92368
     2011.47707        13.42738        13.88938
     2011.47980        19.61284        13.73210
     2011.48254        -0.49970        13.61502
     2011.48528        13.34976        14.56227
     2011.48776        33.87553        22.46071
     2011.49164        28.14711        17.52581
     2011.49445        13.66876        14.56818
     2011.49624        10.74562        14.41090
     2011.49897        11.62207        14.81298
     2011.50171         9.95853        14.52679
     2011.50444       -13.27201        14.48422
     2011.50718         9.02545        14.10343
     2011.50992         2.36691        15.23043
     2011.51266         9.64538        14.72546
     2011.51540        -1.29516        14.06795
     2011.51813        16.60430        13.65996
     2011.52087        15.55676        13.12071
     2011.52361        11.17722        13.09942
     2011.52634        29.40167        16.22616
     2011.53003         7.65371        13.62685
     2011.53182        13.59660        13.04739
     2011.53456        17.66206        12.99299
     2011.53730         8.33252        12.40761
     2011.54004         7.52999        18.04141
     2011.54644         4.48845        14.27372
     2011.54825         6.49737        13.20467
     2011.55099        -4.31917        12.58027
     2011.55373         7.90629        12.91848
     2011.55646        -0.48125        12.97998
     2011.55920        10.77721        13.06985
     2011.56194         9.96767        13.09351
     2011.56468         5.93713        12.56253
     2011.56741        24.98860        12.09186
     2011.57015        -0.03394        13.04857
     2011.57289        27.83152        12.81915
     2011.57563        30.68398        12.15454
     2011.57837        31.49044        12.47502
     2011.58111        29.84491        12.30354
     2011.58384         2.53436        12.35913
     2011.58658        14.20882        12.38041
     2011.58932       -23.10372        13.04620
     2011.59206        14.39375        12.34493
     2011.59479        13.46021        12.00672
     2011.59753        19.14067        11.84470
     2011.60027        37.74813        12.28226
     2011.60301        16.42359        11.76784
     2011.60563        27.47574        30.23380
     2011.60941         0.00104        38.67977
     2011.61210        21.06137        44.82326
     2011.61482       -30.06122        62.48034
     2011.61764        12.65146        59.86093
     2011.62037        -7.86309        88.63424
     2011.62305         9.31821        79.74480
     2011.62582        39.72275       102.80507
     2011.62850        73.11007       112.00553
     2011.63130        34.09869        75.83874
     2011.63402       -12.78790        77.89525
     2011.63683       -14.69324        73.63678
     2011.63951        48.43906        92.78627
     2011.64219        22.22636       136.94020
     2011.64493        30.61282        97.46100
     2011.64768       -47.41566       114.25125
     2011.65040        23.20775       127.63094
     2011.65589        -4.96829        94.16398
     2011.65863       -21.40682       123.47418
     2011.66142        87.65677        97.23631
     2011.68859       -18.09418       116.80917
     2011.69127        -4.00888       169.52732
     2011.70240        28.00545       575.13204
     2011.76560       -41.57133        17.60622
     2011.76728        -0.40075         7.78491
     2011.76993        10.25949         8.19763
     2011.77275        13.34717         8.13496
     2011.77549         3.21363         7.94338
     2011.77823         0.11510         7.94693
     2011.78097         0.93856         7.93628
     2011.78371         1.60902         7.96230
     2011.78644        12.97648         8.00132
     2011.78918        -8.33806         7.85705
     2011.79192         3.59140         7.94811
     2011.79466         2.50586         7.84995
     2011.79739        13.43832         7.80502
     2011.80013         8.89778         7.81921
     2011.80287         2.81424         7.95520
     2011.80561         2.59671         7.68439
     2011.80835         0.80417         7.70331
     2011.81108         3.50863         7.71159
     2011.81382         2.78909         7.69149
     2011.81656         1.53755         7.95520
     2011.81930         2.41601         7.67493
     2011.82203         1.77447         7.69385
     2011.82477        -6.27307         7.82630
     2011.82751        -5.38261         7.68912
     2011.83025        -1.89214         7.73524
     2011.83299        -6.89568         7.67020
     2011.83572        -3.68522         7.67730
     2011.83846         8.04524         7.64419
     2011.84120         6.19870         7.45852
     2011.84394         7.80816         7.62881
     2011.84668         4.39362         7.81093
     2011.84941        -1.61892         7.66429
     2011.85215        -2.20246         7.61817
     2011.85489         1.77100         7.74116
     2011.85763         1.62547         7.82867
     2011.86036        11.97793         7.80383
     2011.86310         6.25839         7.84995
     2011.86584         4.03485         7.76126
     2011.86858         0.70131         7.70450
     2011.87132         0.01777         7.68912
     2011.87405         2.14423         7.62408
     2011.87679        -1.93331         7.82394
