# ================= DQRFIT RESULTS ================
# INPUT FILE: series/CLEM.rad
# OUTPUT: LDETRENDED
# FILTER FUNCTION: f(t)
# f(t)=+line(t)
# line(t)=+P 1+P 2*t
# heav(t)=(t<0?0:1)
# TOTAL OBSERVATIONS MTOT=  495
# INITIAL TIME INTERVAL= 2022.7488 - 2021.3862 =  1.3626
# TOTAL OBSERVATIONS AFTER PREFILTER M=  490
# TIME-SPAN= 2022.7488 - 2021.3862 =  1.3626
# OBSERVATIONS: USED M=   490 REJECTED MTOT-M=     5 %USED=   98.9899
# N=  2 PARAMETERS
# MAXSIG= 175.00000
# MAXRES=  24.03595
# SCALE FACTOR FOR LENGTHS: SCL=  10.00000
# SCALE FACTOR FOR SIGMAS: SCLSIG=   1.00000
# CHI^2=   1326.948 DOF=   488 CHI^2/DOF=   2.71916
# RMS=      9.571 SDEV=      9.578 MEAN=   -0.20729
#  P #       PARAMETER +-    SIGMA %error PARAMETER NAME
# P 1 =     19037.70766 +- 2303.568  12.10 YZERO                              
# P 2 =        -9.16769 +-    1.139  12.43 SLOPE                              
#       T            LDETRENDED       SIG_OBS
     2021.38620        -8.76292        15.64558
     2021.38866        -9.96439        12.06893
     2021.39214       -26.97749       159.44543
     2021.39356        -7.16242        23.31832
     2021.39687        -5.18809        11.79850
     2021.39938        -6.43308        10.34904
     2021.40177        -3.94512         9.11230
     2021.40451        -4.33802         9.03150
     2021.40782        -4.95869        11.82488
     2021.41056        -1.46259        11.84632
     2021.41271         4.87411        23.29193
     2021.41603        -5.20439        11.79685
     2021.41877        -8.75629        11.79025
     2021.42151         3.98781        11.92382
     2021.42425         6.33791        11.99473
     2021.42699        -3.99899        11.98318
     2021.42972         0.51811        11.65339
     2021.43246         5.05821        11.74243
     2021.43520        -0.86969        11.66493
     2021.43794        -5.95359        11.92877
     2021.44068        -6.22849        11.97659
     2021.44341       -11.47939        11.91393
     2021.44615        -5.70829        11.94031
     2021.44889        -3.08019        11.64679
     2021.45163        -3.98809        12.68235
     2021.45436       -12.21299        12.05904
     2021.45710        -7.72090        11.93536
     2021.45984         0.34720        11.48024
     2021.46258        -5.22470        11.52971
     2021.46528        -3.46194        11.90898
     2021.46805        -2.85350        11.34338
     2021.47079        -1.26940        11.57918
     2021.47353         9.08770        12.04914
     2021.47627        -6.81620        11.93536
     2021.47901        -4.35810        11.62370
     2021.48174         0.15300        11.64514
     2021.48448        -5.80490        11.81004
     2021.48722        -9.41580        11.67977
     2021.48996        -4.58370        11.68307
     2021.49269        -4.85760        11.76717
     2021.49509         1.89136        10.95586
     2021.49817         4.20460        12.39873
     2021.50091        -0.61430        11.88095
     2021.50365        -9.24620        12.08212
     2021.50638       -10.64710        11.91228
     2021.50912        -0.28700        12.10686
     2021.51176         5.86623        12.68070
     2021.51458         1.05907        12.30803
     2021.51733         4.72030        11.75562
     2021.52007         2.28940        12.00957
     2021.52281        -3.70450        11.88754
     2021.52555        -0.06940        11.69461
     2021.52829        -0.24030        11.78036
     2021.53102         3.76780        12.06563
     2021.53376         8.90890        12.22394
     2021.53650         0.24200        12.23053
     2021.53924         7.93010        12.39048
     2021.54198         4.15420        12.23053
     2021.54471         4.17630        11.86446
     2021.54745        -6.20360        11.94031
     2021.55019         9.69050        12.16457
     2021.55293         3.19360        11.86446
     2021.55566         6.56370        11.90898
     2021.55840        -5.77620        12.03430
     2021.56114        -1.78510        11.76057
     2021.56388         2.93700        11.70121
     2021.56605         5.59787         9.08262
     2021.56878         0.72997         9.02655
     2021.57152        -5.32993         8.97873
     2021.57426        -8.27783         9.08591
     2021.57700         3.32727         9.61524
     2021.57974         0.72237         8.91937
     2021.58247        -3.61253         9.00182
     2021.58521        -3.18243         9.18815
     2021.58795        -0.07534         9.24587
     2021.59069        -9.24924         9.29534
     2021.59342        -1.84914         9.06448
     2021.59616        -5.27204         9.41736
     2021.59890         8.80806         9.28214
     2021.60164         1.10016         9.29039
     2021.60438        -0.83274         8.97543
     2021.60711         6.53736         9.07932
     2021.60985         2.77146         9.03809
     2021.61259         4.24356         9.08427
     2021.61533        -0.40134         9.02490
     2021.61807         5.43276         9.12219
     2021.62080         4.46486         9.02655
     2021.62354        12.37196         9.16671
     2021.62628        -3.60794         9.29863
     2021.62902         2.92716         9.05293
     2021.63175         9.64326         9.08921
     2021.63449        -4.17164         9.35470
     2021.63723        -1.30054         9.50476
     2021.63997         0.33856         9.32502
     2021.64271         1.26266         9.16836
     2021.64544         0.78376         8.99027
     2021.64818         3.60486         8.97049
     2021.65092        -1.06004         9.12879
     2021.65366        -1.32594         9.01336
     2021.65639         3.01816         8.94575
     2021.65913         4.23826         8.98038
     2021.66187         5.51136         9.11065
     2021.66461        -0.12454         9.02820
     2021.66735         7.93056         8.93091
     2021.67008        -2.12834         9.09086
     2021.67282         7.32876         9.27225
     2021.67556         6.00686         9.53279
     2021.67830        18.47596         9.30523
     2021.68104         2.16706         9.15352
     2021.68377         8.25816         8.99357
     2021.68651         2.69826         9.07767
     2021.68925         6.14736         8.99027
     2021.69199         7.24246         9.09251
     2021.69472        12.74056         9.18320
     2021.69746        15.23666         9.02325
     2021.70020         9.19176         9.13868
     2021.70294         4.05786         9.12549
     2021.70556         4.72691         9.93514
     2021.70841        12.18105         9.17826
     2021.71115        10.26515         9.23927
     2021.71389        11.26525         9.27885
     2021.71663         6.55635         9.24422
     2021.71937         6.67945         9.12219
     2021.72210        -2.84345         9.17001
     2021.72484        -3.46135         9.28049
     2021.72758         2.58875         9.25906
     2021.73032        -0.81715         9.59380
     2021.73305         8.62295         9.11395
     2021.73579         9.35005         9.39922
     2021.73855        11.39433         9.52290
     2021.74127         8.02525         9.27225
     2021.74401         8.27635         9.17826
     2021.74674         5.19045         9.19805
     2021.74948        -0.60545         9.57896
     2021.75222         3.06865         9.16342
     2021.75496        17.60775         9.45859
     2021.75706        -1.38999        12.51416
     2021.76043         9.35595         9.39098
     2021.76317        11.09605         9.18980
     2021.76591         2.58215         9.13538
     2021.76865         8.74625         9.16836
     2021.77138         0.67335         9.19475
     2021.77412        13.63545         9.33821
     2021.77686         7.36155         9.15682
     2021.77960         7.97165         9.11395
     2021.78234         9.74975         9.17826
     2021.78507        11.87285         9.23103
     2021.78781         8.83795         9.06118
     2021.79055         6.58005         9.12714
     2021.79329         6.27415         9.15847
     2021.79603         5.65925         9.08262
     2021.79876        10.08935         9.07767
     2021.80150         9.92745         9.38603
     2021.80424         7.06255         9.37779
     2021.80698         7.10265         9.15022
     2021.80971         4.82875         9.22773
     2021.81245        21.79385         9.40417
     2021.81519        24.03595         9.16177
     2021.81793        12.85805         9.20299
     2021.82067         0.77615         9.48497
     2021.82340         7.34525         9.55423
     2021.82614         1.80635         9.27555
     2021.82888         7.57844         9.18320
     2021.83162        10.34354         9.29039
     2021.83436        14.18764         9.29534
     2021.83709         8.87974         9.34151
     2021.83983         4.07284         9.36954
     2021.84257         7.98894         9.41241
     2021.84531         4.36004         9.25246
     2021.84804         9.11714         9.25906
     2021.85078        11.63924         9.27225
     2021.85352         4.90134         9.18815
     2021.85626        11.18644         9.13868
     2021.85900         1.52154         9.10570
     2021.86173        -5.64336         9.40252
     2021.86447        -0.10126         9.47672
     2021.86721         2.87384         9.48167
     2021.86995         4.99094         9.81642
     2021.87269         5.81904         9.64822
     2021.87542         1.57514         9.35305
     2021.87816        -2.52276         9.14198
     2021.88090         5.66134         9.12054
     2021.88364        -5.15456         9.13374
     2021.88637        -0.78546         9.08921
     2021.88911        -2.57636         9.13703
     2021.89185        -1.68826         9.21783
     2021.89459         4.89484         9.21948
     2021.89733        -1.12806         9.10240
     2021.90006         0.63904         9.20629
     2021.90280        -5.75386         9.27390
     2021.90554         3.51224         9.25081
     2021.90828         5.96434         9.37449
     2021.91102         6.32244         9.26895
     2021.91375        -2.43446         9.14693
     2021.91649         6.89564         9.23597
     2021.91923        12.39374         9.49321
     2021.92197        -3.42316         9.69439
     2021.92470        -6.82406         9.28709
     2021.92744        -1.26896         9.37614
     2021.93018        -9.61986         9.32337
     2021.93292       -17.68276         9.55423
     2021.93566         6.49034         9.71418
     2021.93839        20.96644         9.44374
     2021.94113        10.42854         9.58556
     2021.94387         7.42264         9.37614
     2021.94661         4.78574         9.32832
     2021.94935         4.75584         9.32502
     2021.95208        -3.13007         9.30688
     2021.95482         2.97803         9.31677
     2021.95756        -3.96787         9.25081
     2021.96030        -1.52477         9.30523
     2021.96303        -9.24667         9.41901
     2021.96577       -20.43057         9.45199
     2021.96851        -9.18447         9.48332
     2021.97125       -15.36837         9.38933
     2021.97399       -21.21627         9.47837
     2021.97672        -7.05417         9.44704
     2021.97946         9.95893         9.35305
     2021.98220         5.06203         9.37449
     2021.98494         7.26513         9.29039
     2021.98767         1.31223         9.24092
     2021.99041         4.45333         9.26400
     2021.99315        -3.09757         9.38438
     2021.99589         1.71153         9.30193
     2021.99863       -12.58037         9.33821
     2022.00136       -13.01527         9.38933
     2022.00410       -15.29017         9.32996
     2022.01505       -18.22577         9.36624
     2022.01788       -26.52784         9.85599
     2022.01937        -9.84820        27.91404
     2022.02345        -5.39082        10.70027
     2022.02600       -11.26437         9.51630
     2022.02874        -7.69927         9.45694
     2022.03091        -9.00144        12.10686
     2022.03422        -7.39307         9.30193
     2022.03696        -7.65497         9.25906
     2022.03969       -12.16387         9.84940
     2022.04243        -3.69777         9.36624
     2022.04517        -1.42467         9.44374
     2022.04791         5.46143         9.24257
     2022.05065        -4.69347         9.17661
     2022.05338        -9.35737         9.35305
     2022.05612       -14.56127         9.33491
     2022.05886       -15.50417         9.25906
     2022.06160        -9.18707         9.25411
     2022.06433        -2.26997         9.26895
     2022.06707       -11.42887         9.26565
     2022.06981        -1.73777         9.31512
     2022.07255       -13.92168         9.07437
     2022.07529        -6.71858         9.05788
     2022.07802        -2.31948         9.17661
     2022.08076         3.81962         9.10900
     2022.08350        -0.40528         9.25576
     2022.08624        -4.11218         9.19310
     2022.08898        -0.25308         9.15187
     2022.09171       -10.26398         9.10240
     2022.09445        -8.84788         9.16836
     2022.09719        -5.59478         9.19475
     2022.09993        -6.01768         9.38273
     2022.10266        -6.66658         9.55258
     2022.10540        -2.62348         9.07602
     2022.10814        -3.70538         9.27720
     2022.11088        -0.42228         9.20629
     2022.11362         2.81682         9.09911
     2022.11635         3.14092         9.02490
     2022.11909        -1.91198         9.04799
     2022.12183         2.09812         9.09251
     2022.12457         4.32922         9.36130
     2022.12731        -0.72168         9.20464
     2022.13004        -8.33558         9.11230
     2022.13278        -3.38648         9.10570
     2022.13552        -8.51538         9.10735
     2022.13826         5.17072         9.13374
     2022.14099        -0.16918         9.04634
     2022.14373        -6.58108         9.11230
     2022.14647        -2.42098         8.99027
     2022.14921        -1.52388         9.44045
     2022.15195        -2.78478         9.45529
     2022.15468        -1.83268         9.07767
     2022.15742         1.76542         9.16342
     2022.16290        -0.23438         9.08921
     2022.16564        -5.66228         9.09911
     2022.16837        -0.73618         9.07602
     2022.17111        -3.55708         9.05623
     2022.17385        -0.88198         9.12384
     2022.17659        -2.44688         9.03480
     2022.17932        -8.87678         9.08097
     2022.18206        -6.20868         9.14363
     2022.18480       -19.10858         9.03809
     2022.18754        -0.36048         9.17991
     2022.19028        -4.63238         9.16836
     2022.19301         1.49071         9.11725
     2022.19575         8.68381         9.08262
     2022.19849        -2.45809         9.20629
     2022.20123         3.54701         9.08097
     2022.20397         9.29611         9.10570
     2022.20670        -1.75079         9.31183
     2022.20944         1.99131         9.33986
     2022.21218        -1.08659         9.23762
     2022.21492         4.41951         9.09416
     2022.21765       -11.36539         9.07602
     2022.22039        -3.86629         9.05293
     2022.22313        -2.28219         9.13044
     2022.22587        -2.89109         9.28709
     2022.22861         2.56801         9.18156
     2022.23134         0.32911         9.06283
     2022.23408         5.55821         9.08427
     2022.23682         8.80131         9.40417
     2022.23916        -2.29125        10.94762
     2022.24230        -0.09749        10.87177
     2022.24776         2.82058        10.89815
     2022.25051        -8.48915        11.29391
     2022.25325         3.51691        10.80416
     2022.25598        -2.91399         9.14693
     2022.25872        -1.03089        10.89815
     2022.26146        -0.76379         9.12384
     2022.26420         1.67231         9.15187
     2022.26694        -3.34759         9.48827
     2022.26967         1.13251         9.27225
     2022.27241         4.90261         9.09086
     2022.27515         7.25371         9.29698
     2022.27789         0.05881         9.15847
     2022.28062        -4.84909         9.10240
     2022.28336        -0.84799         9.05458
     2022.28610        -0.03689         9.27390
     2022.28884         0.28321         9.27555
     2022.29158        -3.13769         9.09581
     2022.29431        -0.96359         9.08097
     2022.29705         4.76751         9.03644
     2022.29979         5.11161         9.10900
     2022.30253         1.84271         9.34645
     2022.30527        -6.62419         9.52619
     2022.30800       -14.90109         9.59380
     2022.31074       -13.91899         9.34151
     2022.31348        -9.51990         9.34975
     2022.31622       -12.83580         9.45364
     2022.31895       -31.54970         9.58391
     2022.32169        -7.23360         9.62348
     2022.32443        -9.97750         9.31018
     2022.32717       -15.88840         9.40252
     2022.32991       -15.02030         9.27390
     2022.33264       -15.99120         9.63338
     2022.33538       -12.50210         9.75375
     2022.33812        -6.20900         9.66471
     2022.34086       -11.00390         9.33656
     2022.34360       -11.00580         9.39427
     2022.34633        -5.49770         9.36624
     2022.34907        -8.51960         9.39922
     2022.35181        -8.50050         9.35470
     2022.35455       -10.44140         9.24752
     2022.35728       -18.76030         9.21783
     2022.36002       -10.83920         9.36459
     2022.36276       -13.15610         9.51135
     2022.36550       -16.00300         9.62513
     2022.36824       -13.18690         9.37779
     2022.37097        -6.72780         9.39757
     2022.37371       -14.92170         9.35470
     2022.37645       -13.06760         9.60699
     2022.37919        -8.97750         9.79003
     2022.38191       -18.00153         9.57731
     2022.38478       -24.29926        10.10664
     2022.38740       -27.28120         9.38108
     2022.39014       -21.88710         9.35305
     2022.39288       -15.15400         9.36624
     2022.39561       -14.57690         9.42396
     2022.39835       -14.90085        10.10993
     2022.40076        -6.38375        11.26093
     2022.41478       -15.68820         9.29534
     2022.41752        -5.31410         9.44374
     2022.42026        -7.03000         9.47837
     2022.42299        -2.33590         9.22278
     2022.42573       -10.15280         9.39592
     2022.42847       -11.03070         9.29863
     2022.43121        -9.50660         9.43550
     2022.43394        -2.13351         9.50476
     2022.43668       -16.09241         9.35800
     2022.43942        -5.43431         9.50805
     2022.44216        -5.70721         9.48332
     2022.44478        -3.60220        10.24350
     2022.44786         2.01304        10.10993
     2022.45037       -12.55391         9.19805
     2022.45311       -13.01881         9.20464
     2022.45585       -14.83571         9.28544
     2022.45859       -23.66561         9.16342
     2022.46132       -13.80051         9.19969
     2022.46406       -13.26341         9.46188
     2022.46680       -12.05131         9.28049
     2022.46954       -15.53621         9.28049
     2022.47227       -27.28811         9.48002
     2022.47501         1.76199         9.48827
     2022.47775       -14.79891         9.54268
     2022.48049       -13.00081         9.37284
     2022.48323        -2.12971         9.25906
     2022.48596        -4.18761         9.22113
     2022.48870       -12.40151        10.19403
     2022.49144        -6.77141         9.32172
