# ================= DQRFIT RESULTS ================
# INPUT FILE: series/CLHQ.rad
# OUTPUT: LDETRENDED
# FILTER FUNCTION: f(t)
# f(t)=+line(t)+annual(t)
# line(t)=+P 1+P 2*t
# annual(t)=+P 3*sin(2*pi*t+P 4)
# heav(t)=(t<0?0:1)
# TOTAL OBSERVATIONS MTOT= 3564
# INITIAL TIME INTERVAL= 2022.7488 - 2009.7851 = 12.9637
# TOTAL OBSERVATIONS AFTER PREFILTER M= 3403
# TIME-SPAN= 2022.7488 - 2009.7851 = 12.9637
# OBSERVATIONS: USED M=  3403 REJECTED MTOT-M=   161 %USED=   95.4826
# N=  4 PARAMETERS
# MAXSIG= 175.00000
# MAXRES=  74.49110
# SCALE FACTOR FOR LENGTHS: SCL=  10.00000
# SCALE FACTOR FOR SIGMAS: SCLSIG=   1.00000
# CHI^2=  15066.034 DOF=  3399 CHI^2/DOF=   4.43249
# RMS=     16.455 SDEV=     16.453 MEAN=   -0.37004
#  P #       PARAMETER +-    SIGMA %error PARAMETER NAME
# P 1 =      2512.73242 +-  130.132   5.18 YZERO                              
# P 2 =        -1.24540 +-    0.065   5.18 SLOPE                              
# P 3 =         9.19832 +-    0.376   4.09 ANNUAL AMPLITUDE                   
# P 4 =        -2.66280 +-    0.051   1.93 ANNUAL PHASE                       
#       T            LDETRENDED       SIG_OBS
     2009.78507        45.82494        18.31653
     2009.78781        -8.72065        18.08704
     2009.79055       -26.62724        16.61330
     2009.79329        -8.23883        16.91858
     2009.79603       -17.07242        16.65120
     2009.79876        -4.76001        16.57330
     2009.80150        -1.76160        17.26175
     2009.80424       -17.95119        17.19017
     2009.80698        -7.62778        16.54593
     2009.80971        -0.31837        16.86173
     2009.81245         6.04104        17.72282
     2009.81519         9.54245        16.43645
     2009.81793        12.21086        17.41544
     2009.82067        -1.95173        16.49751
     2009.82340        -5.11132        15.79643
     2009.82614       -19.30591        17.37965
     2009.82888       -15.86450        17.20490
     2009.83162         4.54991        17.58808
     2009.83436         1.82032        17.28070
     2009.83709        -2.69027        16.83226
     2009.83983        -1.32286        16.50593
     2009.84257         3.48655        16.28276
     2009.84531        14.47896        17.20280
     2009.84804       -16.27963        17.47018
     2009.85078         7.51278        17.08700
     2009.85352        11.67818        17.44070
     2009.85626         7.72059        17.67229
     2009.85900        -4.96000        17.58597
     2009.86173        -6.58859        17.65545
     2009.86447        -0.06418        17.88704
     2009.86721       -10.23577        17.31438
     2009.86995       -39.49636        17.21964
     2009.87269       -31.47695        18.67654
     2009.87542       -40.60554        17.67440
     2009.87816         0.38187        17.85546
     2009.88090         5.39828        16.63225
     2009.88364        -8.78431        16.62804
     2009.88637       -26.42690        15.95222
     2009.88911         6.10251        15.73748
     2009.89185         8.34292        16.28697
     2009.89459         7.31733        17.28912
     2009.89733       -36.27426        20.13555
     2009.90006        -8.20785        16.27434
     2009.90280        -0.20744        16.25118
     2009.90554         0.55597        16.00486
     2009.90828        11.94738        16.06802
     2009.91102       -48.52821        17.85546
     2009.91375         0.18220        16.03644
     2009.91650         6.20561        16.16065
     2009.91923        -2.10498        15.71642
     2009.92197         5.43943        16.05117
     2009.92470         1.57284        15.98170
     2009.92744         1.73925        15.59642
     2009.93018         0.74966        15.51010
     2009.93292         2.41507        15.58168
     2009.93566         7.16348        15.23009
     2009.93839        10.41789        15.59431
     2009.94113         1.79730        15.59852
     2009.94387        -7.65229        16.48066
     2009.94661        -7.54588        16.49119
     2009.94935        -5.19147        16.26802
     2009.95208       -11.01306        15.72274
     2009.95482        -5.61066        16.56909
     2009.95756       -18.44125        17.13122
     2009.96030       -36.30184        17.25754
     2009.96303       -10.38943        18.26600
     2009.96577       -21.92002        16.89963
     2009.96851       -18.11861        17.07858
     2009.97125       -44.08020        16.99016
     2009.97399        10.13821        16.66804
     2009.97672        -7.07238        16.10802
     2009.97946        10.53903        16.20697
     2009.98220       -31.57456        18.57127
     2009.98494       -42.29515        16.71436
     2009.98767       -38.75974        15.49536
     2009.99041       -34.16633        15.48483
     2009.99315       -30.93892        15.12482
     2009.99589       -46.18951        15.40694
     2009.99863       -50.69410        15.90169
     2010.00684       -76.10987        17.38596
     2010.00958       -79.10046        16.53751
     2010.01505       -40.70464        17.62387
     2010.01779       -31.33623        17.20280
     2010.02053       -14.45082        17.09121
     2010.02327       -36.55241        17.22385
     2010.02600        -6.12700        16.43014
     2010.02874        -1.45359        16.87015
     2010.03148        12.39282        16.51224
     2010.03422       -13.41577        17.08279
     2010.03696       -21.01236        17.67861
     2010.03969        28.09505        17.11227
     2010.04243       -26.41654        16.33750
     2010.04517         6.71087        16.19855
     2010.04791        -1.16572        16.71225
     2010.05065        10.19469        16.63646
     2010.05338        14.81510        16.85121
     2010.05612        13.04150        17.19017
     2010.05886        -2.74909        16.56488
     2010.06160        -6.13068        16.52067
     2010.06433       -11.37327        16.96279
     2010.06707         6.85814        16.84278
     2010.06981       -19.54245        17.55650
     2010.07255       -28.01604        17.39228
     2010.07529       -39.76963        17.12490
     2010.07802       -10.64522        17.46597
     2010.08076        12.97719        17.06174
     2010.08350         7.39760        16.58804
     2010.08624        -0.23298        16.45961
     2010.08898        11.69342        17.98809
     2010.09171        -4.18417        17.53123
     2010.09445       -24.28076        18.11652
     2010.09719       -10.88435        17.24701
     2010.09993       -18.16094        17.21964
     2010.10266       -34.37653        18.27442
     2010.10540       -38.95712        18.35653
     2010.10814       -18.53671        18.11441
     2010.11088       -31.96530        17.90177
     2010.11362       -38.97289        17.98178
     2010.11635       -25.58948        17.98599
     2010.11909       -37.42607        19.07445
     2010.12183         8.71334        18.34811
     2010.12457       -12.15525        19.38815
     2010.12731        58.77316        20.28082
     2010.13004        -0.32543        16.77752
     2010.13278         5.42698        16.40277
     2010.13552         5.79839        16.22381
     2010.13826        14.36380        15.58168
     2010.14099         6.43721        15.39430
     2010.14373        -0.80838        16.65962
     2010.14647         4.80403        16.91226
     2010.14921        10.96244        16.74383
     2010.15195        -8.13815        16.54804
     2010.15468       -30.41474        16.68909
     2010.15742        29.34666        16.74383
     2010.16016         5.36407        16.55856
     2010.16290         4.09949        16.94174
     2010.16564         3.20589        16.58593
     2010.16837        10.62330        16.43856
     2010.17111       -22.41029        16.35855
     2010.17385        -5.16788        16.76489
     2010.17659        -4.44547        16.47435
     2010.17932        14.35194        16.26381
     2010.18206        12.20135        15.67221
     2010.18480         2.27476        15.04061
     2010.18754        -5.72883        15.41115
     2010.19028         4.67658        15.28483
     2010.19301       -17.66001        15.93959
     2010.19575       -43.60960        15.96064
     2010.19849         1.04381        16.75015
     2010.20123         7.55622        18.46180
     2010.20397        12.64863        16.39645
     2010.20670         6.18904        15.64695
     2010.20944         6.91545        15.54799
     2010.21218         7.37386        15.53747
     2010.21492         5.44027        15.81748
     2010.21765         4.15668        15.92064
     2010.22039         0.72309        15.44483
     2010.22313        -9.73050        15.33957
     2010.22587         2.17691        16.35224
     2010.22861        -1.24068        15.90169
     2010.23134       -26.90027        16.32908
     2010.23408       -33.56286        16.64909
     2010.23956        14.53396        18.28074
     2010.24230        -7.46563        16.26592
     2010.24503       -22.96222        16.40908
     2010.24778       -31.06781        15.95433
     2010.25051       -18.32540        16.28066
     2010.25325       -39.30099        16.14802
     2010.25598       -44.58059        16.40277
     2010.25872       -26.04118        16.54172
     2010.26146       -54.98977        16.57540
     2010.26694         5.40005        15.75853
     2010.26967         9.25946        15.70169
     2010.27241         9.31687        16.53119
     2010.27515        -2.05472        16.32697
     2010.27789         2.95469        16.57962
     2010.28062        -4.85990        15.81537
     2010.28336        -8.89649        16.41329
     2010.28610        -0.97608        15.80064
     2010.28884         3.84533        16.01117
     2010.29158        -2.03326        15.83432
     2010.29431         2.25415        15.80064
     2010.29705        -5.69044        15.97328
     2010.29979        -7.15103        16.09328
     2010.30253         3.16538        16.30592
     2010.30527        12.51379        16.03433
     2010.30800        -1.22980        15.76274
     2010.31074         5.24761        16.01328
     2010.31348        -2.32298        15.75221
     2010.31622        16.00643        15.79011
     2010.31895       -34.12316        17.53544
     2010.32169       -43.72775        16.96068
     2010.32443       -53.68734        17.08700
     2010.32717       -54.21793        16.46803
     2010.32991         7.07448        15.75853
     2010.33264        14.64489        15.60694
     2010.33538        -5.62770        17.21333
     2010.33812       -18.69129        15.22588
     2010.34086        -1.74288        14.89744
     2010.34360        -2.44247        15.02166
     2010.34633         2.52194        15.51641
     2010.34907        -2.32165        15.16693
     2010.35181         3.67476        15.35009
     2010.35455       -17.08383        15.65958
     2010.35728       -10.31143        16.50593
     2010.36002        -1.67602        15.81327
     2010.36276        -1.76761        15.60905
     2010.36550        -2.38220        16.17118
     2010.36824         0.23021        16.31224
     2010.37097         1.42662        16.19223
     2010.37371         2.65803        15.84695
     2010.37645       -11.59956        17.16490
     2010.37919         6.60485        16.97753
     2010.38193       -13.54074        16.34592
     2010.38466        -0.19633        15.77958
     2010.38740       -12.77792        15.19430
     2010.39014         5.10049        15.77537
     2010.39288        -3.94210        15.81327
     2010.39561        -5.14269        16.04486
     2010.39835       -16.64728        16.63014
     2010.40109       -11.43887        16.47224
     2010.40383        -5.75246        15.72484
     2010.40657         5.09195        16.13118
     2010.40930        -1.31764        15.57747
     2010.41204        -0.00923        15.52063
     2010.41478         9.12619        15.69326
     2010.41752       -13.22641        16.37329
     2010.42026         7.74000        16.94384
     2010.42299         5.35441        17.51860
     2010.42573         0.43182        15.34167
     2010.42847         1.09623        15.92064
     2010.43121       -16.70636        15.48905
     2010.43394         4.35005        15.76906
     2010.43668         3.82346        15.98170
     2010.43942       -17.11013        16.33329
     2010.44216        -8.75472        16.16697
     2010.44490       -13.95831        15.72274
     2010.44763        -9.08690        15.73116
     2010.45037         2.85751        15.67221
     2010.45311         3.28092        15.58800
     2010.45585         1.21533        15.50589
     2010.45859         6.10273        16.23434
     2010.46132         2.02814        15.77748
     2010.46406        -1.22545        15.55221
     2010.46680         2.52696        15.95222
     2010.46954        -2.21063        15.97749
     2010.47227         3.91078        15.77748
     2010.47501         9.10919        15.92064
     2010.47775        -8.93640        15.97538
     2010.48049        10.72701        16.40698
     2010.48323         1.94642        15.83222
     2010.48596         9.57483        15.80906
     2010.48870        12.54024        15.87432
     2010.49144        -0.37635        15.48905
     2010.49418        -0.96294        15.66168
     2010.49692         7.88548        15.64274
     2010.49965        -7.80512        15.60694
     2010.50239         9.84829        15.73748
     2010.50513        -1.61030        15.30799
     2010.50787        -2.58289        15.19851
     2010.51060         0.13452        15.93538
     2010.51334        -3.94107        15.76064
     2010.51608        -2.22866        15.56694
     2010.51882         8.37175        15.73327
     2010.52156         9.89116        15.83222
     2010.52429        13.06357        16.03012
     2010.52703         7.88198        15.62168
     2010.52977        -2.26761        15.17535
     2010.53251         1.99280        15.58800
     2010.53525         4.96621        15.58800
     2010.53798        -5.93038        16.09117
     2010.54072        -0.94597        15.58168
     2010.54346        -3.99856        15.77116
     2010.54620         3.60285        15.95222
     2010.54893         1.47726        15.84485
     2010.55167        -5.87133        15.57326
     2010.55441         2.11508        15.45746
     2010.55989         2.18289        15.71853
     2010.56262         2.56130        15.89327
     2010.56536       -17.68929        16.44487
     2010.56810         1.41512        15.97749
     2010.57084         2.21753        15.63431
     2010.57357        -5.93706        16.63646
     2010.57631         2.65735        16.39645
     2010.57905        -1.22524        15.86380
     2010.58179        -0.59282        15.63221
     2010.58453        10.52558        15.91854
     2010.58726         7.06399        16.35013
     2010.59000         6.37240        17.03016
     2010.59274         8.08581        15.93748
     2010.59548        11.62022        16.26592
     2010.59822         9.29563        15.60905
     2010.60095        10.59704        15.59642
     2010.60369         5.54845        16.02801
     2010.60643         8.50886        16.19434
     2010.60917         9.74627        15.66589
     2010.61190         0.59468        15.92696
     2010.61464         9.03509        15.81116
     2010.61738        13.21350        15.75853
     2010.62012        15.31391        16.08486
     2010.62286        -1.61168        16.00907
     2010.62559        13.78273        16.28276
     2010.62833        -2.74586        16.04696
     2010.63107        20.79155        16.24065
     2010.63381        14.06096        16.17328
     2010.63655        12.72637        16.04275
     2010.63928         9.79778        15.88906
     2010.64202         1.90819        15.64905
     2010.64462         8.46342        16.89331
     2010.65298         2.09784        15.59010
     2010.65572        10.68125        14.63006
     2010.65846        -0.25534        14.90376
     2010.66120         6.88007        15.30588
     2010.66339        10.16580        19.72290
     2010.66667        -2.60111        14.79217
     2010.66941         0.51630        14.76691
     2010.67215         1.27271        14.86797
     2010.67488        14.69712        15.10377
     2010.67762        10.13153        14.52690
     2010.68036         8.78393        14.65954
     2010.68310         3.95234        14.79428
     2010.68584         0.16175        15.51431
     2010.68857         3.67016        14.94165
     2010.69131         0.99257        14.77744
     2010.69405         9.02298        14.95429
     2010.69679         9.71339        15.04482
     2010.69953        -4.30120        14.99850
     2010.70226        12.47921        15.29535
     2010.70500         4.55462        14.81323
     2010.70774         0.65003        14.90376
     2010.71048         7.85744        14.66164
     2010.71321         4.57285        15.33746
     2010.71595         6.14226        15.43220
     2010.71869         7.48867        15.23219
     2010.72143         0.86108        15.46799
     2010.72417         0.40349        15.00482
     2010.72690         6.76590        15.12903
     2010.72964        -0.66769        14.77744
     2010.73238         5.15172        14.77954
     2010.73512        -3.22787        14.56901
     2010.73786         7.10354        15.37325
     2010.74059        14.30595        14.96481
     2010.74333         9.13836        14.93113
     2010.74607         8.21677        14.94797
     2010.74881         4.64418        14.89113
     2010.75154         8.20659        14.79428
     2010.75428         3.38500        14.72270
     2010.75702        10.85141        15.01534
     2010.75976         4.92182        15.01324
     2010.76250         1.79423        15.14377
     2010.76523         4.68864        14.69322
     2010.76797        17.57905        14.83218
     2010.77071        -3.26254        15.21114
     2010.77345         7.19887        15.20693
     2010.77619         3.45228        15.03640
     2010.77892        -3.65931        14.80481
     2010.78166        12.28109        14.80902
     2010.78440        14.05050        15.00692
     2010.78714        11.12491        14.94165
     2010.78987         5.21532        14.62796
     2010.79261         3.77173        14.65112
     2010.79535        -1.16786        14.85534
     2010.79809        10.33955        14.67006
     2010.80083         4.26296        14.79217
     2010.80356         8.74737        14.48690
     2010.80630         0.55278        14.49322
     2010.80904        -0.15681        15.45536
     2010.81178        18.66460        15.59010
     2010.81452        11.11201        14.82797
     2010.81725        -4.43858        15.05534
     2010.81999       -22.68917        15.11008
     2010.82273       -27.67576        15.27641
     2010.82547       -56.41135        15.57747
     2010.82820         5.59606        15.48905
     2010.83094         5.58747        15.96696
     2010.83368         0.00988        15.58589
     2010.83642       -14.17771        14.73112
     2010.83916        -3.96930        14.88481
     2010.84189        -3.79489        14.84270
     2010.84463         8.70252        14.82376
     2010.84737        -2.65807        14.56269
     2010.85011         7.32134        15.09956
     2010.85285        -8.18025        14.92271
     2010.85558        -6.67584        15.10166
     2010.85832       -27.08043        15.48273
     2010.86106       -52.38502        15.30799
     2010.86380        -0.81061        14.77533
     2010.86653        -8.97320        14.82376
     2010.86927       -20.12879        15.16903
     2010.87201        -5.53138        14.91429
     2010.87475        -2.17197        14.99639
     2010.87749         3.81244        14.75428
