# ================= DQRFIT RESULTS ================
# INPUT FILE: series/CLMS.rad
# OUTPUT: LDETRENDED
# FILTER FUNCTION: f(t)
# f(t)=+line(t)+annual(t)
# line(t)=+P 1+P 2*t
# annual(t)=+P 3*sin(2*pi*t+P 4)
# heav(t)=(t<0?0:1)
# TOTAL OBSERVATIONS MTOT= 2973
# INITIAL TIME INTERVAL= 2022.7488 - 2009.6112 = 13.1376
# TOTAL OBSERVATIONS AFTER PREFILTER M= 2893
# TIME-SPAN= 2022.7488 - 2009.6136 = 13.1352
# OBSERVATIONS: USED M=  2893 REJECTED MTOT-M=    80 %USED=   97.3091
# N=  4 PARAMETERS
# MAXSIG= 175.00000
# MAXRES=  66.07399
# SCALE FACTOR FOR LENGTHS: SCL=  10.00000
# SCALE FACTOR FOR SIGMAS: SCLSIG=   1.00000
# CHI^2=  10137.829 DOF=  2889 CHI^2/DOF=   3.50911
# RMS=     12.156 SDEV=     12.112 MEAN=   -1.05613
#  P #       PARAMETER +-    SIGMA %error PARAMETER NAME
# P 1 =       484.44677 +-  110.849  22.88 YZERO                              
# P 2 =        -0.23949 +-    0.055  22.95 SLOPE                              
# P 3 =         8.86856 +-    0.296   3.34 ANNUAL AMPLITUDE                   
# P 4 =         1.96147 +-    0.018   0.92 ANNUAL PHASE                       
#       T            LDETRENDED       SIG_OBS
     2009.61364       -19.52938        36.20268
     2009.61533       -37.86397        17.49253
     2009.61807       -22.20132        17.74167
     2009.62080       -21.07566        18.79819
     2009.62354       -13.06801        16.81066
     2009.62628       -18.69535        16.35171
     2009.62902       -23.10169        16.78069
     2009.63175       -14.54604        15.71293
     2009.63449       -26.03838        15.54059
     2009.63723       -13.10973        16.13254
     2009.63997       -17.88807        16.24493
     2009.64271       -17.05142        16.95677
     2009.64544       -18.65976        17.30895
     2009.64818       -15.58510        16.41727
     2009.65092       -11.55745        16.60835
     2009.65366       -21.75179        16.76383
     2009.65639       -17.24014        16.66455
     2009.65913       -19.82348        17.12911
     2009.66187       -17.53483        15.72042
     2009.66461       -11.93717        16.00516
     2009.66735       -11.33952        16.51281
     2009.67008       -11.88286        16.39854
     2009.67282       -12.63320        16.96614
     2009.67556        -9.42455        16.56152
     2009.67830        -7.89889        17.15534
     2009.68104        -6.12124        21.19971
     2009.68377       -26.70058        20.33989
     2009.68651       -15.59593        17.94024
     2009.68925       -17.02927        17.23589
     2009.69199       -12.59761        16.43601
     2009.69472       -14.25596        15.97518
     2009.69746       -13.79830        16.54091
     2009.70020        -3.84665        16.42851
     2009.70294        -9.81499        17.20779
     2009.70568       -17.69734        18.57527
     2009.70841       -22.10068        16.69639
     2009.71115       -25.46802        17.64801
     2009.71389       -11.29137        17.69484
     2009.71663       -16.53871        16.31425
     2009.71937       -22.40006        17.74916
     2009.72210       -25.47540        17.64239
     2009.72484       -21.35775        17.71732
     2009.72758       -25.04209        17.64052
     2009.73032       -16.09443        17.12724
     2009.73305       -13.07278        16.80504
     2009.73579       -19.12112        16.88934
     2009.73853        -6.80347        15.70544
     2009.74127       -12.85081        16.43601
     2009.74401       -25.76616        20.96368
     2009.74674       -28.96350        21.64742
     2009.74948       -17.12284        21.29150
     2009.75222       -33.38719        20.35487
     2009.75496       -26.75353        20.73515
     2009.75770       -19.73988        21.64742
     2009.76043       -13.91022        19.31147
     2009.76317       -19.23357        20.44104
     2009.76591       -14.73891        18.99301
     2009.76865       -23.75225        20.69955
     2009.77138       -20.79160        19.11290
     2009.77412       -20.79294        19.14100
     2009.77686       -14.40129        18.86938
     2009.77960       -20.91463        19.47069
     2009.78234       -12.47398        17.24900
     2009.78507        19.79368        17.11600
     2009.78781        11.18733        17.17220
     2009.79055       -22.63701        13.90523
     2009.79329       -23.06235        17.13848
     2009.79603       -32.65870        17.95710
     2009.79876       -16.34304        18.47224
     2009.80150       -17.53939        19.02673
     2009.80424       -13.71573        19.75168
     2009.80698        -3.73608        19.84909
     2009.80971        -9.34442        19.82849
     2009.81245         2.16224        16.86686
     2009.81519        -5.89711        18.51158
     2009.81793       -15.27245        17.55435
     2009.82067        -6.54980        17.38388
     2009.82340         4.55786        18.68018
     2009.82614         8.68451        16.92868
     2009.82888       -10.51483        14.07944
     2009.83162       -11.64517        14.99172
     2009.83436        -9.98452        16.40416
     2009.83709       -13.20486        17.77726
     2009.83983       -13.96421        16.88559
     2009.84257        -9.46755        18.63896
     2009.84531        -9.97790        21.75982
     2009.84804         6.23376        18.21935
     2009.85078         7.18342        16.84813
     2009.85352        15.13707        18.30365
     2009.85626        -4.08227        17.28647
     2009.85900       -10.67962        17.38013
     2009.86173         5.72604        18.56029
     2009.86447        16.33869        22.89876
     2009.86721        10.31635        23.28278
     2009.86995        18.17601        21.73734
     2009.87269        -6.82134        20.33989
     2009.87542        -0.14668        18.35798
     2009.87816        -0.55303        20.97118
     2009.88090       -11.31737        20.98242
     2009.88364         6.46128        21.02737
     2009.88637        -2.83906        19.97460
     2009.88911       -11.11440        20.55157
     2009.89185       -14.25575        19.99521
     2009.89459        -3.57409        17.66112
     2009.89733       -11.49544        16.05574
     2009.90006       -19.45278        16.31050
     2009.90280       -19.27013        17.06917
     2009.90554       -14.54047        18.15192
     2009.90828       -16.25482        18.76073
     2009.91102       -19.45516        17.73605
     2009.91375        -9.37850        18.29241
     2009.91649       -12.86385        18.83191
     2009.91923       -29.79519        18.59213
     2009.92197       -23.70854        18.71951
     2009.92470       -26.22388        18.80007
     2009.92744       -20.81723        21.39828
     2009.93018       -26.39657        23.54691
     2009.93292       -12.93391        26.61344
     2009.93566        -6.00226        25.12420
     2009.93839       -26.21660        25.80232
     2009.94113       -19.94495        22.60466
     2009.94387       -21.57329        20.50099
     2009.94661        -4.60264        21.16600
     2009.94935        -7.64398        21.91343
     2009.95208       -17.63532        20.43730
     2009.95482       -30.68167        19.19345
     2009.95756       -19.01701        19.36392
     2009.96030        12.53764        20.34738
     2009.96303       -10.40770        17.68922
     2009.96577       -27.27005        16.66829
     2009.96851       -27.80239        16.83876
     2009.97125        -5.26073        17.84095
     2009.97399         5.99492        21.44324
     2009.97672       -10.38842        21.22781
     2009.97946       -28.48377        22.49976
     2009.98220       -23.47511        20.26308
     2009.98494       -25.53146        19.55124
     2009.98767        -8.88280        19.26651
     2009.99041       -14.92114        20.73889
     2009.99315       -12.49549        18.66894
     2009.99589        -7.98983        20.42606
     2009.99863       -12.38918        19.97273
     2010.00410         9.40513        22.38736
     2010.00684       -15.94121        21.86660
     2010.00958       -27.04155        19.88281
     2010.01232       -22.83590        19.61868
     2010.01505       -35.78324        16.02951
     2010.01779       -19.02059        15.89838
     2010.02053       -18.28293        17.68547
     2010.02327        -5.91728        15.50874
     2010.02600        -4.73662        16.15127
     2010.02874        -3.41397        16.45099
     2010.03148       -11.24631        14.98423
     2010.03422        11.62735        15.62488
     2010.03696         8.03400        16.57276
     2010.03969        -4.51134        13.67669
     2010.04243       -14.25569        18.91246
     2010.04517        -3.71103        17.57495
     2010.04791        22.66362        15.59304
     2010.05065        10.83028        17.52250
     2010.05338        26.78494        14.71073
     2010.05612        46.47459        20.67333
     2010.05886        52.74725        21.55938
     2010.06160        39.56090        24.15198
     2010.06433        15.20856        15.41508
     2010.06707        38.09121        35.42902
     2010.07529        45.82718        37.58889
     2010.07802       -30.75216        29.70245
     2010.08076       -25.59451        25.52695
     2010.08350       -26.87085        24.31308
     2010.08624       -21.60020        29.71182
     2010.08898       -14.98154        30.18576
     2010.09171        -7.90188        22.42483
     2010.09445       -16.27223        22.80697
     2010.09719         4.45943        16.76383
     2010.09993         3.88408        16.65705
     2010.10266         4.08774        15.17156
     2010.10540         2.71039        14.49531
     2010.10814         7.68805        14.66765
     2010.11088         8.07671        14.38478
     2010.11362        -0.75564        14.59272
     2010.11635         0.30702        11.34823
     2010.11909        -5.87833        12.67450
     2010.12183       -15.35967        11.51307
     2010.12457        -9.75702        11.59737
     2010.12677       -25.51149        16.98487
     2010.13826       -13.08374        12.94425
     2010.14099       -22.64008        13.49124
     2010.14373       -17.27843        13.85465
     2010.14647       -19.54977        17.51688
     2010.14921       -13.30912        13.79096
     2010.15195       -15.08746        11.54117
     2010.15468        -9.60580        10.84432
     2010.15729        -4.45518        11.81092
     2010.16015        -3.94349        12.52651
     2010.16284        -4.34285        11.54492
     2010.16557        -6.15320        12.06943
     2010.16848         8.71750        13.18028
     2010.17111        10.44813        12.89741
     2010.17385         9.63179        13.76286
     2010.17659        15.29644        14.08881
     2010.17921        13.31507        14.97861
     2010.18217        10.88778        14.82875
     2010.18471         6.48439        15.02169
     2010.18743         2.77504        18.16316
     2010.19013         7.44268        17.72107
     2010.19311        17.87840        18.18376
     2010.19609        20.53011        19.01924
     2010.19847        28.65368        19.56623
     2010.20137        -2.34962        20.78385
     2010.20395       -15.18300        20.69581
     2010.20669        -6.69035        18.51908
     2010.20955       -10.42266        20.77261
     2010.21218       -17.89503        20.22187
     2010.21475       -15.75342        20.59652
     2010.21751       -17.57876        21.44324
     2010.22031       -14.65109        21.66054
     2010.22321       -23.22339        20.81944
     2010.22604       -14.76071        25.38084
     2010.22859        -8.77610        27.87228
     2010.23132       -12.67945        27.19790
     2010.23417        -7.54877        28.00903
     2010.23965        -6.45545        33.27102
     2010.24238         2.96920        36.35628
     2010.24514         3.15086        29.22477
     2010.24792        -1.63048        34.05030
     2010.25051         2.33415        40.44187
     2010.25332       -11.79718        47.27741
     2010.25608        13.84748        88.32247
     2010.25888        22.43015       103.16620
     2010.26146        62.11277       113.94308
     2010.26425       -13.06556       100.91267
     2010.26722        13.71715        82.51161
     2010.26967         4.34473        45.16624
     2010.27230        -3.06164       101.30043
     2010.27492         7.59899        87.56754
     2010.27786       -18.35030        74.28611
     2010.28080         7.59740        38.72971
     2010.28324        -1.80102        77.39947
     2010.28583        12.80860        82.81320
     2010.28862        10.78927        57.13077
     2010.29150       -17.57104        32.63411
     2010.29428        -1.26237        32.87014
     2010.29706       -20.58571        31.72932
     2010.29975        -8.32206        38.38877
     2010.30257       -18.07639        27.13046
     2010.30536        11.07628        62.95100
     2010.30805        10.37093        39.27483
     2010.31124       -28.44631        41.79437
     2010.31415         1.98839        31.97098
     2010.31622        -7.68212        31.26663
     2010.32147         7.95014       165.39037
     2010.32418       -15.67321        71.92580
     2010.32717         1.55050        58.56569
     2010.33070        33.48635        79.95086
     2010.33340        23.43200        61.70715
     2010.33538        -7.03553        13.13719
     2010.33812        -8.05287        13.18402
     2010.34086       -16.01922        13.08099
     2010.34360       -12.40456        12.96485
     2010.34633       -11.46591        13.01918
     2010.34907       -14.12025        12.81874
     2010.35181        -9.08559        12.99857
     2010.35455       -11.54694        13.15405
     2010.35728       -10.83428        13.44253
     2010.36002       -10.89463        13.39383
     2010.36276        -8.46197        13.07912
     2010.36550       -14.51632        13.91272
     2010.36824       -15.23066        13.72727
     2010.37097        -2.89800        13.60925
     2010.37371       -16.13235        18.61087
     2010.37645        -9.04169        17.50189
     2010.37919       -17.28804        16.40042
     2010.38193       -13.42938        15.30268
     2010.38466       -20.56373        14.14313
     2010.38740       -21.14307        15.53497
     2010.39014       -19.94841        16.69264
     2010.39288       -19.44876        15.80846
     2010.39561       -17.46010        15.90587
     2010.39835        -8.71045        14.80252
     2010.40109       -18.93979        16.24493
     2010.40383        -7.34114        16.60273
     2010.40657       -13.79248        18.04889
     2010.40930        -8.11583        15.71105
     2010.41204        -9.39017        15.97893
     2010.41478       -15.25451        16.37794
     2010.41752        -9.02586        12.44034
     2010.42026        -2.66720        12.43846
     2010.42299        -6.17755        11.39693
     2010.42573        -5.82389        15.65486
     2010.42847       -14.94524        13.31141
     2010.43121       -15.31458        15.30643
     2010.43394       -10.56192        16.43975
     2010.43668       -16.96827        17.03732
     2010.43942       -18.38161        16.69639
     2010.44216       -23.41496        17.10476
     2010.44490       -11.00230        17.17033
     2010.44763       -19.61265        17.28272
     2010.45037       -11.56399        17.69109
     2010.45311        -8.69233        20.90374
     2010.45585       -20.64268        21.13040
     2010.45859       -11.63202        20.46727
     2010.46132       -14.93337        19.78165
     2010.46406       -16.09071        18.97990
     2010.46680       -22.19006        20.37735
     2010.46954       -20.18740        18.71202
     2010.47227       -19.74674        18.34486
     2010.47501       -13.92209        17.57682
     2010.47775       -21.02843        17.10102
     2010.48049        -6.85378        17.35578
     2010.48323       -14.02612        17.31831
     2010.48596       -18.21347        16.70576
     2010.48870       -22.28481        17.21341
     2010.49144       -15.66515        18.13131
     2010.49418       -14.56050        18.81505
     2010.49692       -18.20984        18.80381
     2010.49965       -30.57919        19.33207
     2010.50239       -20.75453        19.80601
     2010.50513       -25.44088        19.50067
     2010.50787       -23.79822        18.70453
     2010.51060       -35.49256        18.89186
     2010.51334       -18.60091        18.35236
     2010.51608       -28.09425        17.87467
     2010.51882       -15.87860        16.70763
     2010.52156       -14.89194        16.73386
     2010.52429       -17.84229        17.36889
     2010.52703       -10.38863        17.92712
     2010.52977       -18.71298        17.45132
     2010.53251       -22.22232        17.39886
     2010.53525       -16.10266        16.37794
     2010.53798       -24.32901        17.34267
     2010.54072       -29.05835        17.67423
     2010.54346       -28.51270        17.43820
     2010.54620       -20.76604        17.64239
     2010.54893       -30.70739        17.95148
     2010.55167       -28.68473        17.60680
     2010.55441       -16.63807        17.99831
     2010.55715       -21.06842        17.29396
     2010.55989       -27.72876        17.20217
     2010.56262       -18.13611        17.06168
     2010.56536       -20.55745        18.02266
     2010.56810       -24.24780        17.43633
     2010.57084       -28.01614        18.50971
     2010.57357       -26.32848        18.30365
     2010.57631       -22.55783        20.00645
     2010.57905       -26.82317        19.42761
     2010.58179       -26.67152        18.93869
     2010.58453       -30.00886        19.65989
     2010.58726       -23.62621        19.26651
     2010.59000        -6.51255        19.62430
     2010.59274       -18.59189        19.02298
     2010.59548       -24.92024        18.77571
     2010.59822       -17.12158        18.47412
     2010.60095       -14.94793        18.62585
     2010.60369       -15.35627        18.70266
     2010.60643       -13.85362        20.22936
     2010.60917       -11.52196        19.05296
     2010.61190       -25.95230        19.68237
     2010.61464       -13.09765        19.19532
     2010.61738       -12.26199        17.76977
     2010.62012       -13.24734        19.00612
     2010.62286       -26.58368        18.57527
     2010.62559       -33.97103        18.81880
     2010.62833       -22.39237        20.09636
     2010.63107       -13.97971        19.59433
     2010.63381       -20.00206        18.81505
     2010.63655       -21.20840        18.84315
     2010.63928        -9.35275        21.60996
     2010.64202       -13.06309        21.98649
     2010.64476       -28.51144        19.80601
     2010.64750       -26.40678        18.53968
     2010.65023       -17.57813        16.11943
     2010.65297       -12.17347        15.28208
     2010.65571       -12.10181        14.31173
     2010.65845       -12.31616        16.04075
     2010.66119        -9.76850        16.41727
     2010.66392        -9.58985        16.02202
     2010.66666        -5.53819        14.67139
     2010.66940        -6.51554        14.71448
     2010.67214        -9.10688        14.16187
     2010.67488        -5.66022        14.16561
     2010.67761        -3.94857        14.98423
     2010.68035        -5.09891        14.78379
     2010.68309        -8.81426        14.84373
     2010.68583         2.78940        13.96330
     2010.68856        -7.29595        13.51934
     2010.69130        -4.63429        13.36573
     2010.69404        -5.17263        13.82843
     2010.69678       -13.25598        14.63393
     2010.69952       -19.48832        14.77442
     2010.70225        -7.29067        14.96924
     2010.70499        -5.64001        14.54776
