# ================= DQRFIT RESULTS ================
# INPUT FILE: series/CLWZ.rad
# OUTPUT: LDETRENDED
# FILTER FUNCTION: f(t)
# f(t)=+line(t)+annual(t)
# line(t)=+P 1+P 2*t
# annual(t)=+P 3*sin(2*pi*t+P 4)
# heav(t)=(t<0?0:1)
# TOTAL OBSERVATIONS MTOT= 3450
# INITIAL TIME INTERVAL= 2022.7488 - 2009.5989 = 13.1499
# TOTAL OBSERVATIONS AFTER PREFILTER M= 3437
# TIME-SPAN= 2022.7488 - 2009.5989 = 13.1499
# OBSERVATIONS: USED M=  3437 REJECTED MTOT-M=    13 %USED=   99.6232
# N=  4 PARAMETERS
# MAXSIG= 175.00000
# MAXRES=  72.14077
# SCALE FACTOR FOR LENGTHS: SCL=  10.00000
# SCALE FACTOR FOR SIGMAS: SCLSIG=   1.00000
# CHI^2=   5751.362 DOF=  3433 CHI^2/DOF=   1.67532
# RMS=     11.826 SDEV=     11.827 MEAN=    0.10321
#  P #       PARAMETER +-    SIGMA %error PARAMETER NAME
# P 1 =      1078.09692 +-   91.353   8.47 YZERO                              
# P 2 =        -0.53424 +-    0.045   8.48 SLOPE                              
# P 3 =         6.57845 +-    0.266   4.04 ANNUAL AMPLITUDE                   
# P 4 =         2.79705 +-    0.054   1.92 ANNUAL PHASE                       
#       T            LDETRENDED       SIG_OBS
     2009.59890        -8.04332        11.34748
     2009.60164        -6.69986        11.37337
     2009.60438        -1.89840        11.66071
     2009.60711         0.74507        12.06325
     2009.60985        -6.65447        11.31124
     2009.61259         2.70199        12.20175
     2009.61533        -8.69355        12.14868
     2009.61807        -5.71108        11.59599
     2009.62080       -15.08562        11.75649
     2009.62354        12.63684        11.56881
     2009.62628         4.47431        11.33971
     2009.62902         9.09477        12.87092
     2009.63175        10.27623        14.96516
     2009.63449       -26.98531        20.87900
     2009.63723        11.63516        11.74355
     2009.63997       -12.51238        11.78756
     2009.64271       -20.03192        11.91181
     2009.64544         5.93154        11.63482
     2009.64818         5.49901        11.61670
     2009.65092         1.52447        11.61411
     2009.65366        -0.58507        11.68919
     2009.65639       -12.41460        11.92734
     2009.65913        10.46886        11.43938
     2009.66187        -6.68368        11.47433
     2009.66461         4.29578        11.77461
     2009.66735        -8.24975        11.82898
     2009.67008        -1.33229        11.89369
     2009.67282        -2.62883        11.23876
     2009.67556         2.18263        11.54681
     2009.67830        -1.90890        12.08137
     2009.68104         9.89656        11.86263
     2009.68377       -15.24798        11.39278
     2009.68651         3.29248        11.50539
     2009.68925         5.26495        11.28924
     2009.69199        -6.22959        11.32548
     2009.69472        12.04287        11.55975
     2009.69746        -1.95166        11.72802
     2009.70020        10.92780        12.32988
     2009.70294         8.02426        11.67883
     2009.70568         7.27872        11.57528
     2009.70841       -21.77481        11.67754
     2009.71115       -12.07535        11.80697
     2009.71389        -5.45589        11.93511
     2009.71663       -17.54143        11.91570
     2009.71937        -0.89296        11.19734
     2009.72210        -4.51050        11.79144
     2009.72484        -1.95404        12.43990
     2009.72758        -8.12858        12.03478
     2009.73032        -4.32611        11.57011
     2009.73305        -6.97865        12.55251
     2009.73579         8.24581        11.55457
     2009.73853         7.53628        11.79144
     2009.74127        -3.59426        12.43473
     2009.74401       -10.44680        12.44896
     2009.74674        -7.46334        11.63482
     2009.74948        -8.33287        11.58046
     2009.75222       -14.61741        11.97912
     2009.75496        -0.38295        11.63741
     2009.75770       -12.48749        11.24523
     2009.76043        -3.05302        11.44067
     2009.76317        -2.54456        11.34101
     2009.76591       -12.88610        11.23617
     2009.76865        -4.32564        11.67754
     2009.77138         6.12383        11.11579
     2009.77412         4.60329        11.21546
     2009.77686        -0.26725        11.81603
     2009.77960        -8.39278        11.97653
     2009.78234        -8.09332        11.86133
     2009.78507        -6.55386        11.92993
     2009.78781        -3.47140        11.96229
     2009.79055        -6.24693        11.38243
     2009.79329       -13.13347        11.75390
     2009.79603       -15.14201        11.83933
     2009.79876        -2.87155        11.95453
     2009.80150       -13.43008        11.83286
     2009.80424        -6.06562        11.84968
     2009.80698        -9.45816        11.96229
     2009.80971        -2.50870        12.18362
     2009.81245        -8.20923        12.28717
     2009.81519         9.26023        11.57658
     2009.81793       -17.58931        12.43343
     2009.82067         3.44916        11.69695
     2009.82340        10.59162        11.23876
     2009.82614        -0.66092        12.90587
     2009.82888       -24.75746        12.15515
     2009.83162         2.15901        12.54733
     2009.83436        -5.50853        11.99594
     2009.83709       -16.88607        11.85745
     2009.83983        -7.49061        11.88463
     2009.84257        14.09286        11.64777
     2009.84531        11.27932        12.06454
     2009.84804       -10.20922        12.96023
     2009.85078         2.92525        12.16421
     2009.85352        18.35971        11.83027
     2009.85626         2.99317        12.00889
     2009.85900        11.15863        11.84451
     2009.86173         5.22610        11.69177
     2009.86447         4.96156        11.79403
     2009.86721        -4.23298        11.29700
     2009.86995         9.25948        11.49115
     2009.87269        -5.05905        11.68401
     2009.87542         2.16541        11.96229
     2009.87816        -0.93213        11.74225
     2009.88090        -7.32167        11.40573
     2009.88364        14.66880        11.44973
     2009.88637         8.74726        11.43679
     2009.88911         9.76772        11.00966
     2009.89185        -0.19081        10.84010
     2009.89459         9.34765        11.27500
     2009.89733        -4.33489        11.50668
     2009.90006        -4.19743        11.80309
     2009.90280         0.75204        11.33842
     2009.90554        -6.93950        12.31306
     2009.90828        -5.75304        11.47821
     2009.91102       -12.28858        11.36560
     2009.91375        -5.65111        11.29053
     2009.91649        13.47035        12.16550
     2009.91923        -1.57819        11.56105
     2009.92197        -6.23973        11.38113
     2009.92470        -8.00926        11.56364
     2009.92744        -7.27380        11.07179
     2009.93018        -6.08934        10.70160
     2009.93292        -4.19287        10.65889
     2009.93566        -4.74941        10.61618
     2009.93839         0.02205        10.91388
     2009.94113       -14.85249        11.15333
     2009.94387        -5.12402        11.82768
     2009.94661         4.55644        12.38684
     2009.94935         2.21990        11.42255
     2009.95208        -2.59664        11.24134
     2009.95482        -2.35217        11.53516
     2009.95756        -8.92371        11.88722
     2009.96030        -9.96225        12.19657
     2009.96303       -31.22979        12.22375
     2009.96577       -27.95932        12.09173
     2009.96851       -34.11686        11.71896
     2009.97125       -39.33240        12.03736
     2009.97399        -1.34593        11.23746
     2009.97672       -24.95547        11.05884
     2009.97946       -17.49101        11.32289
     2009.98220        -4.44755        11.03037
     2009.98494        -5.53308        11.10285
     2009.98767         0.93338        11.13003
     2009.99041        -9.10516        11.28535
     2009.99315        -8.93970        10.83622
     2009.99589        -6.57023        10.91776
     2009.99863       -20.49277        11.51704
     2010.00410       -41.14684        11.66330
     2010.00684       -33.43338        11.49115
     2010.00958        -5.94892        11.50280
     2010.01232       -22.76346        11.89240
     2010.01505       -43.74699        12.04125
     2010.01779       -38.30253        11.80309
     2010.02053        -4.35607        11.47433
     2010.02327       -14.63561        11.49762
     2010.02600         1.21686        11.14815
     2010.02874        -9.18568        11.69177
     2010.03148       -22.51022        12.17198
     2010.03422       -39.07376        12.92528
     2010.03696       -19.78229        12.24187
     2010.03969         8.99017        11.88463
     2010.04243         3.95863        11.12615
     2010.04517        12.51810        11.30477
     2010.04791         1.71156        11.31253
     2010.05065        18.66302        11.38890
     2010.05338        12.97248        11.54163
     2010.05612        14.44595        11.13780
     2010.05886         9.68741        10.94753
     2010.06160        -5.28813        11.27629
     2010.06433         4.97433        11.00060
     2010.06707        -3.18820        11.32936
     2010.06981        -0.97474        11.59858
     2010.07255       -13.37228        11.65812
     2010.07529        -9.38382        11.32030
     2010.07802         4.73565        11.74873
     2010.08076         7.06911        11.22064
     2010.08350         8.64457        11.28147
     2010.08624        -1.01996        11.11709
     2010.08898        -4.65350        12.40366
     2010.09171        -4.82204        11.59470
     2010.09445         9.05642        12.05937
     2010.09719         8.88189        12.02830
     2010.09993        -8.84765        12.04901
     2010.10266       -19.36619        11.53128
     2010.10540       -14.39273        11.74225
     2010.10814        11.33574        11.78108
     2010.11088        -0.74680        11.78497
     2010.11362        18.36466        12.10985
     2010.11635         1.32212        12.19268
     2010.11909       -16.23541        11.94935
     2010.12183         7.67405        11.94547
     2010.12731       -13.92502        12.16680
     2010.13004        -6.45056        11.54422
     2010.13278         5.68690        11.69177
     2010.13552         6.32136        11.37078
     2010.13826        -0.57017        11.17274
     2010.14099         7.46929        10.96953
     2010.14373        -3.28125        11.15851
     2010.14647        12.98621        12.24705
     2010.14921         1.18568        11.80050
     2010.15195       -17.54886        11.45491
     2010.15468        -8.74140        11.65942
     2010.15742         8.11507        11.83156
     2010.16016        11.41153        11.53645
     2010.16290        18.61599        11.96618
     2010.16564         2.34845        12.16421
     2010.16837         6.02692        11.69048
     2010.17111         1.52038        11.68530
     2010.17385        -2.83816        11.07437
     2010.17659        15.63630        11.53128
     2010.17932         7.10377        11.40831
     2010.18206        16.27023        11.17274
     2010.18480         4.62369        10.90999
     2010.18754         3.60715        10.59417
     2010.19028        15.64562        10.88022
     2010.19301        16.14508        11.23099
     2010.19575         0.69054        10.83233
     2010.19849         7.49401        10.88799
     2010.20123         3.86347        11.35784
     2010.20397         8.32393        11.31512
     2010.20670        -5.11361        11.65553
     2010.20944         7.97786        11.00966
     2010.21218        13.99632        11.34360
     2010.21492        -4.12822        11.52998
     2010.21765       -10.24376        11.55975
     2010.22039        -1.30429        11.12874
     2010.22313         0.79017        11.28924
     2010.22587        10.71663        11.78756
     2010.22861        -4.90991        11.32548
     2010.23134        -8.05844        10.69513
     2010.23408        -5.81498        10.87505
     2010.23956       -25.58905        12.33895
     2010.24230        -1.65159        11.09120
     2010.24503        -8.01313        10.95659
     2010.24777        -0.19567        10.74561
     2010.25051         8.77280        10.95659
     2010.25325         4.08526        10.55923
     2010.25598        -2.55628        10.71973
     2010.25872        11.83818        10.75208
     2010.26146         1.31265        11.43291
     2010.26420         1.98911        11.77979
     2010.26694         9.70957        11.10803
     2010.26967        -2.00797        11.15333
     2010.27241         9.98950        11.50151
     2010.27515       -15.28404        11.65812
     2010.27789        15.15542        11.86133
     2010.28062       -11.13611        11.36948
     2010.28336        -3.06865        11.86392
     2010.28610        -2.39019        11.97135
     2010.28884        -5.86973        11.59988
     2010.29158        -8.25926        11.59858
     2010.29431         5.98520        11.28665
     2010.29705        -0.07734        11.39667
     2010.29979       -12.32388        12.04642
     2010.30253        -3.97841        11.39667
     2010.30527        13.94105        11.93123
     2010.30800         2.45051        11.35913
     2010.31074        -1.21202        11.41090
     2010.31348       -10.15756        11.54422
     2010.31622         3.21790        11.45232
     2010.31895       -13.14564        12.93693
     2010.32169         9.40483        11.38113
     2010.32443         8.70529        11.22840
     2010.32717         4.06875        11.06402
     2010.32991        -6.56179        11.68013
     2010.33264         2.63468        11.33971
     2010.33538       -22.48186        12.53051
     2010.33812        -9.70140        11.41737
     2010.34086         3.23606        10.99930
     2010.34360        -4.90747        10.93847
     2010.34633        -3.36201        11.38890
     2010.34907         3.16045        11.72543
     2010.35181        -5.64708        11.20381
     2010.35455       -21.14762        11.43161
     2010.35728       -18.65316        11.19345
     2010.36002        -3.77270        11.43161
     2010.36276        -7.23823        11.27888
     2010.36550       -13.33477        11.77591
     2010.36824        -8.27231        11.65812
     2010.37097         1.34415        11.53904
     2010.37371        -1.02338        11.21805
     2010.37645        -2.89092        11.49115
     2010.37919        -7.88846        11.97265
     2010.38193        -7.81300        11.82121
     2010.38466        -5.11653        11.48597
     2010.38740        10.30393        11.10285
     2010.39014        -6.31261        11.07567
     2010.39288        -5.36914        11.11968
     2010.39561        -5.42268        11.57011
     2010.39835       -34.42122        12.06454
     2010.40109       -14.47176        11.95711
     2010.40383         0.39071        11.54163
     2010.40657         2.98917        11.65683
     2010.40930        -8.41637        12.41661
     2010.41204        -2.82891        12.41661
     2010.41478         9.12956        11.85874
     2010.41752         1.66202        12.11632
     2010.42026        -0.43052        11.65683
     2010.42299         0.61594        11.77332
     2010.42573       -15.69959        11.51186
     2010.42847        -3.21713        11.67107
     2010.43121         7.35833        11.55328
     2010.43394        -1.70720        11.25947
     2010.43668       -24.03474        11.44585
     2010.43942       -18.07028        11.98688
     2010.44216         8.81518        11.89628
     2010.44490         5.42765        11.23228
     2010.44763        -4.49289        11.28147
     2010.45037        -8.80943        11.34619
     2010.45311       -12.90197        11.42644
     2010.45585       -19.39250        11.10673
     2010.45859         5.92296        11.18051
     2010.46132         1.49442        11.44197
     2010.46406       -16.29411        11.47821
     2010.46680        -4.76365        11.24652
     2010.46954         8.22081        11.82250
     2010.47227         5.76427        11.53257
     2010.47501       -18.39826        11.39278
     2010.47775       -19.28080        11.90275
     2010.48049        -0.38134        11.56881
     2010.48323         6.95412        11.25040
     2010.48596         3.43259        11.29182
     2010.48870        -5.05595        11.55328
     2010.49144        -9.65549        11.64906
     2010.49418         0.72797        15.87638
     2010.49692         3.42044        11.41220
     2010.49965        -8.89010        11.69954
     2010.50239        -1.29064        11.39796
     2010.50513        -7.51717        11.43032
     2010.50787        -8.03471        11.22840
     2010.51060         4.57875        11.25170
     2010.51334        -1.70679        11.46527
     2010.51608       -13.05732        11.35007
     2010.51882        -6.58586        11.27241
     2010.52156        -3.69540        11.28017
     2010.52429        21.88006        11.93252
     2010.52703        11.24453        11.62576
     2010.52977        -3.00001        11.25558
     2010.53251       -12.73355        11.23358
     2010.53525        -2.45309        11.38890
     2010.53798        -6.57162        11.37725
     2010.54072       -14.23916        11.57140
     2010.54346        -7.16170        11.55328
     2010.54620        -6.26523        11.32548
     2010.54893         5.58423        11.24134
     2010.55167        -0.55031        11.84839
     2010.55441         1.73515        11.66848
     2010.55715         1.03562        11.74484
     2010.55989        -7.31592        11.91828
     2010.56262       -11.73746        11.95582
     2010.56536       -26.67100        11.82509
     2010.56810         7.20847        12.33506
     2010.57084         6.58493        12.22634
     2010.57357        -8.42961        13.32005
     2010.57631        -2.40715        12.72466
     2010.57905       -14.93268        12.57969
     2010.58179         3.08378        12.35189
     2010.58453         6.08824        12.22763
     2010.58726        -9.71529        12.02054
     2010.59000       -16.24183        12.59264
     2010.59274        -0.79637        12.10855
     2010.59548        -3.05591        12.14997
     2010.59822        -0.16844        11.89758
     2010.60095       -30.31598        13.90769
     2010.60369        -1.80152        11.82380
     2010.60643        -1.33306        11.57528
     2010.60917        -9.10559        12.04642
     2010.61190         2.75787        20.12311
     2010.61464        -6.53167        11.74614
     2010.61738         4.35580        12.08655
     2010.62012        -4.06474        11.85616
     2010.62286        -5.46028        11.57528
     2010.62559        -1.36682        11.96359
     2010.62833        -6.49135        11.58564
     2010.63107        -7.73489        12.19657
     2010.63381         5.03057        12.25093
     2010.63655        -0.80097        12.10855
     2010.63928        -0.06350        11.86910
     2010.64202        -0.62404        12.12797
     2010.64476         9.88442        11.87169
     2010.64750         1.13988        12.23151
     2010.65022       -10.73566        11.95323
     2010.65297         3.99581        11.93252
     2010.65571        -6.44573        11.77979
     2010.65845         4.68074        13.36924
     2010.66008       -32.33039        25.58781
     2010.66380        23.85659        34.07609
     2010.71970        -4.12654        23.40555
     2010.72142        -3.12362        11.37984
     2010.72416        16.10484        11.74873
     2010.72689        -2.97770        12.00501
     2010.72963         6.34576        11.33324
