# ================= DQRFIT RESULTS ================
# INPUT FILE: series/CME1.rad
# OUTPUT: LDETRENDED
# FILTER FUNCTION: f(t)
# f(t)=+line(t)+annual(t)+jumps(t)
# line(t)=+P 1+P 2*t
# annual(t)=+P 3*sin(2*pi*t+P 4)
# jumps(t)=+P 5*heav(t-2005.4524  )
# heav(t)=(t<0?0:1)
# TOTAL OBSERVATIONS MTOT= 4057
# INITIAL TIME INTERVAL= 2007.7122 - 1996.2718 = 11.4404
# TOTAL OBSERVATIONS AFTER PREFILTER M= 4042
# TIME-SPAN= 2007.7122 - 1996.2718 = 11.4404
# OBSERVATIONS: USED M=  4042 REJECTED MTOT-M=    15 %USED=   99.6303
# N=  5 PARAMETERS
# MAXSIG= 175.00000
# MAXRES=  50.83208
# SCALE FACTOR FOR LENGTHS: SCL=  10.00000
# SCALE FACTOR FOR SIGMAS: SCLSIG=   1.00000
# CHI^2=   6754.187 DOF=  4037 CHI^2/DOF=   1.67307
# RMS=      8.849 SDEV=      8.850 MEAN=    0.11775
#  P #       PARAMETER +-    SIGMA %error PARAMETER NAME
# P 1 =      4880.58174 +-  109.496   2.24 YZERO                              
# P 2 =        -2.42356 +-    0.055   2.26 SLOPE                              
# P 3 =         4.10125 +-    0.186   4.54 ANNUAL AMPLITUDE                   
# P 4 =        -3.12616 +-    0.064   2.05 ANNUAL PHASE                       
# P 5 =        -4.57908 +-    0.437   9.53 OFFSET 2005.4524                   
#       T            LDETRENDED       SIG_OBS
     1996.27180       -18.53806        11.73568
     1996.27379       -12.57723         8.18768
     1996.27653        11.10340         8.27305
     1996.27927         0.72704         8.88098
     1996.28200         0.20167         8.19156
     1996.28474         2.13131         8.24071
     1996.28748         5.93195         8.24847
     1996.29022         0.23758         8.82148
     1996.29295        -3.86278         8.26141
     1996.29569         6.88185         8.28857
     1996.29843        15.69649         8.63005
     1996.30117       -10.74088         8.43085
     1996.30391       -14.60624         8.80725
     1996.30664       -18.31361         8.58348
     1996.30938        -4.85497         8.55503
     1996.31212       -17.90734         8.20062
     1996.31486       -18.40870         8.31056
     1996.31760         9.31493         8.77492
     1996.32033         3.38557         8.27305
     1996.32307         4.69121         8.00918
     1996.32581       -11.70716         8.89392
     1996.32855         3.91648         8.08291
     1996.33128       -10.32389         8.36747
     1996.33402         5.92375         8.83442
     1996.33676       -17.67663         8.32867
     1996.33950        -0.37698         8.08162
     1996.34224       -15.31635         8.00401
     1996.34497         6.56429         8.45543
     1996.34771       -20.73408         8.66756
     1996.35045       -14.02744         8.04799
     1996.35319        -9.62281         8.04022
     1996.35593       -11.87517         8.66885
     1996.35871         2.86958         8.93919
     1996.36097        -9.07494        10.42021
     1996.36439        10.02933         9.86919
     1996.36627       -18.07010        11.38514
     1996.36961        14.13401        12.90368
     1996.37235        19.63864        14.14024
     1996.37509         8.40328        10.59613
     1996.37665         1.76006        21.47164
     1996.38604         4.85082         8.90297
     1996.38877        -6.50556         8.46448
     1996.39147         6.37296         8.72577
     1996.39426        13.53475         8.80596
     1996.39573       -32.52469        29.76021
     1996.40586         2.06086        12.43803
     1996.40794        -3.88110         9.05172
     1996.41068       -12.15846         8.26270
     1996.41342        -5.44183         8.36230
     1996.41616        -5.36519        10.81084
     1996.41890        -9.64056         8.27176
     1996.42163        -7.35393         8.85123
     1996.42437        -6.39529         8.68179
     1996.42711        -2.47865         8.78526
     1996.42984       -10.26503         8.32738
     1996.43258        -9.93739         9.00386
     1996.43536        -2.06565         8.69213
     1996.43806        -9.38511         8.61711
     1996.44080         8.00553         8.70895
     1996.44353        -0.63085         8.70507
     1996.44500       -16.40129        33.06374
     1996.44901         4.60142         8.34160
     1996.45175       -13.46594         8.31961
     1996.45449       -21.08330         8.34678
     1996.45723        -9.49266         8.44767
     1996.45996       -16.03303         8.45284
     1996.46270         7.20161        11.60115
     1996.46544        15.24824         9.01550
     1996.46817         0.86287         8.39852
     1996.47091        15.85650         8.63522
     1996.47365        13.17815         8.33514
     1996.47639        -4.85222         8.46319
     1996.47913        -0.85458         8.26400
     1996.48460         6.24969         8.39205
     1996.48734         7.81633         8.39722
     1996.49008        -0.01705         8.41404
     1996.49282         1.98260         8.45414
     1996.49556        19.07523         8.57702
     1996.49829         7.36487         8.90944
     1996.50103         7.72149         9.08406
     1996.50377        11.60614         8.77621
     1996.50651         3.92077         8.39205
     1996.50924         7.29941         8.43732
     1996.51198         8.25304         8.28986
     1996.51472        -5.59332         8.34031
     1996.51746         5.29632         8.71671
     1996.52020         2.61395         8.68049
     1996.52293         6.29859         8.68567
     1996.52567        14.31822         8.45543
     1996.52841         3.43585         8.64816
     1996.53115        23.63750         8.38041
     1996.53389        27.06013         8.49682
     1996.53662        17.39776         9.00516
     1996.53932        12.02731         9.03232
     1996.54210        10.06603         8.98187
     1996.54476         6.81148         8.62358
     1996.54792        11.93613         9.54065
     1996.55031        23.82994         8.37394
     1996.55305        -6.58243         8.29245
     1996.55579        10.43621         8.53433
     1996.55853        12.74285         8.90814
     1996.56126        19.31148         8.68308
     1996.56400         9.83512         8.53433
     1996.56674        11.29075         8.49941
     1996.56948        17.90639         9.00127
     1996.57222        11.25802         8.51622
     1996.57495        10.58066         8.34031
     1996.57769        19.41729         8.53045
     1996.58043        23.40593         8.55632
     1996.58317        13.81756         8.45543
     1996.58590         8.36320         8.61582
     1996.58864        23.77583         8.79044
     1996.59138        19.49147         8.74129
     1996.59412        16.07610         8.67015
     1996.59686        20.02874         8.94566
     1996.59959        14.94438         8.68825
     1996.60233         8.94801         8.59642
     1996.60507        22.59565         8.70636
     1996.60781        16.77628         8.32996
     1996.61055        18.68192         8.44896
     1996.61328        24.27555         8.50846
     1996.61602         9.15519         8.44249
     1996.61876         3.32582         8.87451
     1996.62150        14.53446         8.29375
     1996.62423        21.26209         8.30668
     1996.62697        16.05073         8.43991
     1996.62971         9.06336         8.70507
     1996.63245         4.92100         9.20564
     1996.63519         7.10664        10.55732
     1996.63792        -3.89673         8.97670
     1996.64066         0.78491         8.50587
     1996.64340        12.68354         8.56925
     1996.64614         9.19018         9.08664
     1996.64888        13.80582         9.32982
     1996.65161        19.37345         8.69731
     1996.65415        16.58059         9.23798
     1996.65686        28.21617         9.32206
     1996.65983        26.89635         9.44235
     1996.66256        19.27499         9.55876
     1996.66530         2.48462         8.48777
     1996.66804        10.45426         8.51622
     1996.67078        11.40789         8.61970
     1996.67352        15.46153         9.23281
     1996.67625         5.85017         8.98317
     1996.67899        13.62180         8.73611
     1996.68173        -4.49356         9.10734
     1996.68447        11.80507         8.60935
     1996.68721         7.29971         8.59771
     1996.68994         5.79434         9.04913
     1996.69268         3.75998         9.03491
     1996.69542        -0.34139         9.45270
     1996.69816        11.01225         8.67791
     1996.70089         5.14288         8.76974
     1996.70363        20.74152         8.64945
     1996.70637        20.74115         9.17719
     1996.70911        17.82379         9.12674
     1996.71185         7.48343         8.68955
     1996.71458        19.67806         8.65592
     1996.71732         7.31670         8.88486
     1996.72006        17.68433         8.72188
     1996.72280        23.31197         9.09958
     1996.72554        10.07760         8.37911
     1996.72827        12.59324         9.26126
     1996.73101        11.92387         9.07759
     1996.73375         7.84651         8.38170
     1996.73649        13.65914         8.88357
     1996.73922        -5.13822         8.88486
     1996.74196         9.70841         8.40757
     1996.74351       -15.42483        25.64309
     1996.74744       -11.21132         8.48647
     1996.75018        -8.72068         8.58607
     1996.75291       -20.13304         8.13206
     1996.75839        14.26123         8.73999
     1996.76113        -7.40714         8.56667
     1996.76724         6.51066        11.90771
     1996.76934         0.32777         8.54727
     1996.77208        -6.62860         8.53304
     1996.77482       -16.23196         8.85511
     1996.77713        -8.07135        10.08520
     1996.79218         0.25813        17.40497
     1996.79398        -8.84551         8.17475
     1996.79672        -8.26588         9.04655
     1996.79946       -10.92124        10.78885
     1996.80220        -7.15361         8.26270
     1996.80493        -4.62297         8.22778
     1996.80767        15.75566         8.54209
     1996.81041        -3.70170         8.63393
     1996.81315         4.22793         8.71283
     1996.81588        -5.07243         8.40757
     1996.81740       -27.11977        29.11218
     1996.82136        -6.88117         8.48906
     1996.82409       -15.58954         8.33772
     1996.82553       -15.18805        53.43981
     1996.82957        -7.22125         8.70119
     1996.83231        -5.49862         8.26270
     1996.83458         1.47888         9.83944
     1996.83733        -4.59245         9.79805
     1996.84052         1.92229         8.45284
     1996.84326        -4.04208         8.42180
     1996.84600        -2.38644         8.34160
     1996.84874         3.53719         9.70751
     1996.85148        -6.21517         8.41921
     1996.85343         3.82955        13.33829
     1996.85695         0.73910         8.98963
     1996.85969         7.14673         8.65592
     1996.86243         4.97137         9.08664
     1996.86517       -14.25400         9.02068
     1996.86791       -18.76635         8.70766
     1996.87064        -8.20572         8.54856
     1996.87338        -0.39209         9.22763
     1996.87885        -7.14582         8.74258
     1996.88159        -0.69818         8.97799
     1996.88433       -17.27255         9.40484
     1996.88707       -12.14691         8.54080
     1996.88981        -1.27728         8.94824
     1996.89254       -11.64464         8.79303
     1996.89528       -10.91301         8.54856
     1996.89802        -6.53337         8.85511
     1996.90076       -10.63274         8.75293
     1996.90350         4.74690         8.87063
     1996.90623        -1.04346         8.90038
     1996.90897       -15.74983         9.19012
     1996.91171        -8.47219         9.07242
     1996.91445        -4.47456         9.77995
     1996.91718        -1.85292         9.69716
     1996.91992       -13.66029         8.98834
     1996.92196         1.75465        14.98358
     1996.92540       -22.20002         9.39449
     1996.92814         0.81462         9.45140
     1996.93087        11.20525         9.49279
     1996.93361         8.55789         8.98963
     1996.93626         0.80932         9.34534
     1996.93912         4.70923         9.57170
     1996.94183         2.95379         9.92740
     1996.94437        -6.45004        10.11237
     1996.94746        -5.14555         9.70492
     1996.95004       -12.74030         8.86417
     1996.95278       -13.65466         8.60677
     1996.95551       -21.32103         8.61065
     1996.95825        -9.70539         8.18251
     1996.96099        -4.45876         9.01938
     1996.96373        -9.74712         8.22131
     1996.96647        -3.05549         8.64816
     1996.96920        -5.04685         9.10734
     1996.97194       -32.12322         8.54209
     1996.97468        -4.42858         8.55503
     1996.97742       -15.36495         8.49294
     1996.98016         9.28169         8.76457
     1996.98289        -0.30168         8.58995
     1996.98563       -22.64504         8.58219
     1996.98837       -11.55540         8.97152
     1996.99111       -19.15677         8.86287
     1996.99295       -21.81530        16.31457
     1996.99673       -14.16714         9.98819
     1996.99912       -16.10036         9.86919
     1997.01383       -30.02470        13.47281
     1997.01575        -4.42305         9.20176
     1997.01796        -6.20568        11.00357
     1997.02208       -20.06570        13.59957
     1997.02396       -16.31216         9.34534
     1997.02669       -12.34652         8.43861
     1997.02943       -11.65389         8.84218
     1997.03217       -10.87525         9.27937
     1997.03491        -6.63661         8.75681
     1997.03765        -3.88698         9.61438
     1997.04002         5.39378        11.59210
     1997.04343       -25.78495        11.04884
     1997.04586        -5.53007         9.70492
     1997.04860       -10.77944         8.91720
     1997.05133       -26.84680         8.64428
     1997.05407       -19.05517         8.62099
     1997.05784       -30.36403        17.80853
     1997.05955       -26.22490         9.29489
     1997.06229       -16.78926         8.73353
     1997.06502       -27.79463         8.82795
     1997.06776       -28.15499         8.96894
     1997.07050       -10.07036         9.14744
     1997.07324       -23.97272         9.23022
     1997.07598       -23.79908         8.94954
     1997.07871       -26.33145         9.66483
     1997.08109       -21.85269        10.11495
     1997.08435       -40.82180         9.67129
     1997.08693       -14.04054         8.54468
     1997.08966       -17.90091         8.40628
     1997.09240       -24.06427         8.62099
     1997.09514       -19.67664         9.63766
     1997.09788        -8.08900         8.67791
     1997.10062         5.26263         8.51622
     1997.10335       -26.17773         8.52398
     1997.10609        -9.68810         8.27434
     1997.10883        -3.96146         8.57443
     1997.11157        -9.31183         9.46304
     1997.11431        -4.73019         8.50717
     1997.11704       -18.01655         8.51364
     1997.11978        -9.95292         8.30797
     1997.12252       -15.84228         8.70507
     1997.12526        -6.74065         9.04525
     1997.12799       -18.48301         8.64169
     1997.13073       -13.38338         8.46190
     1997.13347       -16.93374         8.70636
     1997.13621        -6.89711         9.18883
     1997.13895         2.94853         8.34548
     1997.14168        11.70516         8.55373
     1997.14442       -19.31720         8.34936
     1997.14716       -15.25857         8.72835
     1997.14990        -5.71493         8.48777
     1997.15264       -10.40429         8.58736
     1997.15538        -1.51664         8.67144
     1997.15811       -15.20602         8.68049
     1997.16085        15.81461         8.74258
     1997.16359        -2.83675         8.91203
     1997.16632        -5.98512         9.65318
     1997.16906       -10.04848         8.49294
     1997.17180        -5.29685         8.55244
     1997.17454         0.64979         8.59124
     1997.17728       -10.39758         8.46836
     1997.18001        -8.50094         8.48647
     1997.18275        -8.64431         8.86158
     1997.18549       -13.74467         8.69472
     1997.18823        -7.87604         8.47224
     1997.19097       -12.74740         8.48647
     1997.19370       -20.20476         8.51364
     1997.19644       -10.50313         8.40757
     1997.19918        -7.16649         8.40369
     1997.20192         5.10114         8.64040
     1997.20465        -4.14922         8.94178
     1997.20739       -10.92759         8.61841
     1997.21013         0.58105         9.00386
     1997.21287        -5.16932         8.88745
     1997.21561        -3.56368         8.52916
     1997.21834        -4.37705        10.32450
     1997.22108        -2.92741         8.87322
     1997.22382       -14.01678         8.82666
     1997.22656        -4.51614         8.35195
     1997.22930        -6.98050         8.46966
     1997.23203         4.69713         8.70507
     1997.23477        -9.43723         8.52786
     1997.23751        -5.52260         8.74258
     1997.24025       -11.64596         8.42697
     1997.24298         6.79867         9.01292
     1997.24572        -5.11469         8.76328
     1997.24846         2.06094         8.38946
     1997.25120        -5.32042         8.53433
     1997.25394       -10.40979         8.56279
     1997.25667         0.58885         8.48777
     1997.25941        -0.13552         8.59900
     1997.26215        -1.48788         8.56925
     1997.26454       -17.66807        10.02700
     1997.26892       -27.04248        62.06857
     1997.27036       -12.18197         8.41921
     1997.27311        -6.86032         8.63652
     1997.27584        -0.85370         8.29892
     1997.27858        -8.25707         8.46190
     1997.28131        -2.07743         8.44638
     1997.28405        -9.01580         8.25106
     1997.28679        -0.54516         8.35583
     1997.28953        -4.61353         8.64557
     1997.29227        -4.68189         8.52786
     1997.29500        -0.59926         8.86029
     1997.29774       -16.33562         8.89521
     1997.30048         0.74301         8.77362
     1997.30322       -11.96435         8.74646
     1997.30595         8.41828         8.72835
     1997.30869       -14.79708         8.74646
     1997.31143        -0.41344         8.49294
     1997.31417         6.12519         8.39722
     1997.31691        -0.23717         8.65721
     1997.31964        -2.10954         8.89262
     1997.32238         2.79210         8.38170
     1997.32512        -5.43027         8.25753
     1997.32786       -15.03363         8.36489
     1997.33060        -4.48100         8.26400
     1997.33333       -10.10636         8.41533
     1997.33607        -7.70273         8.38558
     1997.33881         3.68991         8.20967
     1997.34155         0.47054         8.47224
     1997.34428        -0.70482         8.48647
     1997.34702       -13.32318         8.53045
     1997.34976        -3.09955         8.40886
     1997.35250        -4.68291         8.27434
     1997.35524        -7.10628         8.57314
     1997.35797        -6.69764         8.52916
     1997.36071        -0.17201         8.48906
     1997.36345         7.18163         8.37394
     1997.36619         4.15926         8.55244
     1997.36893        17.70490         8.57184
     1997.37166         4.14753         8.51622
     1997.37440         3.63217         8.80725
     1997.37714         7.68980         8.20708
     1997.37988         5.34844         8.66368
