# ================= DQRFIT RESULTS ================
# INPUT FILE: series/CME5.rad
# OUTPUT: LDETRENDED
# FILTER FUNCTION: f(t)
# f(t)=+line(t)+annual(t)+jumps(t)
# line(t)=+P 1+P 2*t
# annual(t)=+P 3*sin(2*pi*t+P 4)
# jumps(t)=+P 5*heav(t-2010.0269  )+P 6*heav(t-2014.1573  )
# heav(t)=(t<0?0:1)
# TOTAL OBSERVATIONS MTOT= 4054
# INITIAL TIME INTERVAL= 2019.6711 - 2007.7153 = 11.9559
# TOTAL OBSERVATIONS AFTER PREFILTER M= 4021
# TIME-SPAN= 2019.6711 - 2007.7153 = 11.9559
# OBSERVATIONS: USED M=  4021 REJECTED MTOT-M=    33 %USED=   99.1860
# N=  6 PARAMETERS
# MAXSIG= 175.00000
# MAXRES=  46.18946
# SCALE FACTOR FOR LENGTHS: SCL=  10.00000
# SCALE FACTOR FOR SIGMAS: SCLSIG=   1.00000
# CHI^2=   3423.993 DOF=  4015 CHI^2/DOF=   0.85280
# RMS=      5.872 SDEV=      5.873 MEAN=    0.01447
#  P #       PARAMETER +-    SIGMA %error PARAMETER NAME
# P 1 =      6560.25149 +-  126.644   1.93 YZERO                              
# P 2 =        -3.25256 +-    0.063   1.94 SLOPE                              
# P 3 =         1.55746 +-    0.119   7.65 ANNUAL AMPLITUDE                   
# P 4 =         2.92490 +-    0.106   3.62 ANNUAL PHASE                       
# P 5 =        -1.29693 +-    0.312  24.05 OFFSET 2010.0269                   
# P 6 =        -6.03546 +-    0.353   5.85 OFFSET 2014.1573                   
#       T            LDETRENDED       SIG_OBS
     2007.71526        11.81282         5.31827
     2007.71800         9.72473         5.38107
     2007.72073         5.80663         5.27025
     2007.72347        16.47354         5.21115
     2007.72621        14.50544         5.29981
     2007.72895        12.74135         5.28503
     2007.73169         8.10125         5.34598
     2007.73442         7.14416         5.30442
     2007.73716         7.43006         5.37091
     2007.73990        11.68697         5.34875
     2007.74264         9.57787         5.32197
     2007.74538         9.45278         5.31089
     2007.74811        13.05868         5.50112
     2007.75085         6.84459         5.54822
     2007.75359        11.39250         5.54175
     2007.75633        14.43940         5.44294
     2007.75906        15.02931         5.26841
     2007.76180        17.63821         5.36168
     2007.76454         3.97912         5.25455
     2007.76728         3.52602         5.65072
     2007.76959         6.00555         6.89926
     2007.77287         4.63622         6.12816
     2007.77549         5.61274         5.39400
     2007.77823        10.13964         5.39492
     2007.78097        13.42955         5.26287
     2007.78371         9.73945         5.22593
     2007.78644        11.12736         5.38384
     2007.78918        13.92026         5.42817
     2007.79192        14.16017         5.52790
     2007.79466        14.46107         5.44110
     2007.79739        11.64198         5.55099
     2007.80013        16.82588         5.32474
     2007.80287         6.45079         5.29149
     2007.80561         4.10469         5.37276
     2007.80835         5.95160         5.39123
     2007.81108         6.38250         5.36537
     2007.81382         1.73841         5.51959
     2007.81656         0.45031         5.52421
     2007.81930         7.74522         5.27487
     2007.82203         0.46512         5.28503
     2007.82477         3.02603         5.23147
     2007.82751         5.29393         5.26102
     2007.83003         1.94111         5.59993
     2007.84786       -11.74187        15.39520
     2007.84941        -2.55783         5.16960
     2007.85215         2.46908         5.39031
     2007.85489         2.02398         5.45402
     2007.85763       -11.24111         5.52606
     2007.86036        -0.15821         5.25086
     2007.86310         0.51870         5.59070
     2007.86584         2.48360         5.47619
     2007.86858         5.15551         5.28411
     2007.87132        -0.63559         5.57038
     2007.87405         0.38932         5.27118
     2007.87679         4.93522         5.32474
     2007.87953        -1.81987         5.34044
     2007.88227       -10.86697         5.49928
     2007.88501         3.81294         5.11973
     2007.88774         0.76984         5.30719
     2007.89048         0.07175         5.23239
     2007.89322        -0.36935         5.38938
     2007.89596         1.31756         5.19453
     2007.89869         1.95846         5.26471
     2007.90143        -1.42363         5.47804
     2007.90417        -1.76373         5.57777
     2007.90691         1.83818         5.35983
     2007.90965        -0.07892         5.46141
     2007.91238         0.89299         5.26194
     2007.91512         0.08789         5.26379
     2007.91773        -3.27462         5.91853
     2007.92069       -13.82101         7.31482
     2007.92334        -4.31439         5.52790
     2007.92607        -0.47349         5.23147
     2007.92881         5.27442         5.33490
     2007.93155         7.12632         5.28041
     2007.93429         4.08623         5.29242
     2007.93702         4.05713         5.32197
     2007.93976         8.28904         5.34044
     2007.94250         4.27294         5.27949
     2007.94524        -3.15415         5.59439
     2007.94798        -0.50225         5.40231
     2007.95071         1.51866         5.40970
     2007.95345         2.07456         5.45033
     2007.95619         6.13147         5.38476
     2007.95893        14.11337         5.41801
     2007.96167         7.45628         5.47342
     2007.96440         3.27518         5.38938
     2007.96714        -2.52191         5.60270
     2007.96988        -2.84701         5.38569
     2007.97262        -2.99710         5.42355
     2007.97535         0.95280         5.38292
     2007.97809         9.18171         5.56207
     2007.98083         3.54161         5.46603
     2007.98357        11.52852         5.38846
     2007.98631         7.43242         5.45587
     2007.98904         8.24733         5.50205
     2007.99178         2.31323         5.47804
     2007.99452        -1.19686         5.38107
     2007.99726         4.55904         5.27857
     2008.00000        -1.02905         5.25086
     2008.00273        -0.17615         5.21392
     2008.00547         5.00076         5.47342
     2008.00821         3.06766         5.46234
     2008.01095        -1.78143         5.53991
     2008.01368         4.67447         5.25733
     2008.01642         3.90738         5.28688
     2008.01916        -8.09172         5.59901
     2008.02190         2.49019         5.39492
     2008.02464        -1.06991         5.41247
     2008.02737         2.24800         5.27857
     2008.03011        -1.76110         5.27949
     2008.03285         1.56281         5.23701
     2008.03559         4.06671         5.24070
     2008.03833        -3.34838         5.46141
     2008.04106        -2.64548         5.33767
     2008.04380         2.85343         5.23609
     2008.04654        -0.54367         5.24624
     2008.04928        -2.12276         5.18068
     2008.05201        -8.21986         5.16036
     2008.05475         1.81205         5.21577
     2008.05749        -3.71605         5.16775
     2008.06023        -2.54114         5.12896
     2008.06297         5.53576         5.22223
     2008.06570         2.77167         5.23886
     2008.06844        -1.82243         5.14097
     2008.07118         4.36448         5.19915
     2008.07392         5.68538         5.18068
     2008.07666         8.25729         5.57592
     2008.07939         0.46519         5.41709
     2008.08213        -1.53090         5.23793
     2008.08487        -5.17000         5.26841
     2008.08761         0.28891         5.20746
     2008.09034         3.73281         5.16128
     2008.09308         1.45772         5.20376
     2008.09582         3.51662         5.35429
     2008.09856        -0.46147         5.30073
     2008.10130         5.21143         5.47065
     2008.10403         2.96034         5.31643
     2008.10677         0.25824         5.20930
     2008.10951        -0.71985         5.26194
     2008.11225        -1.82295         5.24163
     2008.11498        -4.78204         5.18345
     2008.11772         4.05386         5.22962
     2008.12046         5.39277         5.16683
     2008.12320         1.86067         5.26102
     2008.12594         0.37458         5.16036
     2008.12867         3.04348         5.18068
     2008.13141         8.88939         5.17698
     2008.13415         4.46329         5.27672
     2008.13689         6.99720         5.18252
     2008.13963         2.43310         5.19545
     2008.14236         7.33701         5.17052
     2008.14510         7.11591         5.21208
     2008.14784         4.89082         5.22777
     2008.15058         4.17472         5.17329
     2008.15331        -1.54437         5.18622
     2008.15605         3.68653         5.27210
     2008.15875        -3.18469         5.34875
     2008.16234        -0.76503         7.41363
     2008.16427        -0.58475         5.32104
     2008.16700         1.78115         5.20930
     2008.16974        -1.27694         5.25733
     2008.17248        -1.09104         5.19545
     2008.17522        -0.53613         5.34136
     2008.17759        -0.47142         6.44399
     2008.18069        -3.53132         5.20838
     2008.18343         1.94758         5.20653
     2008.18617         1.51549         5.20376
     2008.18832        -3.57253         7.60571
     2008.19164         1.34430         5.30996
     2008.19438        -4.35180         5.26379
     2008.19712         7.04911         5.25178
     2008.19986         9.66201         5.23239
     2008.20260         5.93592         5.19453
     2008.20533         7.26682         5.28318
     2008.20807         3.44173         5.50297
     2008.21081         1.36063         5.41986
     2008.21355         9.08854         5.56577
     2008.21629         6.66844         5.26933
     2008.21902         1.11235         5.29242
     2008.22176        -3.94875         5.26564
     2008.22450        -4.09084         5.35798
     2008.22724        -0.18694         5.25548
     2008.22997         2.83297         5.33951
     2008.23271         5.22887         5.38199
     2008.23545         0.76678         5.26841
     2008.23819         2.67268         5.49558
     2008.24093         3.98759         5.28226
     2008.24366         5.57049         5.17698
     2008.24640         2.86640         5.22685
     2008.24914        -1.37470         5.35983
     2008.25188        -0.34179         5.35891
     2008.25462         1.43311         5.24901
     2008.25735         1.76002         5.17421
     2008.26009         5.39992         5.23424
     2008.26283        -1.42717         5.26748
     2008.26557         2.21873         5.21946
     2008.26830         0.44164         5.26287
     2008.27104         6.51554         5.17329
     2008.27378         4.06645         5.19176
     2008.27652         4.96835         5.32659
     2008.27926         0.86026         5.36075
     2008.28199         3.86516         5.32382
     2008.28473         2.44007         5.46049
     2008.28747         6.48697         5.32104
     2008.29021         2.60388         5.31089
     2008.29295         2.24078         5.19361
     2008.29568        -0.65431         5.24255
     2008.29842         0.39759         5.34136
     2008.30116         2.45750         5.19638
     2008.30390         4.20440         5.19453
     2008.30663        -0.84969         5.40139
     2008.30937         0.09321         5.39954
     2008.31211         1.53612         5.26748
     2008.31485         1.17702         5.19545
     2008.31759        -5.74307         5.41801
     2008.32032        -0.43217         5.32659
     2008.32306        -0.35926         5.34321
     2008.32580         3.30564         5.41155
     2008.32854        -0.32145         5.23239
     2008.33128         1.46745         5.27118
     2008.33401         0.02936         5.28688
     2008.33675        -1.13474         5.23147
     2008.33949         8.23117         5.34783
     2008.34223         1.97207         5.26379
     2008.34496         1.88998         5.38015
     2008.34770         6.35288         5.26379
     2008.35044         2.08579         5.32936
     2008.35318         4.48069         5.29796
     2008.35592        -0.39840         5.39031
     2008.35865         3.29350         5.29149
     2008.36139         6.26241         5.16867
     2008.36413         6.65131         5.17883
     2008.36642        -9.16224         6.61391
     2008.38119         4.77880         6.87802
     2008.38329        -3.07335         5.65904
     2008.38603         3.17055         5.19084
     2008.38877         1.44846         5.31366
     2008.39151         6.26436         5.43556
     2008.39425         3.38927         5.14651
     2008.39698         1.38417         5.17514
     2008.39972         7.98008         5.21762
     2008.40246         6.82498         5.19822
     2008.40520         5.33589         5.20376
     2008.40759         0.61868         5.84927
     2008.41067        -0.44630         5.19361
     2008.41341        -4.78740         5.20930
     2008.41615        -1.00349         5.14189
     2008.41889        -1.48959         5.21577
     2008.42115        -4.31923         6.65454
     2008.42547        11.91782        12.12611
     2008.42710         3.26713         5.18714
     2008.42984         0.14303         5.28503
     2008.43258        10.17494         5.37553
     2008.43519         1.36643         5.61656
     2008.43807         4.12081         5.39215
     2008.44079         5.53765         5.41155
     2008.44353         3.61156         5.21669
     2008.44626         2.75046         5.24624
     2008.44900        -4.26963         5.17606
     2008.45174        -2.02373         5.32197
     2008.45448        -2.69982         5.35152
     2008.45722        -2.76892         5.11880
     2008.45995        -4.69701         5.17329
     2008.46817        -0.62430         5.17791
     2008.47091        -2.45639         5.31273
     2008.47364        -8.65249         5.17883
     2008.47638         4.88842         5.17052
     2008.47912         1.61332         5.22500
     2008.48186        -4.93177         5.17052
     2008.48459        -2.22087         5.26564
     2008.48733        -4.63196         5.14559
     2008.49007        -4.32606         5.15944
     2008.49281        -5.10815         5.23609
     2008.49555        -3.03325         5.20469
     2008.49828         0.10066         5.29057
     2008.50102        -2.37344         5.29796
     2008.50370         2.00728         5.33213
     2008.50655         3.80356         5.37922
     2008.50924        -2.18172         5.24347
     2008.51197       -13.27082         5.29611
     2008.51471        -3.68591         5.17329
     2008.51745         3.10199         5.20746
     2008.52019         2.47890         5.21208
     2008.52292         0.04880         5.34875
     2008.52566         0.58071         5.39492
     2008.52840         2.12061         5.18899
     2008.53114         7.91952         5.26010
     2008.53388         0.94642         5.30719
     2008.53661        -0.68767         5.23054
     2008.53935        -1.73977         5.19545
     2008.54209        -1.95586         5.15113
     2008.54483         0.16504         5.32659
     2008.54757        -0.77205         5.29242
     2008.55030         0.82485         5.18714
     2008.55304         3.85976         5.33305
     2008.55578        -6.31434         5.44664
     2008.55852        -0.91543         5.23054
     2008.56125        -8.40253         5.22685
     2008.56283       -15.49841        15.18742
     2008.57871        -4.94374        12.92399
     2008.58048        -1.57501         5.30904
     2008.58316         1.68571         5.19268
     2008.58590         3.49962         5.23886
     2008.58863        -1.54448         5.30350
     2008.59080        -6.59543         6.74134
     2008.59411        -1.71167         5.18160
     2008.59685        -1.69976         5.26102
     2008.59958         1.66914         5.43556
     2008.60232         3.63705         5.43925
     2008.60506        -1.43005         5.30996
     2008.60780        -8.58214         5.30996
     2008.61054        -5.30124         5.87143
     2008.61327        -6.90433         5.36999
     2008.61601        -0.77043         5.33674
     2008.61875         5.75148         5.31273
     2008.62149         3.81238         5.34690
     2008.62423         6.01229         5.30442
     2008.62696         1.87119         5.28226
     2008.62970         6.90110         5.43186
     2008.63244         1.73400         5.27210
     2008.63518        -0.04109         5.32382
     2008.63791        -0.34819         5.38476
     2008.64065        -2.05328         5.33490
     2008.64339         8.85762         5.32936
     2008.64613         5.18053         5.39400
     2008.64887        -5.49457         5.71167
     2008.65160         3.47034         5.48173
     2008.65434         4.30524         5.54083
     2008.65708        19.00515         5.52236
     2008.65982         0.77305         5.39862
     2008.66256         4.45796         5.48635
     2008.66529         6.99286         5.38846
     2008.66803         5.99177         5.43925
     2008.67077         1.94367         5.45218
     2008.67351         1.79458         5.43279
     2008.67624        -2.31952         5.76339
     2008.67898         2.02139         5.40600
     2008.68172         1.45929         5.39308
     2008.68446         2.21320         5.33213
     2008.68720         5.95510         5.40970
     2008.68993        -1.53299         5.57315
     2008.69270         0.30699         5.35983
     2008.69541         4.83182         5.51497
     2008.69815         7.15672         5.40877
     2008.70089         6.98063         5.37184
     2008.70362         4.41353         5.28226
     2008.70636         1.43044         5.30904
     2008.70910         5.62334         5.44017
     2008.71184         1.03425         5.47988
     2008.71457         0.85315         5.30165
     2008.71731         0.42806         5.35983
     2008.72005         3.19996         5.28226
     2008.72279         2.56587         5.26287
     2008.72553         0.54577         5.34690
     2008.72826        -0.37532         5.33582
     2008.73100         3.30558         5.33213
     2008.73374        -8.52251         5.59716
     2008.73648        -1.82461         5.40231
     2008.73921         1.74730         5.37922
     2008.74469         3.27511         5.30442
     2008.74743        -0.08499         5.38015
     2008.75017        -0.19508         5.35152
     2008.75290         3.57682         5.79017
     2008.75564        -1.31227         5.48727
     2008.75819         7.27903         5.77170
     2008.76195        -6.84376         8.90227
     2008.76386        -1.69756         5.27764
     2008.76659        -0.69565         5.41986
     2008.76933        -3.99575         5.47249
     2008.77207         1.24316         5.23793
     2008.77481        -2.46694         5.23424
     2008.77754        -4.36703         5.22685
     2008.78028        -3.81413         5.21208
     2008.78302        -1.99222         5.27210
     2008.78576        -2.90132         5.27210
     2008.78850         4.86559         5.34967
     2008.79123         1.70949         5.36907
     2008.79396        -6.75065         5.19730
     2008.79671        -1.66068         5.24809
     2008.79945         0.61721         5.22870
     2008.80219         0.77011         5.61009
     2008.80492         2.04902         5.18529
     2008.80766         1.19792         5.15851
     2008.81040        -2.90017         5.35429
     2008.81314         0.98273         5.27764
     2008.81587        -1.57336         5.18160
     2008.81861        -4.68646         5.21854
