# ================= DQRFIT RESULTS ================
# INPUT FILE: series/COBO.rad
# OUTPUT: LDETRENDED
# FILTER FUNCTION: f(t)
# f(t)=+line(t)+annual(t)
# line(t)=+P 1+P 2*t
# annual(t)=+P 3*sin(2*pi*t+P 4)
# heav(t)=(t<0?0:1)
# TOTAL OBSERVATIONS MTOT=  869
# INITIAL TIME INTERVAL= 2020.7556 - 2011.9571 =  8.7985
# TOTAL OBSERVATIONS AFTER PREFILTER M=  868
# TIME-SPAN= 2020.7556 - 2011.9571 =  8.7985
# OBSERVATIONS: USED M=   868 REJECTED MTOT-M=     1 %USED=   99.8849
# N=  4 PARAMETERS
# MAXSIG= 175.00000
# MAXRES=  28.36873
# SCALE FACTOR FOR LENGTHS: SCL=  10.00000
# SCALE FACTOR FOR SIGMAS: SCLSIG=   1.00000
# CHI^2=    887.113 DOF=   864 CHI^2/DOF=   1.02675
# RMS=      7.767 SDEV=      7.766 MEAN=   -0.29132
#  P #       PARAMETER +-    SIGMA %error PARAMETER NAME
# P 1 =      3397.75125 +-  151.323   4.45 YZERO                              
# P 2 =        -1.68579 +-    0.075   4.46 SLOPE                              
# P 3 =         4.34047 +-    0.382   8.81 ANNUAL AMPLITUDE                   
# P 4 =        -3.00558 +-    0.124   4.11 ANNUAL PHASE                       
#       T            LDETRENDED       SIG_OBS
     2011.95713        -0.57080        11.00025
     2011.95893         2.38223         5.98650
     2011.96167         2.33084         6.26009
     2011.96440         5.56746         6.38371
     2011.96714         0.87408         6.38067
     2011.96988         3.62169         6.06149
     2011.97262         0.40831         6.19727
     2011.97535         4.23592         6.12330
     2011.97809         0.54754         6.29860
     2011.98083        -0.65685         6.33305
     2011.98357         2.49777         6.13951
     2011.98631         1.55138         6.25502
     2011.98904         8.05300         6.22969
     2011.99178        13.14161         6.07669
     2011.99452        10.34323         6.28441
     2011.99726         6.82685         6.17599
     2012.00273         0.74308         6.14458
     2012.00547         6.88069         6.03615
     2012.00821         6.76131         6.06757
     2012.01095        -2.19008         6.13748
     2012.01368         2.01854         6.05237
     2012.01642        10.44915         6.09188
     2012.01916         7.78577         6.00575
     2012.02190         7.95538         6.13748
     2012.02464         4.99100         6.05135
     2012.02737        -0.24738         6.07567
     2012.03011         7.47223         6.22463
     2012.03285         0.57385         6.19929
     2012.03559         4.47346         6.02399
     2012.03833         5.79908         6.12836
     2012.04106        14.36769         6.00677
     2012.04380         5.51931         6.24590
     2012.04654        11.38992         6.14356
     2012.04928        15.58154         6.12938
     2012.05201         4.93915         6.05135
     2012.05475        10.20777         6.06351
     2012.05749         7.24439         5.94394
     2012.06023         0.59600         5.95509
     2012.06297        -4.97438         6.00373
     2012.06570         5.96823         6.06250
     2012.06844       -10.77215         6.16687
     2012.07118         2.71946         5.96522
     2012.07392        -3.79992         5.79296
     2012.07666         1.52569         5.95813
     2012.07939         3.20831         5.94394
     2012.08213         6.82292         6.01386
     2012.08487        11.76154         6.00373
     2012.08761        -3.25484         6.09087
     2012.09034        -1.60623         6.22463
     2012.09308         2.35339         6.00069
     2012.09582         4.12800         5.98853
     2012.09856        11.16462         5.99258
     2012.10130         2.61723         6.21855
     2012.10403         2.22785         6.20233
     2012.10677        -0.37954         6.07162
     2012.10951         4.35008         6.28238
     2012.11225         4.01669         6.17295
     2012.11498         2.95431         6.04831
     2012.11772         6.53093         6.09492
     2012.12046         3.99054         6.11620
     2012.12320         4.82616         6.11519
     2012.12485         6.67894        12.13513
     2012.14616       -18.90213        13.53144
     2012.14784        -6.64430         5.95306
     2012.15058         6.38931         5.97536
     2012.15331        -0.25207         5.98448
     2012.15605         1.53054         6.31278
     2012.15879         7.62616         6.32190
     2012.16153         4.77477         6.04527
     2012.16427        -1.48561         6.01994
     2012.16700        -1.45400         6.03615
     2012.16974        -3.91838         5.90341
     2012.17248        -1.26377         5.96624
     2012.17522        -8.00915         6.10202
     2012.17796        -1.67054         6.12330
     2012.18069        -1.20492         6.03514
     2012.18343        -7.32330         6.04527
     2012.18617        -3.34869         6.23881
     2012.18891        -6.72507         6.55597
     2012.19147        -0.15075         6.43944
     2012.19358       -17.60219         9.89779
     2012.19712        -3.46023         5.92571
     2012.19986        -0.38461         5.90949
     2012.20260         3.97100         5.90848
     2012.20533         5.44562         5.95914
     2012.20807         0.98723         5.84768
     2012.21081         4.57085         6.03007
     2012.21355        -2.50953         5.87909
     2012.21629        -3.98392         6.03413
     2012.21902       -11.34330         5.91355
     2012.22176       -11.51769         5.87403
     2012.22450        -5.13607         5.84160
     2012.22724        -2.55346         5.84566
     2012.22997         3.09016         6.05845
     2012.23271         3.98377         6.59346
     2012.23545         4.16639         6.02906
     2012.23819         9.87100         5.93077
     2012.24093         4.10062         5.86997
     2012.24366         2.58624         6.00170
     2012.24640         5.52585         5.90240
     2012.24914        -0.02553         5.92165
     2012.25188        -8.50392         6.03818
     2012.25462        -2.90730         6.01893
     2012.25735        -2.52569         5.83856
     2012.26009        -3.90707         5.91456
     2012.26283        -7.82446         6.03717
     2012.26557        -1.27284         6.40702
     2012.26830        -3.43223         6.03615
     2012.27104        -7.03761         6.16889
     2012.27378         5.51601         6.09188
     2012.27635        -0.18567         6.94203
     2012.27857       -15.77292         9.43675
     2012.28120        -2.23149         9.67588
     2012.28473        -6.38753         6.06554
     2012.28747       -14.05892         6.11823
     2012.29021        -2.81630         5.98144
     2012.29295        -9.83069         6.22057
     2012.29568       -10.36607         6.10100
     2012.29842        -4.94346         6.28137
     2012.30116       -11.05184         6.08580
     2012.30390        -6.18222         6.07061
     2012.30663        -3.50561         6.08378
     2012.30937        -3.68799         6.01893
     2012.31211        -1.01538         6.12127
     2012.31485        12.18524         6.06250
     2012.31759        -3.29815         6.05946
     2012.32032        -4.48053         6.02703
     2012.32306        -8.35592         6.00373
     2012.32580        -6.26130         6.19321
     2012.32854        -5.14969         6.14863
     2012.33128        -1.41907         6.16180
     2012.33401        -5.83745         6.09188
     2012.33675        -3.14184         5.94800
     2012.33949        -7.72522         5.93989
     2012.34223        -2.18661         6.50835
     2012.34496       -14.82299         5.96117
     2012.34770        -4.68038         6.46781
     2012.35050        -0.80367         6.16991
     2012.35295        -9.51153         6.84172
     2012.35500        -0.84307        11.69131
     2012.35774        -6.94945        11.18365
     2012.36139        -0.95730         5.99968
     2012.36413        -2.82768         6.00575
     2012.36687         1.61193         6.09087
     2012.36961         0.85955         5.99461
     2012.37234        -1.54684         6.17193
     2012.37508        -7.85222         6.13748
     2012.37782        -5.53161         6.23881
     2012.38056        -6.43299         6.21348
     2012.38329         2.37062         6.35230
     2012.38603        -5.76776         6.17193
     2012.38877        -6.05915         6.31582
     2012.39151        -4.03253         6.06858
     2012.39425        -6.56491         6.21551
     2012.39698        -5.28830         6.04933
     2012.39972        -8.51168         5.96826
     2012.40246         0.54293         6.00879
     2012.40520        -5.83445         6.00981
     2012.40794        -8.92384         5.98549
     2012.41067        -3.39123         6.14863
     2012.41342       -12.72160         6.17295
     2012.41615         5.89201         6.12938
     2012.41889        -3.21738         6.28745
     2012.42162         3.72024         6.94102
     2012.42448        -0.63695         6.37966
     2012.42693       -13.63582         6.50936
     2012.45448        -6.40438         7.62195
     2012.45722       -12.42476         7.73341
     2012.45995       -10.51514         7.52366
     2012.46269        -9.60653         8.31504
     2012.46543        -7.79591         7.90770
     2012.46817        -5.03830         7.63816
     2012.47091        -1.28868         7.60067
     2012.47364       -14.17307         7.88743
     2012.47638       -10.17445         7.70808
     2012.47912         0.56216         7.52873
     2012.48186       -16.82522         7.74557
     2012.48459        -4.29661         7.59256
     2012.49387         2.66603        15.69582
     2012.49555        -8.00314         7.59560
     2012.49828       -11.70653         7.71517
     2012.50102        -4.00491         7.44462
     2012.50376        -0.23530         7.57635
     2012.50650        -9.70868         7.69795
     2012.50924        -4.11007         7.60472
     2012.51197        -9.64945         7.81346
     2012.51471       -12.30484         7.69491
     2012.51745        -2.33922         7.68579
     2012.52019        -4.99560         7.75266
     2012.52292       -14.76099         7.75266
     2012.52566         1.53563         7.71618
     2012.52840        -8.07776         7.63411
     2012.53114         1.18386         7.60371
     2012.53388         0.51947         8.86424
     2012.53659        -4.61294         8.03334
     2012.53947         6.44790         7.99281
     2012.54209        -2.15268         7.80941
     2012.54483        -0.07307         7.61587
     2012.54757        -3.14045         7.52163
     2012.55030        -3.56283         7.80738
     2012.55304        -7.05522         7.71821
     2012.55578         0.74540         7.70504
     2012.55852        -5.17999         7.46894
     2012.56125         1.59963         7.62701
     2012.56399         5.95724         7.65640
     2012.56673         0.08086         7.56014
     2012.56947        -3.33753         7.69288
     2012.57221        -3.26491         7.48009
     2012.57494         3.20170         7.56419
     2012.57768         1.76032         7.63411
     2012.58042         2.59894         7.69693
     2012.58316        -6.08845         7.70098
     2012.58584        -3.76493         7.80130
     2012.58863        -2.28922         7.74456
     2012.59137         2.94640         7.63512
     2012.59411         5.43601         7.74456
     2012.59685        12.28063         7.80941
     2012.59958         6.43624         7.68680
     2012.60238         9.50695         9.66575
     2012.60506        -1.88453         7.52265
     2012.60780        -1.97691         7.69997
     2012.61054         4.70171         7.65437
     2012.61327         3.16232         7.57230
     2012.61601         9.81294         7.46590
     2012.61875        -3.08145         7.58851
     2012.62149         6.40617         7.58648
     2012.62423         9.02078         7.59459
     2012.62696        -1.27260         7.67059
     2012.62970        -5.61199         7.72936
     2012.63244         0.14163         7.79421
     2012.63518         0.47624         7.65741
     2012.63791        -2.02314         7.77901
     2012.64065         4.24748         9.36379
     2012.64339         5.99509         7.72125
     2012.64613         7.32671         7.59763
     2012.64887         8.83032         7.38180
     2012.65160        14.15894         7.59560
     2012.65428       -12.51154        11.66091
     2012.65714         7.60426        11.73488
     2012.65982        10.49678         8.53593
     2012.66256         7.76740         7.50441
     2012.66529        13.22601         7.47806
     2012.66803        -1.88537         7.47300
     2012.67077         7.40024         7.61688
     2012.67351         2.48586         7.58648
     2012.67624        -4.42752         7.33417
     2012.67898        11.59709         7.28554
     2012.68172        15.96271         7.55102
     2012.68446         4.72432         7.58243
     2012.68720         3.94294         7.64120
     2012.68993         5.24455        10.78341
     2012.69267        -0.02783         9.94846
     2012.69541         5.66978         7.54190
     2012.69815        12.95240         7.63107
     2012.70089         1.31901         7.75165
     2012.70362         4.59863         7.59966
     2012.70636         8.44825         7.49529
     2012.70910         0.45586         7.39396
     2012.71184        11.89348         7.40105
     2012.71457        11.87509         7.46692
     2012.71731        13.53371         7.48617
     2012.72005         7.09332         7.53987
     2012.72279         7.22894         7.45273
     2012.72553         7.36555         7.37268
     2012.72826        18.07517         7.48819
     2012.73100         8.46978         7.58851
     2012.73374         5.54240         7.96241
     2012.73648         8.07702         7.55912
     2012.73921         3.29663         7.63411
     2012.74195         8.02325         7.56520
     2012.74469         9.09086         7.47806
     2012.74669         3.77023        11.37517
     2012.75108        -8.21337        14.90749
     2012.75290         7.83871         7.59864
     2012.75564         6.20732         7.49529
     2012.75838        13.84494         7.36356
     2012.76112         7.60255         7.50339
     2012.76386        12.14717         7.52366
     2012.76659        12.28579         7.61182
     2012.76933        13.90040         7.49731
     2012.77207        17.30302         7.34735
     2012.77481        15.61163         7.42942
     2012.77754         6.84225         7.55102
     2012.78028        -1.34714         7.65133
     2012.78302         2.83648         7.65539
     2012.78576         2.75809         7.50643
     2012.78850         7.80371         7.62296
     2012.79123         5.52832         7.90567
     2012.79397         3.39794         7.48009
     2012.79671         6.75756         7.61283
     2012.79945         4.98317         7.78407
     2012.80219         5.36379         7.69997
     2012.80492        12.33740         7.34735
     2012.80766         4.96202         7.54595
     2012.81040         6.21363         7.60574
     2012.81314        -3.06875         7.61587
     2012.81587        -3.48614         7.58040
     2012.81861        -2.10652         7.55203
     2012.82135         5.41109         7.44260
     2012.82409       -10.66229         7.83170
     2012.82683        -5.97967         7.61283
     2012.82956        -3.52906         7.68173
     2012.83230        -2.37644         7.44361
     2012.83504        -1.57783         7.86818
     2012.83778         3.66679         7.49630
     2012.84052         1.27040         7.62701
     2012.84325        -2.39098         9.42459
     2012.84599        -7.96237         7.59358
     2012.84873        -1.14575         7.56520
     2012.85147        -0.97614         7.92188
     2012.85420        -1.25452         7.59054
     2012.85694        -2.25490         7.69896
     2012.85968        -4.06229         7.62398
     2012.86242        -7.13167         7.74050
     2012.86516        15.18694         7.44665
     2012.86789         6.69556         7.80941
     2012.87063        -3.90683         7.55304
     2012.87337        -3.29221         7.59459
     2012.87611        -4.40460         7.64221
     2012.87885         2.99702         7.50542
     2012.88158        -3.16237         7.56723
     2012.88432        16.20125         7.47502
     2012.88706        -0.27813         7.97457
     2012.88980        -0.21152         7.74557
     2012.89253         0.73610         7.54899
     2012.89527         2.57971         7.51049
     2012.89801        -2.86467         7.69693
     2012.90075        -8.51606         7.50745
     2012.90349       -10.20044         7.62701
     2012.90622        -3.93883         7.67869
     2012.90896         5.06179         7.53177
     2012.91170         6.79840         7.45678
     2012.91444        -0.07398         7.61790
     2012.91718         3.18463         7.53886
     2012.91991        -6.85875         7.55102
     2012.92265        -6.62413         7.53379
     2012.92539        -0.10252         7.81853
     2012.92813         0.07410         7.54697
     2012.93086        -9.11829         7.85298
     2012.93360        -3.74267         7.64221
     2012.93634       -10.42006         7.59459
     2012.93908        -7.55144         7.65437
     2012.94182         2.88217         7.43652
     2012.94455         6.20779         7.33316
     2012.94729         1.76740         7.56115
     2012.95003         0.82702         7.68477
     2012.95277         8.12664         7.44260
     2012.95551        10.26425         7.46489
     2012.95824         6.32587         7.51555
     2012.96098         1.60248         7.76685
     2012.96372        11.44410         7.75570
     2012.96646         4.62371         7.43348
     2012.96919        -2.15067         7.47705
     2012.97193         4.26994         7.61080
     2012.97467        -1.78744         7.52366
     2012.97741         3.68017         7.54393
     2012.98015        -4.96021         7.46185
     2012.98288        -0.09859         7.36356
     2012.98562         1.31002         7.42638
     2012.98836         1.84664         7.47097
     2012.99110         7.87525         7.58952
     2012.99384         0.22087         7.40207
     2012.99657         0.16048         7.46590
     2012.99931       -13.77090         7.42942
     2013.00205         1.41971         7.46489
     2013.44558       -13.88458         7.62499
     2013.44832       -17.08297         7.65640
     2013.45106        -8.04235         7.48617
     2013.45379        -5.53674         7.52670
     2013.45653        -0.17112         7.39903
     2013.45927       -21.86751         7.71922
     2013.46201        -3.21189         7.58142
     2013.46475        -8.47528         7.65741
     2013.46748        -4.69366         7.50238
     2013.47022        -9.89105         7.49225
     2013.47296       -12.08543         7.51859
     2013.47570       -14.13681         7.51961
     2013.47843        -2.63720         7.80941
     2013.48117        -1.84858         7.54393
     2013.48391        -9.17097         7.49225
     2013.48665        -6.05035         7.46894
     2013.48939        -7.92174         7.39801
     2013.49212        -7.35212         7.48110
     2013.49486       -10.31251         7.53683
     2013.49760        -3.35389         7.65032
     2013.50034         3.69772         7.45070
     2013.50308         2.93134         7.46084
     2013.50581        -0.06404         7.45577
     2013.50855        -3.41043         7.48009
     2013.51129         3.20019         7.34633
     2013.51403        -3.95620         7.43652
     2013.51676        -5.00158         7.43652
