# ================= DQRFIT RESULTS ================
# INPUT FILE: series/COND.rad
# OUTPUT: LDETRENDED
# FILTER FUNCTION: f(t)
# f(t)=+line(t)+annual(t)
# line(t)=+P 1+P 2*t
# annual(t)=+P 3*sin(2*pi*t+P 4)
# heav(t)=(t<0?0:1)
# TOTAL OBSERVATIONS MTOT= 3798
# INITIAL TIME INTERVAL= 2022.7488 - 2011.8718 = 10.8770
# TOTAL OBSERVATIONS AFTER PREFILTER M= 3794
# TIME-SPAN= 2022.7488 - 2011.8718 = 10.8770
# OBSERVATIONS: USED M=  3794 REJECTED MTOT-M=     4 %USED=   99.8947
# N=  4 PARAMETERS
# MAXSIG= 175.00000
# MAXRES=  33.21498
# SCALE FACTOR FOR LENGTHS: SCL=  10.00000
# SCALE FACTOR FOR SIGMAS: SCLSIG=   1.00000
# CHI^2=   2758.084 DOF=  3790 CHI^2/DOF=   0.72773
# RMS=      4.844 SDEV=      4.844 MEAN=    0.01231
#  P #       PARAMETER +-    SIGMA %error PARAMETER NAME
# P 1 =      3366.12014 +-   50.190   1.49 YZERO                              
# P 2 =        -1.67032 +-    0.025   1.49 SLOPE                              
# P 3 =         4.32015 +-    0.108   2.51 ANNUAL AMPLITUDE                   
# P 4 =        -2.88889 +-    0.034   1.19 ANNUAL PHASE                       
#       T            LDETRENDED       SIG_OBS
     2011.87177         0.73699         5.80684
     2011.87405        -4.28020         4.66629
     2011.87953         2.74595         4.76610
     2011.88227        -0.53548         4.68847
     2011.88501        -0.25990         4.70468
     2011.88774        -5.99233         4.71321
     2011.89048        -2.05076         4.75074
     2011.89322         2.01782         4.74733
     2011.89869         1.86096         4.77036
     2011.90143        -2.16647         4.82069
     2011.90417        -5.60389         4.71321
     2011.90691        -3.58232         4.75842
     2011.90965        -3.13075         4.69444
     2011.91238         1.76383         4.82410
     2011.91786         1.04097         4.97339
     2011.92060        -8.41145         4.72856
     2011.92607        -9.68731         5.01519
     2011.92881        -4.54573         4.91624
     2011.93155        -0.51216         4.82410
     2011.93702        -1.86502         4.74477
     2011.93976        -3.95144         4.77377
     2011.94250         0.69513         4.73197
     2011.94524        -0.93230         4.71918
     2011.94798         1.26228         4.73197
     2011.95071        -1.21915         4.66458
     2012.02863        -5.37901        16.28423
     2012.03182        -1.18567        19.06183
     2012.03559        -1.08538         4.86335
     2012.03833         0.25519         4.81302
     2012.04106         5.14376         4.78060
     2012.04380        -0.38467         4.89150
     2012.04654         0.00991         5.00922
     2012.05201        -4.21095         4.94865
     2012.05475         5.63763         5.17642
     2012.05749         1.82720         4.90259
     2012.06023        -4.10823         4.96571
     2012.06297        -0.18565         4.93074
     2012.06570        -6.15408         4.66714
     2012.07118        -5.39093         4.56989
     2012.07392        -3.39536         4.58780
     2012.07666         0.52521         4.62619
     2012.07939         2.43679         4.65605
     2012.08213         3.94036         4.55368
     2012.08458         2.03245         5.15339
     2012.09034        -4.18792         4.60572
     2012.09308        -5.15435         4.61766
     2012.09582        -5.77578         4.73197
     2012.09856        -2.76620         4.58439
     2012.10130        -8.03363         4.67994
     2012.10392        -9.61025         4.74733
     2012.10951        -8.03391         4.73368
     2012.11225        -6.11334         4.96401
     2012.11498        -1.00776         4.61510
     2012.11772         1.16081         4.61169
     2012.12046         0.80938         4.64411
     2012.12320         0.61095         4.64667
     2012.12867        -5.62590         4.83946
     2012.13141        -9.91333         4.77036
     2012.13415        -1.22675         4.63472
     2012.13689        -4.97318         4.67652
     2012.13963         3.92639         4.84884
     2012.14236        -5.51103         4.93927
     2012.14784        -8.39289         4.55283
     2012.15058        -1.35331         4.61425
     2012.15331        -5.76174         4.58525
     2012.15600        -4.84826         4.81216
     2012.15828        -7.71445         6.08835
     2012.16153         2.16998         4.62363
     2012.16700        -5.92988         4.66714
     2012.16974        -2.02230         4.61852
     2012.17248       -11.74473         4.62193
     2012.17522        -4.30216         4.74648
     2012.17796         0.09442         4.61510
     2012.18069        -5.67001         4.58183
     2012.18617        -7.35686         4.62790
     2012.18891        -3.03929         4.65946
     2012.19164        -0.61672         5.45538
     2012.19438         1.41285         4.65690
     2012.19712         7.15443         4.60572
     2012.19986        -1.15500         4.83946
     2012.20533         0.26615         4.76780
     2012.20807         3.19572         4.64752
     2012.21081         3.98829         4.64325
     2012.21343        -1.32132         4.77207
     2012.21902       -11.80999         4.62961
     2012.22450       -10.27384         4.59548
     2012.22724        -5.05627         4.71491
     2012.22997        -2.76370         4.88723
     2012.23271        -0.53512         4.66287
     2012.23545        -4.28355         4.90429
     2012.23813        -3.45907         5.34277
     2012.24366        -1.22583         4.62449
     2012.24640        -8.52026         4.62961
     2012.24914        -1.43268         4.66117
     2012.25188        -6.10911         4.64752
     2012.25462        -8.20454         4.61937
     2012.25735        -4.00096         4.58866
     2012.26283        -7.93582         4.59292
     2012.26557        -8.23825         4.60060
     2012.26819       -10.99186         7.74757
     2012.27110        -3.21400         4.80363
     2012.27378        -3.23853         4.60998
     2012.27652        -1.68195         4.60657
     2012.28199         1.96819         4.65861
     2012.28473        -0.66523         4.61596
     2012.28747        -6.00266         4.59889
     2012.29021        -7.02209         4.71406
     2012.29295        -8.17651         4.60657
     2012.29568        -8.19694         4.65520
     2012.30116       -12.97079         4.66714
     2012.30390       -15.34622         4.66202
     2012.30663        -5.76665         4.66629
     2012.30937        -3.58008         4.67908
     2012.31211        -3.84650         4.80704
     2012.31485       -11.21193         4.71150
     2012.32032        -2.86578         4.73197
     2012.32306        -8.15821         4.59634
     2012.32580       -13.39064         4.60145
     2012.32854       -13.40906         4.76866
     2012.33128        -2.09649         4.67567
     2012.33401        -3.15692         4.73283
     2012.33995        -2.87201         5.54836
     2012.34274        -9.73534         5.70021
     2012.34548       -13.33277         5.63708
     2012.34770        -8.36405         4.60316
     2012.35044        -8.10348         6.92436
     2012.35318        -6.32691         4.99131
     2012.35837        -9.68624         8.06918
     2012.36145        -6.64409         6.59252
     2012.36413        -3.54961         5.27708
     2012.36687        -6.87404         4.56477
     2012.36961        -3.87247         4.62619
     2012.37234        -2.64989         4.66117
     2012.37782        -2.88975         4.65178
     2012.38056        -9.26218         4.65264
     2012.38329        -2.17860         4.68505
     2012.38603        -6.33403         4.72003
     2012.38877        -8.37446         4.95036
     2012.39151        -3.14388         4.67567
     2012.39698        -6.70874         4.66287
     2012.39972        -1.27316         4.54003
     2012.40246        -2.44059         4.55965
     2012.40520        -3.71602         4.59207
     2012.40794        -8.30844         4.61254
     2012.41067        -3.81987         4.60487
     2012.41615        -4.12173         4.56989
     2012.41889        -1.31315         4.65093
     2012.42162        -6.01958         5.36751
     2012.42442        -5.26991         4.65093
     2012.42710        -7.75543         4.59975
     2012.42989        -4.80676         4.67055
     2012.43531        -6.29871         4.60828
     2012.43805        -5.00514         4.58013
     2012.44079       -11.09057         4.58439
     2012.44353        -9.84199         4.59207
     2012.44626        -4.46242         4.56221
     2012.44900        -6.37785         4.59975
     2012.45448        -5.45570         5.71215
     2012.45722        -3.96413         4.65008
     2012.45995         8.87644         4.83178
     2012.46269         4.40102         5.02202
     2012.46543        -6.17641         4.60572
     2012.46817        -3.45084         4.64837
     2012.47364        -1.74369         4.65520
     2012.47638        -5.54912         4.64155
     2012.47912        -1.89454         4.56904
     2012.49384        -0.09096         9.22338
     2012.49555        -3.71611         4.57586
     2012.49828        -7.23353         4.70723
     2012.50102        -1.84796         4.67141
     2012.50376         9.49161         4.69956
     2012.50650        -4.04681         4.54600
     2012.51197        -1.45667         4.72600
     2012.51471        -1.72509         4.59634
     2012.51745        -0.68352         4.68591
     2012.52019         3.06805         4.64240
     2012.52292         0.05863         5.44002
     2012.52566        -0.96780         4.55795
     2012.53114         5.75834         4.61254
     2012.53388        -0.13208         4.68335
     2012.53639        -2.82189         5.42040
     2012.53947        -1.71375         5.31377
     2012.54209         7.13864         5.19007
     2012.54483        -0.56379         4.63728
     2012.55030         5.65636         4.70126
     2012.55304         0.54593         4.57501
     2012.55578        -1.57950         4.60316
     2012.55852        -0.76092         4.60913
     2012.56125         0.36165         4.55624
     2012.56399        -0.89978         4.58780
     2012.56947         1.18137         4.60657
     2012.57221         3.48194         4.60231
     2012.57494         2.21851         4.58183
     2012.57768        -4.83691         4.65008
     2012.58042        -1.60434         4.61084
     2012.58316        -3.69577         4.55027
     2012.58863         5.51838         4.56563
     2012.59137         2.95295         5.77357
     2012.59411         2.80253         4.57671
     2012.59685        -2.04790         4.96571
     2012.59964         2.18477         4.68591
     2012.60238         2.08634         5.17557
     2012.60780         1.99739         4.57245
     2012.61054         6.01496         4.56648
     2012.61327         3.19254         4.56307
     2012.61601         0.50011         4.56818
     2012.61875         6.02668         4.57245
     2012.62149         5.08126         4.61852
     2012.62696         4.15940         5.28732
     2012.62942         2.94550         5.08770
     2012.63752         7.55503         5.31718
     2012.64065         7.64927         4.61169
     2012.64550         8.65137         6.23593
     2012.64887         6.73699         4.57671
     2012.65160         9.84956         4.60572
     2012.65434         6.47413         4.85908
     2012.65708         9.84971         5.32997
     2012.65982         1.65428         8.94357
     2012.66529         8.83243         4.59548
     2012.66803         4.08000         4.60316
     2012.67077         6.01357         4.57842
     2012.67351         5.58115         4.59548
     2012.67624         0.37372         4.87444
     2012.67898         8.62729         4.57586
     2012.68446         2.56444         4.57160
     2012.68720         5.57801         4.54686
     2012.68993         6.22558         4.74903
     2012.69273         2.13925         5.83840
     2012.69541         3.73773         4.62875
     2012.69815         2.71230         4.62022
     2012.70362         1.40645         4.64667
     2012.70636         4.81202         4.65605
     2012.70910         1.27860         4.58866
     2012.71184         6.09317         4.55539
     2012.71457         3.58774         4.55454
     2012.71731         9.03131         4.68079
     2012.72279         7.73246         4.55539
     2012.72553         9.07903         4.57501
     2012.72826         7.07061         4.61340
     2012.73100         7.29918         4.71918
     2012.73374         3.08275         4.64496
     2012.73648         2.94033         4.58439
     2012.74195         8.28347         4.66885
     2012.74469         6.68905         4.60743
     2012.74669        11.04838         6.75119
     2012.75017         2.13819         4.83008
     2012.75290         8.51576         4.90173
     2012.75564         2.03334         4.60913
     2012.76112         6.27248         4.52724
     2012.76386         5.03206         4.53918
     2012.76659         7.86363         4.63387
     2012.76933         6.38820         4.65008
     2012.77207         6.17578         4.62961
     2012.77481         3.59135         4.59804
     2012.79397         1.92636         4.61340
     2012.79671         3.25093         5.14401
     2012.79945         9.51851         5.49376
     2012.80219         9.08208         5.83329
     2012.80492         6.80365         4.65690
     2012.80766         6.67123         4.86846
     2012.81040         2.48880         4.66202
     2012.81314        -0.87463         4.66287
     2012.81587        -3.70705         4.63643
     2012.81861        -4.43748         4.73112
     2012.82135         0.80309         4.66117
     2012.82409         0.12666         4.74733
     2012.82683         6.34324         4.73709
     2012.82956        -0.19419         4.63814
     2012.83230         2.76338         4.65178
     2012.83504        -3.75104         4.68335
     2012.83778        -0.57247         4.70382
     2012.84052         1.69310         4.78998
     2012.84257         4.24653         6.64711
     2012.85968        -0.74089         4.66970
     2012.86242        -1.23231         4.64325
     2012.86516         0.28726         4.64923
     2012.86789        -6.16817         4.79339
     2012.87063        -1.52459         4.65605
     2012.87337        -4.73602         4.66543
     2012.87611         2.70055         4.63131
     2012.87885         4.41513         4.62363
     2012.88158         0.25870         4.55454
     2012.88432         3.06027         4.65434
     2012.88706         0.72385         4.80619
     2012.88980         3.94442         4.74477
     2012.89253        -1.43901         4.58610
     2012.89527        -8.35143         4.60743
     2012.89801         2.71614         4.62705
     2012.90075        -0.51629         4.65008
     2012.90349        -4.21572         5.89727
     2012.90622        -1.74914         4.60913
     2012.90896         2.90743         4.66970
     2012.91170        -0.01400         4.61852
     2012.91444         3.93558         4.62619
     2012.91718         7.80715         4.62193
     2012.91991         5.50472         4.62022
     2012.92231         1.60672         5.53215
     2012.92813        -1.15656         4.58780
     2012.93086         4.61502         4.66629
     2012.93360         1.85659         4.63472
     2012.93634        -0.54384         4.54430
     2012.93908        -5.84027         4.60913
     2012.94156        -3.63812         5.22419
     2012.94455        12.48388         4.56904
     2012.94729         9.73345         4.65093
     2012.95003         5.47103         4.64155
     2012.95277         8.08160         4.52809
     2012.95551         7.12817         4.54942
     2012.95824         5.33875         4.57927
     2012.96098         6.35732         4.69273
     2012.96372         5.24489         4.65349
     2012.96646         3.79347         4.62790
     2012.96919         6.61604         4.61852
     2012.97193        -2.33139         4.67994
     2012.97467         7.88318         4.56307
     2012.97741         4.77776         4.52041
     2012.98015        -0.29167         4.54942
     2012.98288        -3.23910         4.57160
     2012.98562        -7.91152         4.56904
     2012.98836        -7.62995         4.70212
     2012.99110       -13.52038         4.54430
     2012.99384        -9.96880         4.54430
     2012.99657        -8.86123         4.58354
     2012.99931       -10.52766         4.60913
     2013.00205        -9.21108         4.58951
     2013.00479        -9.61551         4.59122
     2013.00752        -5.20394         4.62619
     2013.01026       -11.95037         4.76354
     2013.01300        -0.64779         4.65776
     2013.01574         3.16278         4.64923
     2013.01848         0.30735         4.67311
     2013.02121         1.95693         4.62449
     2013.02395         1.77350         4.68505
     2013.02669         2.91307         4.76610
     2013.02943        -1.17035         4.63984
     2013.03216        -2.82778         4.65776
     2013.03490        -6.69021         4.62961
     2013.03764        -5.30763         4.73197
     2013.04038       -11.47406         4.62619
     2013.04312       -12.08049         4.71918
     2013.04585        -9.86692         4.86079
     2013.04859       -11.04334         4.78145
     2013.05133        -3.22977         4.65605
     2013.05407        -5.73220         4.59889
     2013.05681        -5.31462         4.64837
     2013.05954        -7.91705         4.69700
     2013.06228        -5.21448         4.79169
     2013.06502        -5.22590         4.77975
     2013.06776        -5.12933         4.88382
     2013.07049        -2.50576         4.72088
     2013.07323         0.88282         4.63558
     2013.07597        -2.29161         4.64496
     2013.07871        -0.67604         4.66458
     2013.08145         0.93854         4.66373
     2013.08418        -3.45489         4.65861
     2013.08692       -13.49532         4.65093
     2013.08966       -11.53275         4.65178
     2013.09240        -7.51317         4.68847
     2013.09514         1.00240         4.68250
     2013.09787         3.87497         4.85226
     2013.10061        -3.60345         4.93500
     2013.10335        -3.99588         4.66458
     2013.10609        -3.80231         4.64155
     2013.10882        -5.79473         4.64411
     2013.11156       -12.16916         4.70638
     2013.11430        -3.22459         4.65434
     2013.11704       -10.97701         4.71832
     2013.11978        -5.97944         4.88297
     2013.12251       -10.82287         4.74221
     2013.12525       -17.44430         5.01519
     2013.12799        -8.27672         4.63216
     2013.13073        -5.11615         4.71832
     2013.13347        -3.52858         4.68761
     2013.13620         1.60400         4.71918
     2013.13894         0.75157         4.63728
     2013.14168        -1.90086         4.65605
     2013.14442         3.09572         4.80534
     2013.14715        -2.11671         4.85737
     2013.14989        -7.81314         4.61937
     2013.15263        -9.42656         4.67141
     2013.15537       -15.04099         4.56648
     2013.15811        -8.00742         4.59719
     2013.16084       -11.89785         4.59719
     2013.16358       -11.51627         4.82837
     2013.16632        -9.64070         4.64837
     2013.16906        -1.14813         4.60487
     2013.17180        -5.00955         4.61084
     2013.17453        -2.53598         4.58610
     2013.17727        -4.71441         4.70126
     2013.18001        -6.83983         4.68761
     2013.18275        -3.61226         4.62961
     2013.18548        -4.52069         4.55965
