# ================= DQRFIT RESULTS ================
# INPUT FILE: series/COUG.rad
# OUTPUT: LDETRENDED
# FILTER FUNCTION: f(t)
# f(t)=+line(t)+annual(t)+jumps(t)
# line(t)=+P 1+P 2*t
# annual(t)=+P 3*sin(2*pi*t+P 4)
# jumps(t)=+P 5*heav(t-2011.0000  )+P 6*heav(t-2011.3176  )+P 7*heav(t-2011.4500  )
# heav(t)=(t<0?0:1)
# TOTAL OBSERVATIONS MTOT= 3475
# INITIAL TIME INTERVAL= 2022.4719 - 2007.8629 = 14.6090
# TOTAL OBSERVATIONS AFTER PREFILTER M= 3447
# TIME-SPAN= 2022.4719 - 2007.8629 = 14.6090
# OBSERVATIONS: USED M=  3447 REJECTED MTOT-M=    28 %USED=   99.1942
# N=  7 PARAMETERS
# MAXSIG= 175.00000
# MAXRES=  43.28163
# SCALE FACTOR FOR LENGTHS: SCL=  10.00000
# SCALE FACTOR FOR SIGMAS: SCLSIG=   1.00000
# CHI^2=   7554.987 DOF=  3440 CHI^2/DOF=   2.19622
# RMS=     11.022 SDEV=     10.954 MEAN=    1.24159
#  P #       PARAMETER +-    SIGMA %error PARAMETER NAME
# P 1 =     14047.19372 +-  110.657   0.79 YZERO                              
# P 2 =        -7.00515 +-    0.055   0.79 SLOPE                              
# P 3 =         6.99353 +-    0.251   3.59 ANNUAL AMPLITUDE                   
# P 4 =        -2.73855 +-    0.047   1.71 ANNUAL PHASE                       
# P 5 =        15.73679 +-    1.477   9.38 OFFSET 2011.0000                   
# P 6 =        13.51349 +-    7.499  55.49 OFFSET 2011.3176                   
# P 7 =        33.90817 +-    7.371  21.74 OFFSET 2011.4500                   
#       T            LDETRENDED       SIG_OBS
     2007.86287        -7.66855         9.90397
     2007.86590        -1.21134         8.78656
     2007.86864        -6.16016         8.68134
     2007.87138        -8.71398         8.98811
     2007.87412        -5.63680         8.80287
     2007.87685        -3.56862         8.74655
     2007.87959       -10.49444         8.74062
     2007.88215       -11.35849         9.34378
     2007.88478        -8.94911        10.08476
     2007.88740       -15.30173        10.32781
     2007.88991        -8.06215        12.08986
     2007.89328        -7.20555         9.10370
     2007.89642        -9.98957        11.50597
     2007.89876       -13.76919         9.24894
     2007.90149       -17.57101         9.04591
     2007.90423       -17.33783         9.62239
     2007.90697       -11.22565         9.18521
     2007.90942       -29.43550        10.86724
     2007.91332       -13.67517        16.02744
     2007.91518        -9.32311         9.00886
     2007.91792       -19.74693         9.32896
     2007.92066       -12.86475         9.43863
     2007.92340       -21.16058         9.52903
     2007.92614        -9.37040         8.79546
     2007.92887       -13.01222         8.78656
     2007.93161       -14.94304         9.28599
     2007.93435       -16.62786         8.89771
     2007.93709       -24.43468         8.95699
     2007.93982       -20.04450         8.87993
     2007.94256       -10.12332         8.85770
     2007.94530        -9.98914         9.39417
     2007.94804       -19.21996         8.95106
     2007.95078        -9.73279         8.72877
     2007.95345       -16.31804         9.06221
     2007.95619       -13.03786         9.02220
     2007.95893        -6.95468         8.74359
     2007.96167        -4.73250         8.75248
     2007.96440       -14.17032         8.88734
     2007.96714       -10.62714         8.84288
     2007.96988       -21.66796         9.15409
     2007.97262       -25.41779         8.89475
     2007.97535       -20.29661         8.83547
     2007.97809       -12.44343         8.63540
     2007.98083       -18.45325         8.66653
     2007.98357       -16.04107         8.56723
     2007.98631       -19.92089         8.86659
     2007.98904       -26.81971         8.93328
     2007.99178       -14.85553         8.80435
     2007.99452       -22.75335         8.82658
     2007.99726       -16.04017         8.62948
     2008.00045       -27.31580        10.66866
     2008.00273       -25.73582         8.69913
     2008.00547       -12.46464         8.42052
     2008.00787        -8.97386        13.33768
     2008.01095        -5.19528         8.49165
     2008.01368       -18.95510         8.59687
     2008.01642       -16.16292         8.42052
     2008.01916       -28.91674         9.02812
     2008.02190       -16.52056         8.55538
     2008.02464       -17.80438         8.46201
     2008.02737       -18.99920         8.36124
     2008.03011       -12.42703         8.87845
     2008.03285       -24.53685         8.60576
     2008.03559       -24.71467         8.60428
     2008.03833       -19.29949         8.50351
     2008.04106       -17.92131         8.60428
     2008.04380       -12.08013         8.56427
     2008.04654       -15.05195         8.57613
     2008.04928       -23.36077         8.52870
     2008.05201       -27.73359         8.45460
     2008.05475       -15.63141         8.41904
     2008.05749       -22.17824         8.50796
     2008.06023       -16.81206         8.49758
     2008.06297        -9.93488         8.40422
     2008.09360       -22.71031        10.50712
     2008.09584       -23.30660         8.98515
     2008.09856       -18.73755         8.65763
     2008.10130       -27.46837         9.89804
     2008.10403       -18.99219         8.40570
     2008.10677       -15.87201         8.48573
     2008.10951       -19.99783         8.62799
     2008.11225       -18.48465         8.63985
     2008.12634       -14.33996        15.89110
     2008.12873       -13.45618        11.46299
     2008.13141       -12.71140         8.65912
     2008.13415        -5.40122         8.54797
     2008.13689       -11.37904         8.49462
     2008.13963        -4.49286         8.43386
     2008.14236        -9.90268         8.44423
     2008.14510        -7.82751         8.50647
     2008.14784        -9.74333         8.46498
     2008.15058       -14.23215         8.37013
     2008.15331       -19.38297         8.47980
     2008.15605       -10.39079        13.74522
     2008.15879       -14.07861         8.42348
     2008.16153        -7.23443         8.55686
     2008.16427       -12.73625         8.35531
     2008.16700       -21.44207         8.36124
     2008.16974       -23.20689         8.38792
     2008.17248       -19.31972         8.39384
     2008.17522       -19.96054         8.53611
     2008.17796       -15.46436         8.36420
     2008.18069       -14.75318         8.65467
     2008.18343       -13.98000         8.41904
     2008.18611       -17.37122         8.63392
     2008.18891       -11.98864         8.41311
     2008.19164       -19.61346         8.35828
     2008.19438       -19.75128         8.46942
     2008.19712        -7.59710        10.44785
     2008.19986       -14.01192         8.45312
     2008.20185       -17.70794        13.22060
     2008.20448        -8.02656        14.38839
     2008.20807        -7.92339         8.77471
     2008.21081       -19.02821         8.90957
     2008.21355       -14.47303         9.30377
     2008.21629       -11.70085         8.54500
     2008.21902       -17.65567         8.74211
     2008.22176       -22.92049         8.58354
     2008.22450       -16.13831         8.58205
     2008.22724       -16.94013         9.00738
     2008.22997       -12.04996         8.71543
     2008.23271       -12.05378         8.67542
     2008.23544       -17.59970        11.88832
     2008.23819       -21.34842         8.81917
     2008.24093       -18.70324         8.68134
     2008.24366       -21.68606         8.63392
     2008.24640       -21.03088         8.76582
     2008.24914       -15.99870         8.80435
     2008.25188       -12.62952         8.87845
     2008.25462       -10.94834         8.58798
     2008.25735        -8.40316         8.65319
     2008.26009        -9.48599         8.51685
     2008.26283       -12.23181         8.58502
     2008.26557       -13.02163         8.60428
     2008.26830       -15.31445         8.31382
     2008.27104        -9.66927         8.58650
     2008.27378       -11.59709         8.37458
     2008.27652       -14.86791         8.56131
     2008.27926        -4.89673         8.66949
     2008.28199        -3.27255         8.73766
     2008.28473        -7.10037         8.46646
     2008.28747        -6.27920         8.48721
     2008.29021       -10.83902         8.63096
     2008.29295        -7.32184         8.68431
     2008.29568        -3.64266         8.65467
     2008.29842       -10.31548         8.36865
     2008.30116       -16.13130         8.33160
     2008.30390       -16.87012         8.57316
     2008.30663        -9.10794         8.90512
     2008.30937       -12.02276         8.75396
     2008.31211       -14.63158         9.00441
     2008.31485       -12.47341         8.49165
     2008.31759       -16.00423         8.56723
     2008.32032        -8.01605         8.75693
     2008.32306        -8.12987         8.60873
     2008.32580        -6.90969         8.73321
     2008.32854        -8.90751         8.48869
     2008.33128       -15.80233         8.59835
     2008.33401        -8.04815         8.55241
     2008.33675       -12.00097         8.54797
     2008.33949        -6.92379         8.94662
     2008.34217        -8.93601         8.72284
     2008.34496        -9.94444         8.83547
     2008.34770        -4.46326         8.17451
     2008.35044       -10.26008         8.26195
     2008.35318       -10.58790         8.37754
     2008.35592        -3.56072         8.36124
     2008.35865        -0.28954         8.21897
     2008.36139       -14.21936         8.84732
     2008.36407        -8.02658         8.45905
     2008.36670       -19.72220         8.88289
     2008.36961       -15.42882         8.31234
     2008.37234       -12.40865         8.24268
     2008.37508       -10.38247        12.47517
     2008.37782       -10.80129         8.43238
     2008.37947       -17.46070        18.08589
     2008.38329        -7.17593         8.58798
     2008.38592        -1.32755         8.91846
     2008.38854        -8.37217         9.08148
     2008.39151        -5.41739         8.51388
     2008.39425        -6.02621         8.31678
     2008.39698        -5.52603         8.27232
     2008.39972        -2.10985         8.22045
     2008.40246        -6.63068         9.45345
     2008.40520        -5.12750         8.43830
     2008.40782        -9.34112         8.69765
     2008.41044        -6.35374         9.02516
     2008.41341        -9.18096         8.34642
     2008.41615        -6.72778         8.21008
     2008.41889        -4.18560         8.27232
     2008.42162        -6.26742         8.45164
     2008.42425         0.81796         9.67426
     2008.42710        -2.29506         8.37754
     2008.42967        -6.47408         9.23856
     2008.43229        -5.40870         9.74984
     2008.43531        -7.62453         8.35087
     2008.43805         0.37165         8.43238
     2008.44079       -10.76617         8.35235
     2008.44353       -10.66099         8.44423
     2008.44626        -5.22681         8.51092
     2008.44900       -14.47263         8.41904
     2008.45174       -14.04145         8.48276
     2008.45419        -9.65427         9.55719
     2008.45722        -6.75409         8.25009
     2008.45995       -10.69692         8.29603
     2008.46269       -14.87274         8.47239
     2008.46543       -13.25756         8.24713
     2008.46813       -10.94361         8.89475
     2008.47342       -12.25062         9.42825
     2008.47604        -5.12424         9.89952
     2008.47912       -11.65166         8.33012
     2008.48186        -2.79348         8.46053
     2008.48459        -4.39830         8.51240
     2008.48733        -5.21713         8.38643
     2008.49007        -6.16095         8.30048
     2008.49281        -5.40877         8.42645
     2008.49555         1.09041         8.80287
     2008.49794        -3.57881        10.25519
     2008.50102        -0.58023         8.47832
     2008.50376         3.80795         8.67394
     2008.50650        -9.27587         8.86214
     2008.50924        -1.53669         8.42497
     2008.51197        -2.39151         8.35087
     2008.51471        -5.81533         8.18785
     2008.51716         8.67085         9.67278
     2008.51979        10.35423        11.00506
     2008.52292        -0.22080         8.61910
     2008.52566        -9.61462         8.61910
     2008.52840        -2.49044         8.39681
     2008.53114         0.63374         8.35828
     2008.53388        -0.69208         8.38199
     2008.53661        -0.77090         8.43238
     2008.53901         2.99288        10.36486
     2008.54209        -3.55054         8.36717
     2008.54483         2.46463         8.51833
     2008.54757         3.25181         8.35235
     2008.55030        -4.35901         8.37902
     2008.55304         1.14617         8.45164
     2008.55578         5.67535         8.63985
     2008.55852         0.96053         8.37013
     2008.56091        -1.33169         9.80467
     2008.56354         1.38769        10.60642
     2008.56673        10.45107         8.42497
     2008.56947         7.11125         8.25158
     2008.57221         1.94943         8.50351
     2008.57494         1.91560         8.67986
     2008.57768         0.26578         9.62536
     2008.58042        12.44396         8.43238
     2008.58276        20.59634        10.84205
     2008.58590         6.21832         8.29159
     2008.58863        -3.49550         8.54204
     2008.59137         1.40368         9.84617
     2008.59411         1.85886         8.29307
     2008.59685         2.81104         8.52574
     2008.59958         8.01122         8.92142
     2008.60232         9.80839         8.81028
     2008.60466        16.60078        10.72646
     2008.60728         7.75116        11.68677
     2008.61054        -3.82007         8.45460
     2008.61327         7.93211         8.64281
     2008.61601         7.52329         8.44719
     2008.61875         7.31147         8.55538
     2008.62155         4.06208         8.66060
     2008.62423        13.35383         8.61169
     2008.62654        14.23501        11.75494
     2008.62970        12.13619         8.97922
     2008.63244         4.71236         8.55093
     2008.63518        14.61354         8.57168
     2008.63791        14.13472         8.75544
     2008.64065         9.80490         8.57020
     2008.64339         7.48408         8.50796
     2008.64616        14.71746         8.67838
     2008.64841         5.97924        11.31924
     2008.65103        14.50962        11.46447
     2008.65434         1.98280         8.70950
     2008.65708        -0.33002         9.02071
     2008.65982         2.66515         8.61614
     2008.66256        18.43733         8.86955
     2008.66532        -2.82529         8.68579
     2008.66803         2.76269         8.60725
     2008.67026        -3.01673        11.10436
     2008.67288        -0.84335        11.87498
     2008.67624        -3.65277         9.45938
     2008.67898         2.31841         8.90512
     2008.68172         1.08559         8.54797
     2008.68449         6.24697         8.52426
     2008.68720         3.13895         8.48276
     2008.68993         5.41912         8.49165
     2008.69267         2.11730         8.71543
     2008.69478        12.47609        11.76828
     2008.69815         4.08066         8.66060
     2008.70089        12.48084         8.67986
     2008.70365        11.50422         8.41311
     2008.70636        11.15420         8.44423
     2008.70910         5.00038         8.74952
     2008.71184         6.75756         8.73618
     2008.71400         9.36574        11.26589
     2008.71663         9.64612        11.89276
     2008.72005        10.01109         8.57316
     2008.72282         4.61947         8.44868
     2008.72541         8.99665         8.77915
     2008.72826         1.56563         8.51685
     2008.73100        13.48281         8.59984
     2008.73374         9.82799         8.63985
     2008.73648         1.81117         8.86807
     2008.73853         4.03455        12.06319
     2008.74469         9.17271         8.50203
     2008.74743         9.86088         8.45460
     2008.75017         8.81106         8.76137
     2008.75290        16.99924         8.58798
     2008.75564        12.06542         8.92735
     2008.75775        18.04521        11.69270
     2008.76040        16.87678        12.81158
     2008.76386         7.63996         8.54352
     2008.76659        12.63914         9.06962
     2008.76933         2.26432         8.68431
     2008.77207         2.56050         8.36569
     2008.77481         0.81167         8.39533
     2008.77754         0.96485         8.27380
     2008.77963        15.14044        12.46332
     2008.78302         5.95321         8.43978
     2008.78576        -0.22261         8.37161
     2008.78850        -2.96943         8.57168
     2008.79123         1.02075         8.90364
     2008.79397         0.53893         9.21189
     2008.79671         1.21011         8.63837
     2008.79948        -1.00851         8.56872
     2008.80150        12.32567        11.97723
     2008.80412        20.41205        13.80449
     2008.80766         2.34182         8.38792
     2008.81040        11.61000         8.75693
     2008.81314         3.42818         9.08296
     2008.81587         2.60636         8.50203
     2008.81864         4.05974         8.40866
     2008.82135         4.57572         8.35976
     2008.82335        14.45570        12.62782
     2008.82683        -2.40892         8.46942
     2008.82956         7.03426         8.75841
     2008.83230        -1.13657         8.56131
     2008.83475         4.82462         9.39417
     2008.83781        -1.41097         9.28895
     2008.84058         0.61840         8.77619
     2008.84325         7.86315         8.42497
     2008.84525        15.48414        12.74934
     2008.84787         7.39252        13.93046
     2008.85147        -7.54031         8.60280
     2008.85420        -8.43713         8.77471
     2008.85697         0.73125         8.72729
     2008.85968         2.55322         8.54797
     2008.86242         1.49640         8.59391
     2008.86516         1.06358         8.71395
     2008.86710        14.33417        14.08162
     2008.87063         0.18194         8.86066
     2008.87337        -3.22888         8.77619
     2008.87609        -0.06883         8.95551
     2008.87914        -8.61542         9.92027
     2008.88158        -3.71434         8.63540
     2008.88432        -3.61316         8.64281
     2008.88706        -3.08598         8.76433
     2008.88900        -4.16940        16.15785
     2008.89168        10.23138        16.91365
     2008.89530        -1.28325         8.63244
     2008.89801         0.18473         8.64281
     2008.90075        -4.61409         8.48424
     2008.90326        -6.52951         9.58090
     2008.90724        -1.51061        18.13035
     2008.90896        -3.12155         8.57020
     2008.91084         7.47663        15.00340
     2008.91350         5.14321        16.60541
     2008.91718        -1.36502         8.94958
     2008.91991         3.49916         8.71395
     2008.92265         5.17034         8.69024
     2008.92539         4.24952         8.87400
     2008.92813         7.53870         8.90364
     2008.93086        -6.88012         8.68727
     2008.93278         6.74527        15.54284
     2008.93537         9.55445        17.22190
     2008.93908       -10.34458         8.81472
     2008.94182       -13.23040         8.88882
     2008.94455       -12.84522         8.96440
     2008.94729        -3.63205         8.84436
     2008.95003        -8.04487         9.01330
     2008.95280        -3.36149         8.63392
     2008.95459        10.19110        15.02415
     2008.95722         7.90848        17.18930
