# ================= DQRFIT RESULTS ================
# INPUT FILE: series/CPCO.rad
# OUTPUT: LDETRENDED
# FILTER FUNCTION: f(t)
# f(t)=+line(t)+annual(t)
# line(t)=+P 1+P 2*t
# annual(t)=+P 3*sin(2*pi*t+P 4)
# heav(t)=(t<0?0:1)
# TOTAL OBSERVATIONS MTOT= 2591
# INITIAL TIME INTERVAL= 2022.7488 - 2011.6304 = 11.1184
# TOTAL OBSERVATIONS AFTER PREFILTER M= 2552
# TIME-SPAN= 2022.7488 - 2011.6304 = 11.1184
# OBSERVATIONS: USED M=  2552 REJECTED MTOT-M=    39 %USED=   98.4948
# N=  4 PARAMETERS
# MAXSIG= 175.00000
# MAXRES= 136.08929
# SCALE FACTOR FOR LENGTHS: SCL=  10.00000
# SCALE FACTOR FOR SIGMAS: SCLSIG=   1.00000
# CHI^2=   6901.986 DOF=  2548 CHI^2/DOF=   2.70879
# RMS=     16.383 SDEV=     16.378 MEAN=   -0.53731
#  P #       PARAMETER +-    SIGMA %error PARAMETER NAME
# P 1 =      4619.19216 +-  151.957   3.29 YZERO                              
# P 2 =        -2.29234 +-    0.075   3.29 SLOPE                              
# P 3 =         8.06609 +-    0.362   4.49 ANNUAL AMPLITUDE                   
# P 4 =        -2.94872 +-    0.062   2.11 ANNUAL PHASE                       
#       T            LDETRENDED       SIG_OBS
     2011.63039        14.62394        12.21706
     2011.63312        24.13722        12.25656
     2011.63586        12.79950        12.32569
     2011.63860         7.00477        13.05150
     2011.64134        24.11605        13.89746
     2011.64407         8.28932        12.54129
     2011.64681        62.39460        21.49301
     2011.64955        14.99688        13.05809
     2011.65229        11.41115        13.34611
     2011.65503        10.94743        12.57421
     2011.65776        20.36871        12.68448
     2011.66050         6.62998        12.90502
     2011.66324        29.09726        12.68942
     2011.66598         3.06753        12.90338
     2011.66872         7.66781        13.37244
     2011.67145        -1.12291        12.65486
     2011.67419        18.41136        12.30758
     2011.67693         3.37064        12.60383
     2011.67967        17.82991        12.77500
     2011.68240        26.60719        12.50179
     2011.68514         5.98147        12.35860
     2011.68788         9.57674        12.33227
     2011.69060         2.74399        12.33227
     2011.69336         5.21929        12.73550
     2011.69609         2.97457        12.38165
     2011.69883        12.82485        12.08046
     2011.70157        -3.33388        12.77171
     2011.70431        -5.29560        12.41127
     2011.70705        19.46067        12.58408
     2011.70978        -8.87205        12.80792
     2011.71252         6.48523        12.69600
     2011.71526        -9.88350        12.69106
     2011.71800        16.90278        12.45077
     2011.72073        16.29306        12.37671
     2011.72347         2.75033        12.44583
     2011.72621        10.68361        12.55446
     2011.72846         2.35777        14.95903
     2011.73169        19.66316        13.30496
     2011.73442        -1.22056        13.33952
     2011.73716       -19.94029        13.00377
     2011.73990         5.24199        12.47052
     2011.74264        13.57126        12.45242
     2011.74538        12.72254        12.98896
     2011.74811        15.38482        13.10088
     2011.75085        12.85709        12.55117
     2011.75359         5.74037        12.83261
     2011.75633        19.47564        12.86223
     2011.75906        22.86592        12.73056
     2011.76180        -1.44380        11.90271
     2011.76454         5.76947        13.04492
     2011.76728         9.19175        13.10417
     2011.77002         0.50703        13.03998
     2011.77275        35.38530        14.13446
     2011.77549        36.51358        15.49557
     2011.77823         8.78785        13.45638
     2011.78097         8.64913        12.31581
     2011.78371        -1.54059        12.53471
     2011.78644        22.99568        12.66802
     2011.78918        30.06196        13.63084
     2011.79192        10.67123        13.02681
     2011.79466         6.65451        12.76348
     2011.79739        14.41379        12.36025
     2011.80013        26.53906        13.04492
     2011.80287        17.88434        12.46723
     2011.80561        10.00061        12.22035
     2011.80835         4.69789        12.56104
     2011.81108         8.82117        12.92148
     2011.81382         9.96944        11.38756
     2011.81656         0.82972        11.24437
     2011.81930        13.55499        12.37177
     2011.82203         4.34827        12.14300
     2011.82477        18.21155        13.09265
     2011.82751        13.23682        12.87375
     2011.83025        13.96510        13.36586
     2011.83299        -0.63962        10.99256
     2011.83572        -4.05035        12.18579
     2011.83846        14.86393        11.51429
     2011.84120         6.34120        10.58110
     2011.84394         5.95148        10.42968
     2011.84668         5.08876        11.06168
     2011.84941        -8.09497        10.79177
     2011.85215        -8.47069        11.06827
     2011.85489         7.87758        11.97019
     2011.85763         8.03586        12.20225
     2011.86036        20.07414        11.84510
     2011.86310        10.14041        11.27235
     2011.86584         7.93769        11.40566
     2011.86858        14.01296        10.90697
     2011.87132        39.39824        11.59658
     2011.87405        17.25552        11.72331
     2011.87679         4.87579        13.19304
     2011.87953        39.84807        12.10185
     2011.88227        37.56634        12.37506
     2011.88501        28.58862        12.71575
     2011.88774        19.29790        12.16604
     2011.89048        32.40017        13.80200
     2011.89322        10.67645        12.77336
     2011.89596         6.14673        11.33489
     2011.89869        24.18300        11.33160
     2011.90143         6.33728        11.66241
     2011.90417         6.75855        12.16933
     2011.90691        23.39983        12.56269
     2011.90965         0.12511        12.35860
     2011.91238        10.22838        11.21475
     2011.91512        14.95466        11.02383
     2011.91786        28.05493        12.10844
     2011.92060        -1.09579        10.84937
     2011.92334        -4.26051        11.98171
     2011.92607        -0.29124        11.05839
     2011.92881        10.92504        12.60877
     2011.93155        20.41431        12.13971
     2011.93429        19.94259        11.79079
     2011.93702         6.87087        12.20060
     2011.93976        17.16214        11.91258
     2011.94250        16.29642        11.38427
     2011.94524        10.06969        10.89216
     2011.94798        15.90397        10.90039
     2011.95071        14.14625        10.80658
     2011.95345        -5.16448        10.85431
     2011.95619        -0.70920        11.17195
     2011.95893         3.92508        12.07881
     2011.96167        12.08035        11.91258
     2011.96440        -4.09537        11.15056
     2011.96714        22.84790        11.77269
     2011.96988         8.25718        10.66010
     2011.97262        11.46946        10.99914
     2011.97535        16.87773        11.57025
     2011.97809         0.99101        12.20390
     2011.98083        14.58428        11.77104
     2011.98357         7.69356        10.64035
     2011.98631         9.78484        11.26248
     2011.98904        29.64011        15.45114
     2011.99178        38.12139        13.46955
     2011.99452        37.37466        14.76317
     2011.99726        16.01994        11.34148
     2012.00273         7.54649        12.50508
     2012.00547        11.75577        11.49618
     2012.00821        19.43004        11.84016
     2012.01095        34.27732        11.46656
     2012.01368         6.91860        10.99914
     2012.01642        19.12887        10.76872
     2012.01916        22.83715        11.65419
     2012.02190        25.79343        11.90929
     2012.02464        19.24670        11.23285
     2012.02737        19.09298        11.14233
     2012.03011        21.17925        11.45175
     2012.03285        33.43353        12.02779
     2012.03559        30.23981        11.86156
     2012.03833        13.49008        10.40170
     2012.04106        23.49336        10.40664
     2012.04380        15.66763        10.65187
     2012.04654        30.92891        10.90862
     2012.04928        35.83419        12.14465
     2012.05201        17.43746        12.22858
     2012.05475        33.03674        12.30429
     2012.05749        41.84601        11.96196
     2012.06023        38.83029        11.96525
     2012.06297        19.91057        11.33489
     2012.15991         5.79479        28.02699
     2012.16153        -5.66549        10.73745
     2012.16427         5.06278        10.71935
     2012.16700         4.39706        10.88393
     2012.16974         4.17633        11.74306
     2012.17248        13.36461        11.91094
     2012.17454        15.18933        17.17927
     2012.45171        34.57970        14.58378
     2012.45448        39.57805        15.42480
     2012.45722        24.09832        15.58445
     2012.45995        32.78560        17.34385
     2012.46269        21.16788        16.03047
     2012.46543        24.88615        13.56007
     2012.46817        37.73043        14.18219
     2012.47091        27.09470        14.40274
     2012.47364        35.04098        14.54428
     2012.47538         2.08197        36.27923
     2012.47912         6.03953        14.25296
     2012.48186        22.33481        13.53209
     2012.48445        10.37976        15.24211
     2012.48661        29.47169        20.34915
     2012.49007        31.95264        13.80365
     2012.49281        23.94791        14.34184
     2012.49555         9.77219        13.97811
     2012.49828        52.15046        14.05876
     2012.50102        29.90874        13.87278
     2012.50376        23.22302        14.98207
     2012.50650        22.84429        13.47448
     2012.50924        31.76757        14.23157
     2012.51197        31.77485        14.19701
     2012.51471        39.59312        14.03736
     2012.51709        32.85057        16.53903
     2012.52019        41.38467        14.31715
     2012.52292        44.63895        15.22072
     2012.52566        26.78723        14.09003
     2012.52840        45.60050        14.61834
     2012.53114        37.19078        13.67363
     2012.53388        24.73405        14.39122
     2012.53637        22.40977        15.73587
     2012.53897        33.19372        16.80731
     2012.54209        29.91288        14.67595
     2012.54483        37.33016        14.64138
     2012.54694        30.65700        20.44626
     2012.55030        28.19671        15.00676
     2012.55304        17.82499        14.71051
     2012.55578        26.83126        15.48405
     2012.55852        30.70454        15.06765
     2012.56125        25.32381        14.34842
     2012.56399        43.76609        14.59530
     2012.56673        26.35137        14.79445
     2012.56947        28.73264        15.06107
     2012.57221        33.14192        14.56567
     2012.57494        24.04620        14.65126
     2012.57686        -2.90840        22.80145
     2012.58042        31.06575        14.56238
     2012.58316        28.34902        14.87180
     2012.58590        13.25930        16.16378
     2012.58852        21.30433        15.15653
     2012.59041        97.87564        26.49965
     2012.59411        42.77413        14.97384
     2012.59641        -0.99759        19.63980
     2012.59958        48.81268        14.55415
     2012.60230        27.78290        14.99688
     2012.60506        27.45223        14.66442
     2012.60780        29.24251        15.21578
     2012.61054        23.28178        15.54330
     2012.61601        40.67434        14.48009
     2012.61875        37.20261        15.16970
     2012.62149        19.03189        14.39451
     2012.62423        27.41616        14.35665
     2012.62696        10.81544        14.76647
     2012.62970        25.23272        15.51039
     2012.63244        24.06599        15.05778
     2012.63518        29.87127        15.43797
     2012.63791        21.51655        13.99292
     2012.64065         2.54582        14.43730
     2012.64339        21.43710        14.16903
     2012.64613        32.21037        14.09826
     2012.64887        24.94265        14.87180
     2012.65160        33.36693        14.75330
     2012.65434        -3.77080        16.30039
     2012.65708         2.16348        15.00676
     2012.65982        18.11575        15.02157
     2012.66256        32.15203        14.46199
     2012.66529        35.97231        14.61670
     2012.66803        31.46358        13.79871
     2012.67077        -1.01814        13.59792
     2012.67351        19.62613        14.24638
     2012.67624        21.23441        14.20524
     2012.67898        52.63569        15.12526
     2012.68060        27.81839        38.79242
     2012.68446        29.63224        14.92611
     2012.68720         8.88951        13.92873
     2012.68993        16.70279        14.15915
     2012.69267        26.92107        14.27765
     2012.69541        41.24534        14.46692
     2012.69815        16.10762        15.47911
     2012.70089       -12.15410        15.06765
     2012.70362         5.83017        14.29411
     2012.70636        16.21745        14.85040
     2012.70910        19.98172        14.61011
     2012.71184        35.72400        13.72794
     2012.71457         5.15428        13.91063
     2012.71731         4.70755        14.26284
     2012.72005        16.50083        13.52221
     2012.72279        13.02010        13.94519
     2012.72553        38.04538        14.00280
     2012.72826        34.39766        13.64894
     2012.73100        16.02193        14.12788
     2012.73374        10.58421        14.07028
     2012.74022        29.97206        31.75811
     2012.74195         7.44704        14.63480
     2012.74469         5.74131        14.47515
     2012.74743        13.74059        14.26613
     2012.75017        19.08387        13.54525
     2012.75290         0.81014        14.48832
     2012.75564         1.42942        14.22334
     2012.75838         3.60769        15.38036
     2012.76112        18.34097        13.68515
     2012.76386         3.44225        14.90801
     2012.76659        -1.74748        15.48076
     2012.76933        14.71980        13.59298
     2012.77207         0.20207        14.56567
     2012.77481         8.35335        13.94355
     2012.77754        16.69263        14.26119
     2012.78028        24.02690        13.39219
     2012.78302        24.75718        14.79609
     2012.78576         3.03145        14.11471
     2012.78850        25.77873        16.59499
     2012.79123        29.19501        17.92648
     2012.79397        17.79728        12.61206
     2012.79671         8.06756        13.47119
     2012.80219        23.19611        15.81157
     2012.80492        -4.75761        11.29210
     2012.80766        -2.47034        12.13477
     2012.81040        -0.66006        11.70685
     2012.81314        -5.78178        11.89448
     2012.81587       -14.44251        12.01133
     2012.81861       -14.45223        14.32538
     2012.82135        -4.21796        14.98701
     2012.82409       -10.25368        18.95348
     2012.82683         3.47460        19.08186
     2012.82956         8.79787        15.31782
     2012.83230         1.08415        16.06010
     2012.83504         8.61742        17.03608
     2012.83778         9.84870        14.34513
     2012.84052        25.06598        13.77238
     2012.84325         5.44725        15.55318
     2012.84599         8.93953        13.60780
     2012.84873        14.51680        14.17232
     2012.85147        14.87208        15.12855
     2012.85420        -6.12764        11.85169
     2012.86242       -44.76682        13.31154
     2012.86516       -22.80854        13.33459
     2012.86789         4.12274        15.04626
     2012.87063         3.98201        13.60121
     2012.87337         5.68929        13.69667
     2012.87611         9.65057        13.89746
     2012.87885        10.76384        17.52654
     2012.88158        -5.55088        11.80066
     2012.88432        -6.51161        15.56964
     2012.88706       -24.82133        24.33373
     2012.88980       -27.95805        15.39682
     2012.89253         6.03722        13.35763
     2012.89527         6.36050        14.14105
     2012.89801        -7.95123        15.78853
     2012.90075         3.21605        13.83328
     2012.90349         4.24033        13.02023
     2012.90622         6.45660        13.24077
     2012.90896         3.73488        16.45181
     2012.91170       -10.71885        15.55318
     2012.91444       -22.14257        17.18750
     2012.91718        -5.39129        16.06997
     2012.91991        -6.75702        17.97256
     2012.92265         3.96226        14.71709
     2012.93086        -4.31991        13.78719
     2012.93360        -4.24864        14.00115
     2012.93634        13.67564        13.91886
     2012.93908       -11.30308        14.42907
     2012.94182        -9.48681        15.66016
     2012.94455         2.71947        13.46132
     2012.94729        -3.16226        11.48466
     2012.95003        -2.80698        11.84510
     2012.95277         5.45130        11.08308
     2012.95551        -0.98043        11.16537
     2012.95824        -7.77315        12.56927
     2012.96098        -0.33688        14.50642
     2012.96372        -0.13160        12.63675
     2012.96646       -22.30832        13.95671
     2012.96919        -7.72705        12.85565
     2012.98015         2.90606        12.84906
     2012.98288         8.11133        12.49850
     2012.98562       -11.24039        12.74702
     2012.98836        -7.39012        13.41523
     2012.99110         8.14316        12.73056
     2012.99931        -0.57901        11.66571
     2013.00205        -2.46573        11.98664
     2013.00479        -9.10546        12.30758
     2013.00752        -5.45118        13.22432
     2013.01026        -6.91191        12.06235
     2013.01300         2.20537        13.67034
     2013.01574       -24.35235        11.76446
     2013.01848       -14.88608        12.77665
     2013.02121       -10.62780        16.16872
     2013.02395       -23.82053        16.91099
     2013.02669        -7.50325        12.13806
     2013.02943         2.05903        12.03602
     2013.03216        -4.21470        11.68546
     2013.03490       -21.44942        11.34806
     2013.03764       -16.84115        11.41554
     2013.04038       -25.09487        14.71380
     2013.04312       -19.65059        14.13776
     2013.04585       -19.90532        13.87442
     2013.04859       -23.51304        13.88101
     2013.05133       -13.25577        13.60286
     2013.05407       -15.60149        13.08277
     2013.05681       -10.46221        13.06467
     2013.05954        -9.72594        13.23419
     2013.06228       -29.12566        15.03145
     2013.06502        -9.41038        15.02815
     2013.06776       -19.28111        13.73288
     2013.07049        -1.67483        13.65223
     2013.07323       -22.72756        12.84577
     2013.07597       -28.37428        13.99951
     2013.07871       -47.89900        15.77537
     2013.08145       -50.17473        15.57293
     2013.08692        -6.15118        12.58902
     2013.08966       -19.02390        13.75921
     2013.09240         2.81738        12.55610
     2013.09514       -10.99735        13.33129
     2013.09787        -0.99707        12.98238
     2013.10061       -18.77480        12.09856
     2013.10335       -21.98152        11.84181
     2013.10609       -19.88824        11.23614
