# ================= DQRFIT RESULTS ================
# INPUT FILE: series/CPUD.rad
# OUTPUT: LDETRENDED
# FILTER FUNCTION: f(t)
# f(t)=+line(t)+annual(t)+jumps(t)
# line(t)=+P 1+P 2*t
# annual(t)=+P 3*sin(2*pi*t+P 4)
# jumps(t)=+P 5*heav(t-2010.8769  )
# heav(t)=(t<0?0:1)
# TOTAL OBSERVATIONS MTOT= 3587
# INITIAL TIME INTERVAL= 2019.5589 - 2005.4319 = 14.1270
# TOTAL OBSERVATIONS AFTER PREFILTER M= 3570
# TIME-SPAN= 2019.5589 - 2005.4319 = 14.1270
# OBSERVATIONS: USED M=  3570 REJECTED MTOT-M=    17 %USED=   99.5261
# N=  5 PARAMETERS
# MAXSIG= 175.00000
# MAXRES=  57.33136
# SCALE FACTOR FOR LENGTHS: SCL=  10.00000
# SCALE FACTOR FOR SIGMAS: SCLSIG=   1.00000
# CHI^2=   8656.975 DOF=  3565 CHI^2/DOF=   2.42832
# RMS=      9.894 SDEV=      9.895 MEAN=   -0.04672
#  P #       PARAMETER +-    SIGMA %error PARAMETER NAME
# P 1 =     12865.38324 +-  137.927   1.07 YZERO                              
# P 2 =        -6.40230 +-    0.069   1.07 SLOPE                              
# P 3 =         9.16147 +-    0.223   2.43 ANNUAL AMPLITUDE                   
# P 4 =        -2.30569 +-    0.023   1.02 ANNUAL PHASE                       
# P 5 =        30.88913 +-    0.615   1.99 OFFSET 2010.8769                   
#       T            LDETRENDED       SIG_OBS
     2005.43189        -1.03281         9.25947
     2005.43463         1.03172         9.26258
     2005.43737         4.70525         9.27037
     2005.44010        -7.03422         9.70203
     2005.44284         7.34931         9.58204
     2005.44558        -8.71216         9.68021
     2005.44832        -3.62164         9.73008
     2005.45106        -1.19111         9.24077
     2005.45379        -2.05358         9.23609
     2005.45653        -5.96205         9.47919
     2005.45927        -3.57252         9.42153
     2005.46201       -10.40299         9.38413
     2005.46475        -7.31846         9.21895
     2005.46748        -5.52894         9.29687
     2005.47022        -1.03241         9.26414
     2005.47296        -5.46988         9.37011
     2005.47570        -7.22535         9.28752
     2005.47843        -6.34282         9.28440
     2005.48117       -11.33229         9.42309
     2005.48391        -9.09477         9.30310
     2005.48665         1.57976         9.34206
     2005.48939        -3.87371         9.23765
     2005.49212        -7.76118         9.23609
     2005.49486         4.54335         9.19558
     2005.49760        -6.49312         9.24388
     2005.50034         1.32841         9.17376
     2005.50308         0.10393         9.16285
     2005.50581       -10.78654         9.22363
     2005.50855        -2.70201         9.28907
     2005.51129         6.11452         9.45270
     2005.51403        -6.87195         9.39036
     2005.51676         0.71858         9.42465
     2005.51950        -0.58089         9.32803
     2005.52224        -1.09137         9.36855
     2005.52498        -5.37884         9.44490
     2005.52772         1.63069         9.39348
     2005.53045        -4.14078         9.29531
     2005.53319        -5.42125         9.30154
     2005.53593        -1.25672         9.63034
     2005.53867         4.31381         9.39036
     2005.54141        -5.29067         9.24232
     2005.54414        -2.72114         9.47607
     2005.54688         6.99139         9.36699
     2005.54962         6.16592         9.23765
     2005.55236         0.46045         9.29531
     2005.55509        -5.08002         9.80799
     2005.55783       -15.46249         9.41841
     2005.56057         6.52403         9.46984
     2005.56605        -9.26291         9.78773
     2005.56878         2.90262         9.62723
     2005.57152        -4.19085         9.78462
     2005.57426         4.89468         9.44179
     2005.57700         5.54620         9.50412
     2005.57974         0.18273         9.46672
     2005.58247        14.84726        10.06355
     2005.58521        12.64779         9.70358
     2005.58795         2.55232         9.25791
     2005.59069         4.84485         9.09273
     2005.59342       -10.22862         9.40906
     2005.59616         0.07790         9.50100
     2005.59890         0.68943         9.31712
     2005.60164         9.90996         9.19246
     2005.60438         6.70849         9.26414
     2005.60711         2.85602         9.53217
     2005.60985         2.79255         9.66463
     2005.61259        -6.45592         9.78462
     2005.61487         5.08968        11.55174
     2005.64377        -9.15729        19.36198
     2005.64544        -3.64758         9.85630
     2005.64818         6.68595         9.18311
     2005.65092         1.02148         9.33582
     2005.65366         5.12900         9.50568
     2005.65639         3.62753         9.33738
     2005.65913        11.58606        11.01100
     2005.66187        -6.41341         9.50256
     2005.66461         2.37912         9.30154
     2005.66735         4.64965         9.30777
     2005.67008         3.88718         9.31245
     2005.67282        11.35470         9.32336
     2005.67556         7.22123         9.29842
     2005.67830         5.67876         9.16441
     2005.68104         5.23329         9.23765
     2005.68377         3.42982         9.19246
     2005.68651         2.44935         9.38257
     2005.68925         8.09287         9.64281
     2005.69199        -1.05860         9.32647
     2005.69472         3.55493         9.36387
     2005.69746        -1.84854         9.37634
     2005.70020        10.30099         9.45425
     2005.70294         2.23152         9.59606
     2005.70568        -2.93795         9.65216
     2005.70841         0.21257         9.59762
     2005.71115         4.24210         9.27193
     2005.71389         6.34263         9.30777
     2005.71663         0.55216         9.44802
     2005.71937         0.44669         9.42309
     2005.72210         5.61422         9.59139
     2005.72484         6.35275         9.29063
     2005.72758         4.72227         9.26414
     2005.73032         1.38580         9.50568
     2005.73305         3.35333         9.46672
     2005.73579         1.30686         9.48230
     2005.73853         5.11939         9.46516
     2005.74167         3.07850        11.03282
     2005.75583        -0.53887        15.07663
     2005.75770         6.01609         9.45893
     2005.76043         3.82562         9.12078
     2005.76317        12.36415         9.13792
     2005.76591         1.28667         9.28128
     2005.76865         6.45320         9.26102
     2005.77138         7.37473         9.24232
     2005.77412         7.56526         9.30622
     2005.77686         4.06179         9.46205
     2005.77960         3.45332         9.45270
     2005.78234         9.03784         9.58359
     2005.78507         7.98837         9.36543
     2005.78781         8.60190         9.81422
     2005.79055        18.88343         9.22986
     2005.79329         9.53796         9.35920
     2005.79603        12.59949         9.51815
     2005.79876         7.38702         9.51659
     2005.80150        17.70654         9.47919
     2005.80424         3.78907         9.37166
     2005.80698         5.33160         9.38257
     2005.80971         5.64213         9.36543
     2005.81245         1.27466         9.19246
     2005.81422         0.94598        19.37444
     2005.81833        -3.29973        10.97672
     2005.82101        -0.49156        10.86452
     2005.83245         2.50168        15.46932
     2005.83436         0.55989        11.21982
     2005.83709        -0.17258         9.46828
     2005.83983         6.20994         9.49321
     2005.84257         1.74547         9.44958
     2005.84531        -0.81000         9.73631
     2005.84804        -1.66947         9.75189
     2005.85078        -4.15094         9.52594
     2005.85352        -4.12741         9.70826
     2005.85626         6.18812         9.48854
     2005.85900        -5.54336         9.60385
     2005.86173        -3.23283         9.71605
     2005.86447         4.08270         9.31401
     2005.86721        -1.38777         9.38101
     2005.86995        -7.05524         9.43244
     2005.87269        -6.81971         9.24232
     2005.87542        -4.98118         9.28596
     2005.87862        -6.82070        11.15281
     2005.88210        -4.59143        31.49185
     2005.88364        -0.01660         9.09117
     2005.88637         1.20093         9.30933
     2005.88911         2.27346         9.49165
     2005.89185         0.45699         9.25012
     2005.89459         2.42251         9.24232
     2005.89733         1.89004         9.42465
     2005.90006       -14.00543         9.31557
     2005.90280        -2.96690         9.25947
     2005.90554         4.74763         9.23609
     2005.90828        -7.89984         9.30466
     2005.91102         1.48269         9.06468
     2005.91375        -9.12679         9.18934
     2005.91649        -5.11626         9.33738
     2005.91924        -4.02664         9.15973
     2005.92197        -2.15520         8.92287
     2005.92470       -14.68867         8.79977
     2005.92744       -19.45214         8.90106
     2005.93018       -14.52061         8.90885
     2005.93280        -8.67382         9.23297
     2005.95756        -3.91633         9.01793
     2005.96030        -4.60380         9.04442
     2005.96303        -9.05927         8.91508
     2005.96577        -7.30374         9.17376
     2005.96851       -17.52821         9.35608
     2005.97125       -21.28769         8.93378
     2005.97399       -20.57816         9.29063
     2005.97672       -20.64863         9.57113
     2005.97946       -11.86810         9.44179
     2005.98539       -15.23612        11.67640
     2005.98767        -8.38652         9.40127
     2005.99013       -13.94281        10.35184
     2006.02418       -26.73580        17.77406
     2006.02601       -14.38105         9.79085
     2006.02875       -17.33653        11.07334
     2006.03149       -15.12700        10.19445
     2006.03423       -22.56447         9.94356
     2006.03697       -10.63594         9.58983
     2006.03970        -8.12541         9.53217
     2006.04244       -19.55888         9.61788
     2006.06243       -20.82192        15.28233
     2006.06434        -3.24166         9.39660
     2006.06708       -12.69913         8.90261
     2006.06982       -10.67260         9.10831
     2006.07256       -17.96407         9.10987
     2006.07530       -17.18654         9.20181
     2006.07803       -19.46001         9.07247
     2006.08077       -41.48548         8.80912
     2006.08351       -18.41496         9.17843
     2006.08625       -18.92943         9.30154
     2006.08898       -22.05990         9.84539
     2006.09072       -12.60982        20.44188
     2006.09446       -20.76684         9.67553
     2006.09720       -17.88331         9.10831
     2006.09994       -21.78278         9.13948
     2006.10267       -23.84526         9.24544
     2006.10541       -25.10673         9.46516
     2006.10815       -22.75320         9.61009
     2006.11089       -18.38067         9.27972
     2006.11363       -27.60614         9.11299
     2006.11636       -25.67861         9.27037
     2006.11859       -18.23234        11.36630
     2006.12184       -16.74356         9.27817
     2006.12407       -11.62128        11.28059
     2006.12836       -14.48083        19.46327
     2006.13005       -10.84997        12.55685
     2006.17933        -6.82346        11.23073
     2006.18207        -4.10993         9.41997
     2006.18481        -4.40240         9.33738
     2006.18755        -3.48087         9.25635
     2006.19029       -12.01534         9.50880
     2006.19302        -6.50581         9.42776
     2006.19576        -9.56629         9.40751
     2006.19850        -1.98376         9.32803
     2006.20124        -9.21823         9.46828
     2006.20379       -22.26786        10.76323
     2006.21602        12.15244        38.00869
     2006.22040       -26.91353        26.71563
     2006.83748       -27.52082        22.29939
     2006.83921         1.20128         9.35141
     2006.84178       -16.72828        20.18009
     2006.84818        10.49671        15.16545
     2006.85410         6.30963        48.13458
     2006.86738        -4.84441        28.09162
     2006.87018        -6.59042        17.17723
     2006.87247        -3.69782        11.69198
     2006.87475       -14.94021         9.51970
     2006.87749         1.12932         9.39036
     2006.88022        -0.39215         9.21116
     2006.88186         7.21435        21.05274
     2006.88570        -0.19910         9.15038
     2006.88844         8.37043         9.26414
     2006.89118        -2.07104         9.18155
     2006.89391       -15.39851         9.59606
     2006.89665       -10.81298         9.67086
     2006.89939         8.57155         9.03663
     2006.90145        -7.92625        12.16571
     2006.90486         1.54260         9.01170
     2006.90692         5.82978        11.93196
     2006.91034        -1.65534         9.02260
     2006.91308         1.35419         9.15973
     2006.91582        -6.91928         9.01949
     2006.91855        -9.74175         9.13324
     2006.92129        -3.81522         8.98988
     2006.92403        -4.75970         9.20493
     2006.92604        -9.41582        12.51633
     2006.92951        -4.95864         9.07559
     2006.93224        -6.68011         8.86989
     2006.93498        -3.85058         9.13168
     2006.93772        -4.13105         9.08961
     2006.94046       -29.57152         9.06156
     2006.94319        -5.09900         9.13480
     2006.94593        -2.79247         9.24700
     2006.94867       -34.45994         9.48698
     2006.95141         0.78759         9.33271
     2006.95415       -10.93388         9.63502
     2006.95679         3.19204         9.41686
     2006.95962        -4.51782         8.95560
     2006.96236        -6.46130         9.10208
     2006.96510        -8.04777         9.21895
     2006.96784        -3.20824         9.21272
     2006.97054        -2.52392         9.38101
     2006.97209       -27.27700        26.72966
     2006.97605       -12.29665         9.01481
     2006.97879        -6.49912         8.92755
     2006.98152       -21.97460         8.98520
     2006.98413       -22.34089         9.64281
     2006.98684       -38.71157        10.07290
     2006.98974       -16.36601         9.10987
     2006.99248       -22.12048         9.25323
     2006.99521       -13.03695         9.19090
     2006.99795        -7.38843         9.12857
     2007.00343       -20.15337         9.31401
     2007.00610       -14.26724         9.45114
     2007.00890       -10.22131         9.11610
     2007.01164       -16.88178         9.45425
     2007.01438       -15.03125         9.32492
     2007.01712       -27.10073         9.36699
     2007.01985       -21.97020         9.76747
     2007.02259       -14.01367         9.16285
     2007.02533       -14.26514         9.22051
     2007.03081       -13.52108         9.13168
     2007.03354       -13.33755        26.75615
     2007.03621       -18.64048         9.19869
     2007.05904       -38.14929        14.86626
     2007.06092       -10.58727         8.98520
     2007.06366       -13.75774         9.17532
     2007.06640       -22.28521         9.21272
     2007.06914       -10.44668         8.89950
     2007.07187       -13.37415         8.90573
     2007.07461       -16.17263         8.94313
     2007.07735       -12.64110         9.12389
     2007.08009       -11.89457         9.05377
     2007.08556       -12.14851         9.17376
     2007.08830       -16.73698         9.05844
     2007.09104        -6.95446         9.13168
     2007.09378       -12.69593         9.23453
     2007.09651       -13.26540         9.07091
     2007.09925       -15.64687         9.14259
     2007.10093         3.12090        19.87154
     2007.10473       -16.11881         9.20025
     2007.10747        -9.27728         9.25012
     2007.11020       -13.55876         9.17688
     2007.11294       -22.37423         9.14415
     2007.11568        -9.43770         9.03039
     2007.11842       -13.28517         8.95560
     2007.12115        -7.28764         8.85275
     2007.12389       -13.77011         9.02105
     2007.12663       -16.63358         9.40595
     2007.12937       -16.80906         9.33426
     2007.13211         1.51247         9.18155
     2007.13474       -12.78767         9.55554
     2007.13758       -13.01447         9.43088
     2007.14021        -7.81764         9.70826
     2007.14306        -9.60741        12.82020
     2007.14580        -8.14788         9.25947
     2007.14853       -18.54636         8.98676
     2007.15091       -33.63111        10.39080
     2007.15281        -5.82100        25.78532
     2007.15630         2.35737        11.34292
     2007.15920       -32.37807        10.56689
     2007.16222        -4.24971         9.56489
     2007.16496        -5.25218         9.51347
     2007.16770       -10.95766         9.27349
     2007.17044       -11.00013         9.56489
     2007.17278       -11.44912        11.31332
     2007.17591        -6.58007         9.26882
     2007.17865       -11.05254         9.33115
     2007.18139        -7.87901         9.65060
     2007.18413       -13.26948         9.33894
     2007.19062         7.74011        17.70705
     2007.19234       -16.09390         9.46672
     2007.19781       -15.17384         9.26414
     2007.20019       -17.30963        11.34916
     2007.20329       -17.54579         9.34206
     2007.20603       -15.21326         9.14259
     2007.20877        -9.68573         9.19713
     2007.21150       -17.23620         9.39504
     2007.21424       -10.68767         9.51970
     2007.21698        -9.94114         9.49321
     2007.21972        -2.20761         9.27349
     2007.22246         0.30591         9.08805
     2007.22519         2.14644         9.05844
     2007.22793         7.59097         9.08805
     2007.23067        -3.47150         9.08805
     2007.23341       -12.91797         9.23297
     2007.23614       -12.33644         9.15818
     2007.23888       -12.27891         9.23297
     2007.24162       -12.86639         9.09896
     2007.24378         2.33846        12.41036
     2007.24710        -6.67333         9.22051
     2007.24983       -11.58380         9.10364
     2007.25257       -10.77527         9.27817
     2007.25437       -21.43474        16.68169
     2007.25805       -14.23821         9.15662
     2007.26054       -16.07924        10.42508
     2007.26300       -11.01054        12.12987
     2007.26626        -3.60263         9.14415
     2007.26900         7.84490         9.21583
     2007.27174         0.07143         9.37634
     2007.27447        -2.63104         9.27661
     2007.27624         2.46225        17.33306
     2007.27995        -8.24299         9.48854
     2007.28271        11.28466        17.32683
     2007.28543        -7.77893         9.07403
     2007.28826         8.77721        74.87047
     2007.29295       -38.52979       154.95192
     2007.30410        21.53661        66.83271
     2007.30939       -30.72149       111.64809
     2007.31327        14.41534       141.86369
     2007.31489         1.69169       114.99534
     2007.32101        -5.95512         9.48698
     2007.32375         2.61341         9.32492
     2007.32648        -5.19606         9.19402
     2007.32922        -9.05553         9.06935
     2007.33196        -3.61301         9.60385
     2007.33470        -5.28748         9.41218
     2007.33744        -7.15395         9.31868
     2007.33955        -0.23344        12.82955
     2007.34291        -9.87089         9.19869
     2007.34565       -18.76336         9.19869
     2007.34839        -5.83483         9.42776
     2007.35112        -8.15831         9.37011
