# ================= DQRFIT RESULTS ================
# INPUT FILE: series/CSHR.rad
# OUTPUT: LDETRENDED
# FILTER FUNCTION: f(t)
# f(t)=+line(t)+annual(t)+jumps(t)
# line(t)=+P 1+P 2*t
# annual(t)=+P 3*sin(2*pi*t+P 4)
# jumps(t)=+P 5*heav(t-2014.7100  )
# heav(t)=(t<0?0:1)
# TOTAL OBSERVATIONS MTOT= 2303
# INITIAL TIME INTERVAL= 2014.7652 - 2007.7016 =  7.0637
# TOTAL OBSERVATIONS AFTER PREFILTER M= 2280
# TIME-SPAN= 2014.7652 - 2007.7016 =  7.0637
# OBSERVATIONS: USED M=  2280 REJECTED MTOT-M=    23 %USED=   99.0013
# N=  5 PARAMETERS
# MAXSIG= 175.00000
# MAXRES=  84.93744
# SCALE FACTOR FOR LENGTHS: SCL=  10.00000
# SCALE FACTOR FOR SIGMAS: SCLSIG=   1.00000
# CHI^2=   3619.364 DOF=  2275 CHI^2/DOF=   1.59093
# RMS=      8.707 SDEV=      8.707 MEAN=    0.17348
#  P #       PARAMETER +-    SIGMA %error PARAMETER NAME
# P 1 =     -1605.09203 +-  156.543   9.75 YZERO                              
# P 2 =         0.63125 +-    0.078  12.33 SLOPE                              
# P 3 =         9.22057 +-    0.227   2.46 ANNUAL AMPLITUDE                   
# P 4 =         2.91491 +-    0.034   1.16 ANNUAL PHASE                       
# P 5 =       364.84542 +-    1.764   0.48 OFFSET 2014.7100                   
#       T            LDETRENDED       SIG_OBS
     2007.70157        18.00138         7.84163
     2007.70431        16.09165         7.96902
     2007.70705         3.60292         7.88704
     2007.70978        10.85919         7.87568
     2007.71252        11.56946         7.77604
     2007.71526        12.76674         7.59315
     2007.71800        18.25501         7.59063
     2007.72073        14.87028         7.58937
     2007.72347        14.54555         7.56035
     2007.72621        15.64882         7.59946
     2007.72895        10.15909         7.64739
     2007.73169        12.75837         7.74198
     2007.73442         7.71864         7.55657
     2007.73716        16.70591         7.69658
     2007.73990        17.57818         7.73820
     2007.74264        17.66645         7.59567
     2007.74538        23.38473         7.60576
     2007.74812        11.25599         7.74325
     2007.75085        26.34927         7.87064
     2007.75359        19.60954         7.89965
     2007.75633         8.81781         7.63856
     2007.75906        22.93708         7.60072
     2007.76180        13.92536         7.69658
     2007.76454        21.32963         7.77100
     2007.76728         8.35490         8.20363
     2007.77002        16.76117         8.13930
     2007.77275        13.05644         8.10272
     2007.77549        15.94071         7.49729
     2007.77823        15.71299         7.49224
     2007.78097        21.49026         7.46702
     2007.78371        13.78753         7.58432
     2007.78644        23.71180         7.64234
     2007.78918        23.13407         7.63225
     2007.79192        21.90534         7.70162
     2007.79466        25.60662         7.74325
     2007.79739        29.93289         7.57675
     2007.80013        26.44516         7.59693
     2007.80287        14.41643         7.63477
     2007.80561        10.98870         7.79748
     2007.80835         9.67097         7.86181
     2007.81108        10.64325         7.75586
     2007.81382        13.85152         7.72937
     2007.81656         6.15079         7.86812
     2007.81930         9.04306         7.66378
     2007.82203        10.88733         7.69784
     2007.82477         5.01661         7.68018
     2007.82751         4.31488         7.64234
     2007.83025         5.30415         7.66378
     2007.83299        10.41442         7.59315
     2007.83572        10.56269         7.49098
     2007.83846        12.81596         7.62973
     2007.84120        16.50724         7.70162
     2007.84394         8.84251         7.60072
     2007.84668         9.62278         7.72559
     2007.84941         5.76605         7.77856
     2007.85215        12.75432         8.08759
     2007.85489        17.12059         8.17588
     2007.85763        13.61687         7.82397
     2007.86036        12.93914         7.61081
     2007.86310         9.52141         7.78109
     2007.86584        20.56668         7.66000
     2007.86858         7.12395         7.78361
     2007.87132        18.14822         7.75838
     2007.87405        18.61050         7.57675
     2007.87679        19.16777         7.53891
     2007.87953        12.35304         7.55279
     2007.88227         7.70931         7.60198
     2007.88501         8.97858         7.52756
     2007.88774        -0.15515         7.63477
     2007.89048         4.60213         7.60324
     2007.89322         7.00140         7.76469
     2007.89596         7.26767         8.02830
     2007.89869         4.78394         7.73316
     2007.90143         3.84421         7.72685
     2007.90417         8.06849         7.81388
     2007.90691         1.73176         7.72433
     2007.90965        -2.78097         7.62468
     2007.91238         0.69430         7.61838
     2007.91513         7.82057         7.70919
     2007.91786         5.36684         7.67892
     2007.92060        -7.06988         7.88578
     2007.92334         3.70139         7.72433
     2007.92607         1.43866         7.90217
     2007.92881        -3.55807         7.80379
     2007.93155        -3.33380         7.69153
     2007.93429        -0.84353         7.65369
     2007.93702        -8.25625         7.62090
     2007.93976        -1.54798         7.59693
     2007.94250        -1.09271         7.72180
     2007.94524         1.27956         7.97155
     2007.94798         3.56583         7.79496
     2007.95071         1.85010         7.70919
     2007.95345         5.83138         7.83028
     2007.95619        -0.12935         7.84289
     2007.95893         8.79692         7.83280
     2007.96167         9.86419         7.79370
     2007.96440         3.05346         7.84289
     2007.96714         2.17073         7.69153
     2007.96988        -6.19899         7.74829
     2007.97262        -7.73372         7.95389
     2007.97535        -3.17445         7.82397
     2007.97809         2.36582         7.66757
     2007.98083         1.77309         7.66126
     2007.98357         2.57137         7.58306
     2007.98631         2.65664         7.87568
     2007.98904        -2.37709         7.89208
     2007.99178         3.98118         7.83658
     2007.99452        -0.75055         7.82397
     2007.99726         1.32572         7.68649
     2008.00000       -11.04401         7.89334
     2008.00273        -8.31673         7.74955
     2008.00547        -1.03946         7.53513
     2008.00821         5.89481         7.51242
     2008.01095         6.55108         7.47585
     2008.01368         8.03435         7.44179
     2008.01642         0.88863         7.54774
     2008.01916        -4.61410         7.62216
     2008.02127         2.05257        10.62536
     2008.04491         2.07564        17.81867
     2008.04654        -5.31639         7.73442
     2008.04928       -10.85811         7.68018
     2008.05201        -6.05884         7.54774
     2008.05475        -5.39757         7.50233
     2008.05749       -11.11730         7.54396
     2008.06023        -6.51103         7.66126
     2008.06297         0.00625         7.66126
     2008.06570        -6.78048         7.63099
     2008.06844         0.92779         7.51873
     2008.07118        11.33406         7.50360
     2008.07392         3.67833         7.54144
     2008.07666         8.20460         8.15570
     2008.07939        -0.60712         7.89460
     2008.08213         4.60415         7.55153
     2008.08487         0.48342         7.54522
     2008.08761        -6.50331         7.59315
     2008.09034         0.94496         7.64612
     2008.09308         2.38223         7.63225
     2008.09582         6.06251         7.82649
     2008.09856         1.37578         7.67387
     2008.10130        -3.55895         7.78109
     2008.10403        -5.83468         7.73063
     2008.10677        -0.65541         7.69153
     2008.10951        -5.27714         7.62468
     2008.11225        -0.48986         7.65495
     2008.11498       -10.03559         7.67009
     2008.11772        -2.90232         7.58306
     2008.12046        -6.21505         7.73694
     2008.12320        -5.27978         7.90596
     2008.12594        -1.75751         7.69532
     2008.12867        -9.85123         7.55153
     2008.13141        -6.66596         7.56918
     2008.13415        -2.97069         7.63099
     2008.13689       -11.01242         7.65243
     2008.13963        -3.79315         7.66883
     2008.14236        -9.54187         7.57675
     2008.14510        -5.68660         7.43044
     2008.14784        -0.87933         7.52378
     2008.15058       -18.33706         7.47963
     2008.15331       -14.24479         7.53387
     2008.15605        -8.33452         7.48972
     2008.15879        -3.89024         7.45693
     2008.16153       -16.76297         7.60576
     2008.16427        -0.12470         7.47459
     2008.16700        -7.70543         7.53639
     2008.16974       -12.55116         7.62090
     2008.17248       -10.32389         7.56666
     2008.17522       -13.16161         7.72559
     2008.17796       -10.41034         7.55657
     2008.18069       -11.92007         7.56288
     2008.18343        -8.99480         7.59819
     2008.18617       -16.27953         7.55026
     2008.18891       -10.75126         7.64739
     2008.19164        -4.38698         7.75964
     2008.19438       -10.97171         7.62720
     2008.19712         0.28256         7.54270
     2008.19986        -5.48917         7.48720
     2008.20260       -14.41690         7.47837
     2008.20533        -1.47162         7.53765
     2008.20807        -2.84235         7.83406
     2008.21081         2.46092         7.90091
     2008.21355        -1.37281         7.72054
     2008.21629         2.12646         7.58810
     2008.21902        -7.87127         7.70415
     2008.22176       -13.19699         7.67009
     2008.22450        -2.74772         7.77604
     2008.22724        -1.62645         7.67135
     2008.22997        -9.47518         7.66631
     2008.23271        -2.59891         7.62468
     2008.23545        -1.46364         7.70162
     2008.23819        -3.88536         7.48720
     2008.24093        -2.14609         7.54774
     2008.24366        -6.02082         7.58306
     2008.24640        -5.08355         7.55531
     2008.24914        -5.60228         7.59819
     2008.25188        -1.09401         7.70415
     2008.25462        -3.22473         7.56666
     2008.25735       -12.69446         7.53765
     2008.26009        -6.64219         7.42539
     2008.26283       -13.14992         7.46071
     2008.26557        -9.41065         7.48089
     2008.26830       -16.47338         7.42413
     2008.27104        -3.33410         7.47585
     2008.27378        -4.10983         7.46449
     2008.27652        -4.98456         7.58306
     2008.27926        -8.81829         7.95136
     2008.28199         0.57898         7.63099
     2008.28473         1.08626         7.62720
     2008.28747        -3.52147         7.61964
     2008.29021         0.33780         7.68270
     2008.29295        -8.09793         7.63856
     2008.29568        -7.17266         7.65495
     2008.29842        -6.42939         7.46954
     2008.30116        -7.07211         7.56414
     2008.30390       -13.19784         7.53261
     2008.30663         2.58243         7.47459
     2008.30937       -12.35530         7.64234
     2008.31211        -7.49803         7.56035
     2008.31485        -1.79076         7.55657
     2008.31759       -15.12948         7.61207
     2008.32032        -6.90221         7.67892
     2008.32306         0.02306         7.99299
     2008.32580         5.77933         7.85298
     2008.32854        -3.98440         7.56540
     2008.33128       -11.04613         7.68775
     2008.33401       -16.53285         7.65369
     2008.33675       -14.31958         7.65622
     2008.33949        -2.60631         7.59441
     2008.34223       -12.93204         7.58810
     2008.34496       -10.26377         7.64991
     2008.34770        -4.92550         7.55783
     2008.35044        -4.45922         7.54270
     2008.35318        -4.60795         7.57297
     2008.35592        -7.13868         7.67135
     2008.35865        -4.17641         7.60576
     2008.36139        -3.74914         7.59441
     2008.36413        -1.04786         7.50738
     2008.36687        -6.94159         7.61585
     2008.36961       -14.79232         7.60828
     2008.37234       -15.68405         7.66883
     2008.37508       -11.54778         7.60702
     2008.37782        -5.99651         7.62847
     2008.38056        -3.09523         7.65874
     2008.38329       -15.86196         7.57549
     2008.38603        -1.88969         7.51495
     2008.38877        -1.19142         7.69153
     2008.39151        -3.48415         7.80883
     2008.39425        -7.57388         7.50738
     2008.39698       -10.86760         7.45819
     2008.39972        -0.85333         7.38125
     2008.40246        -7.99906         7.55279
     2008.40520        -4.50279         7.47837
     2008.40794        -5.77752         7.55279
     2008.41067        -3.16325         7.53891
     2008.41341        -8.40697         7.45188
     2008.41615        -8.30171         7.44305
     2008.41889        -5.43243         7.51369
     2008.42162       -25.07716         7.76469
     2008.42436        -6.60489         7.54144
     2008.42710        -2.85162         7.50738
     2008.42984        -5.90034         7.60450
     2008.43258         1.65793         7.63982
     2008.43531        -6.58180         7.62090
     2008.43805         3.04447         7.80883
     2008.44079        -2.75226         7.43296
     2008.44353        -1.89898         7.45819
     2008.44626        -3.65671         7.54270
     2008.44900        -1.94444         7.58810
     2008.45174        -8.65417         7.95263
     2008.45448        -6.33990         7.81010
     2008.45722        -8.91663         7.38882
     2008.45995        -6.82835         7.39260
     2008.46269        -7.79108         7.46323
     2008.46543        -3.95581         7.54270
     2008.46817         0.99046         7.43170
     2008.47091        -4.33527         7.64739
     2008.47364        -1.60000         7.52378
     2008.47638         0.54128         7.49477
     2008.47912        -3.21845         7.56540
     2008.48186        -1.15718         7.45440
     2008.48459        -3.85491         7.62847
     2008.48733        -6.38064         7.72559
     2008.49007        -5.72937         7.47332
     2008.49281        -1.06109         7.56162
     2008.49555       -10.05482         8.11912
     2008.49829        -4.75055         7.80001
     2008.50102       -10.63828         7.72937
     2008.50376        -4.51701         7.81136
     2008.50650         3.18226         7.66504
     2008.50924         3.13754         7.69027
     2008.51197        -1.81419         7.48215
     2008.51471        -1.57192         7.49603
     2008.51745         9.52735         7.50990
     2008.52019         3.64362         7.50486
     2008.52292        12.76490         7.84289
     2008.52566         4.32717         7.81136
     2008.52840         6.59044         7.58306
     2008.53114        16.42071         7.68396
     2008.53388        14.00998         7.67261
     2008.53661         5.54125         7.51495
     2008.53935         2.25353         7.46576
     2008.54209         0.55380         7.43296
     2008.54483         6.15307         7.68144
     2008.54757         8.83634         7.59441
     2008.55030         5.97461         7.40269
     2008.55304       -15.03712         7.68901
     2008.55578        14.64316         7.52504
     2008.55852         8.45343         7.48846
     2008.56125         5.20870         7.47585
     2008.56399         0.40397         7.42161
     2008.56673         3.13424         7.48215
     2008.56947         9.51451         7.39891
     2008.57221        11.82679         7.64486
     2008.57494         7.20706         7.77856
     2008.57768         8.48733         7.76217
     2008.58042        16.82760         7.54270
     2008.58316        11.53787         7.49350
     2008.58590        10.66014         7.43422
     2008.58863         7.53742         7.69658
     2008.59137         7.79369         7.40269
     2008.59411         3.29596         7.41404
     2008.59685         7.25623         7.58180
     2008.59958         8.62450         7.82649
     2008.60232         9.71978         7.97911
     2008.60506        17.04405         7.65495
     2008.60780         8.27532         7.87316
     2008.61054        10.90659         7.46323
     2008.61327         9.96586         7.46576
     2008.61601        15.55613         7.52504
     2008.61875         7.71041         7.53261
     2008.62149        11.22468         7.48594
     2008.62423        23.78195         7.53513
     2008.62696        23.64622         7.50990
     2008.62970        18.90049         7.59946
     2008.63244         3.26476         7.81766
     2008.63518       -11.35896         8.13930
     2008.63791         9.68231         7.90596
     2008.64065        17.95758         7.54144
     2008.64339       -10.94015         7.56540
     2008.64613        18.30212         7.76973
     2008.64887         4.60839         7.67387
     2008.65160        16.78967         7.52125
     2008.65434         2.65894         7.92362
     2008.65708        22.20021         8.05605
     2008.65982        15.76348         7.97533
     2008.66256        21.10575         7.62973
     2008.66529        11.74203         7.52630
     2008.66804         9.62529         7.64865
     2008.67077        10.05957         7.65117
     2008.67351        11.78084         7.75586
     2008.67624        17.91811         8.33228
     2008.67898        19.10938         7.68396
     2008.68172        13.43766         7.67892
     2008.68446        11.35093         7.59189
     2008.68720         9.90620         7.57927
     2008.68993        14.16247         7.63603
     2008.69259        10.60679         7.77982
     2008.69541        13.20101         7.63477
     2008.69815        10.17129         7.82019
     2008.70089        13.42656         7.53765
     2008.70362         9.74583         7.55153
     2008.70636        15.38410         7.56414
     2008.70910         7.05837         7.74451
     2008.71184         6.48164         7.84920
     2008.71457        -0.57308         7.51242
     2008.71731        -0.74581         7.51999
     2008.72005         4.04046         7.54648
     2008.72279        10.94873         7.62594
     2008.72553        11.48900         7.67766
     2008.72826        17.07427         7.57927
     2008.73100        27.73755         7.66252
     2008.73374        30.14782         7.65622
     2008.73648        17.04009         7.50738
     2008.73921        11.00336         7.63099
     2008.74469        16.10991         7.40143
     2008.74743         8.79718         7.58937
     2008.75017         0.93845         7.75964
     2008.75290        24.73472         7.69784
     2008.75564         0.40499         7.60324
     2008.75838        12.51726         7.59946
     2008.76112        23.27954         7.48846
     2008.76386        20.87481         7.53261
     2008.76659        29.27208         7.73694
     2008.76933        19.60335         7.66883
     2008.77207        14.65262         7.37494
     2008.77481        18.92689         7.37999
     2008.77754        21.37917         7.31061
     2008.78028        15.89444         7.41278
     2008.78302         8.75971         7.54017
     2008.78576        12.89298         7.48720
     2008.78850        12.19425         7.56414
