# ================= DQRFIT RESULTS ================
# INPUT FILE: series/CSTL.rad
# OUTPUT: LDETRENDED
# FILTER FUNCTION: f(t)
# f(t)=+line(t)+annual(t)+jumps(t)
# line(t)=+P 1+P 2*t
# annual(t)=+P 3*sin(2*pi*t+P 4)
# jumps(t)=+P 5*heav(t-2014.3247  )
# heav(t)=(t<0?0:1)
# TOTAL OBSERVATIONS MTOT= 1003
# INITIAL TIME INTERVAL= 2016.4816 - 2013.5633 =  2.9183
# TOTAL OBSERVATIONS AFTER PREFILTER M=  978
# TIME-SPAN= 2016.4816 - 2013.5633 =  2.9183
# OBSERVATIONS: USED M=   978 REJECTED MTOT-M=    25 %USED=   97.5075
# N=  5 PARAMETERS
# MAXSIG= 175.00000
# MAXRES=  31.13481
# SCALE FACTOR FOR LENGTHS: SCL=  10.00000
# SCALE FACTOR FOR SIGMAS: SCLSIG=   1.00000
# CHI^2=   1302.202 DOF=   973 CHI^2/DOF=   1.33834
# RMS=      6.677 SDEV=      6.680 MEAN=    0.11257
#  P #       PARAMETER +-    SIGMA %error PARAMETER NAME
# P 1 =     -7186.00811 +-  837.130  11.65 YZERO                              
# P 2 =         3.54148 +-    0.416  11.74 SLOPE                              
# P 3 =         7.70395 +-    0.314   4.07 ANNUAL AMPLITUDE                   
# P 4 =        -2.60740 +-    0.050   1.93 ANNUAL PHASE                       
# P 5 =        54.03667 +-    0.786   1.45 OFFSET 2014.3247                   
#       T            LDETRENDED       SIG_OBS
     2013.56331        -3.50117         6.31417
     2013.56605         3.70213         6.29335
     2013.56878        13.53644         6.26558
     2013.57152         4.14074         6.16840
     2013.57426         5.51305         6.16609
     2013.57700         6.56335         6.31648
     2013.57974        -1.76535         6.16031
     2013.58247         6.38396         6.23666
     2013.58521         7.65326         6.17535
     2013.58795         2.94456         6.25170
     2013.59069         5.47887         6.25054
     2013.59342        -1.94983         6.20195
     2013.59616         2.27548         6.26442
     2013.59890         1.50978         6.21005
     2013.60164         4.69808         6.22856
     2013.60438         4.36339         6.23666
     2013.60711        -2.85831         6.25286
     2013.60985         3.83500         6.29566
     2013.61259         4.37730         6.29913
     2013.61533         1.53360         6.43101
     2013.61807         8.44991         6.31533
     2013.62080         5.87621         6.22625
     2013.62354        10.92452         6.25980
     2013.62628         7.51282         6.23550
     2013.62902        -2.28488         6.23319
     2013.63153         9.29222         6.65313
     2013.63538        13.08760        11.69938
     2013.63723         7.68904         6.17766
     2013.63997        13.54434         6.19038
     2013.64271         6.37064         6.25401
     2013.64544        10.84295         6.13023
     2013.64818         7.31825         6.19964
     2013.65092         3.71856         6.14064
     2013.65366        10.48486         6.40556
     2013.65639         7.82216         6.16840
     2013.65913        14.52547         6.30029
     2013.66187         3.67377         6.29797
     2013.66461         6.50808         6.13717
     2013.66735         6.17938         6.23435
     2013.67008        15.50468         6.20889
     2013.67282        11.12999         6.35466
     2013.67556        15.12329         6.26095
     2013.67830         8.37660         6.24938
     2013.68104         7.73490         6.37317
     2013.68377        12.22420         6.10015
     2013.68651         6.68451         6.07586
     2013.68925         3.25281         6.13601
     2013.69199         9.19511         6.13486
     2013.69472         5.83642         6.15105
     2013.69746         5.15672         6.15684
     2013.70020         7.49203         6.11403
     2013.70294         8.35433         6.16840
     2013.70568        12.67463         6.12213
     2013.70841         9.54594         6.29797
     2013.71115         9.94124         6.34309
     2013.71389        10.98655         6.14642
     2013.71663         5.09685         6.14295
     2013.71937         8.72915         6.08742
     2013.72210        19.35746         6.22509
     2013.72484        11.35876         6.10940
     2013.72758        12.04607         6.14411
     2013.73032        15.01037         6.15684
     2013.73305         5.69267         6.03189
     2013.73579         8.07398         6.04115
     2013.73853         8.32928         6.05272
     2013.74127        10.50459         6.05735
     2013.74401        15.49989         6.30839
     2013.74674        10.88819         6.14642
     2013.74948        10.68150         6.03189
     2013.75222        -2.23720         6.26905
     2013.75496         1.33411         6.07007
     2013.75770        -4.97959         6.66007
     2013.76043         0.45971         6.13601
     2013.76317         2.33002         6.07586
     2013.76591         3.47032         6.29566
     2013.76863         7.87168         6.23203
     2013.77235         2.19850        13.09571
     2013.77412        12.74323         6.19733
     2013.77686         1.97054         6.16609
     2013.77960         5.51884         6.15105
     2013.78182        -3.60904         7.51037
     2013.78525        -1.29616         6.77576
     2013.78781        -4.14025         6.21931
     2013.79055         5.89006         6.18460
     2013.79329        -0.10964         6.11750
     2013.79603         2.18466         6.09784
     2013.79876         3.31797         6.14989
     2013.80150         0.27127         6.25864
     2013.80424         1.62858         6.28293
     2013.80698         1.07788         6.10709
     2013.80971         7.35418         6.09089
     2013.81245         2.83149         6.16725
     2013.81519         5.61979         6.11635
     2013.81793         2.38710         6.14642
     2013.82067        10.16240         6.27599
     2013.82340         5.44970         6.14874
     2013.82569         6.09362         7.62027
     2013.82888         9.23431         6.20311
     2013.83162         6.57362         6.16956
     2013.83436         0.73592         6.30839
     2013.83709         4.18122         6.27715
     2013.83983         8.53853         6.23088
     2013.84257         3.42183         6.11982
     2013.84531         3.70414         6.19038
     2013.84804       -12.10056         6.14874
     2013.85078        -3.95126         6.12791
     2013.85352         3.54005         6.26095
     2013.85626        -1.25565         6.30029
     2013.85900         3.41866         6.09205
     2013.86173        -1.96704         6.15799
     2013.86447        -2.02374         6.15221
     2013.86721         5.36757         6.07701
     2013.86995         3.00987         6.12097
     2013.87269         8.04018         6.16956
     2013.87542         4.01648         6.20427
     2013.87816         7.83878         6.12907
     2013.88090         3.79309         6.36160
     2013.88364         0.26839         6.45878
     2013.88637         0.27969         6.15221
     2013.88911        -5.40300         6.15221
     2013.89185        -8.40270         6.10940
     2013.89459        -9.00139         6.07933
     2013.89733        -2.21009         6.07123
     2013.90006        -3.54879         6.19848
     2013.90280        -4.65348         6.23550
     2013.90554        -2.77218         6.12097
     2013.90828         6.07413         6.11982
     2013.91102         2.59443         6.18113
     2013.91375        -4.68927         6.13601
     2013.91649        -5.68296         6.13370
     2013.91923        -1.45766         6.22278
     2013.92197        -9.38935         6.18576
     2013.92470        -7.75505         6.09205
     2013.92744        -8.94575         7.14711
     2013.93007        -7.13604         6.60570
     2013.93663        -5.81429        10.61771
     2013.93839        -2.12953         6.00876
     2013.94113        -0.14723         6.09784
     2013.94296        -1.58169        10.50781
     2013.94661        -0.23662         6.33152
     2013.94935        -5.38431         6.06429
     2013.95208        -3.40901         6.05735
     2013.95482        -2.90071         6.54439
     2013.95756        -0.18940         6.06197
     2013.96030         2.45988         6.20427
     2013.96303         2.12721         6.14295
     2013.96577         3.35751         6.08858
     2013.96851         6.83481         6.09205
     2013.97125         0.07712         6.10593
     2013.97399        -9.17558         6.14989
     2013.97672       -13.85528         6.12097
     2013.97946       -21.52697         6.17997
     2013.98220       -15.20267         6.13023
     2013.98494       -18.63136         6.09784
     2013.98767       -20.06506         6.14874
     2013.99041       -25.40876         6.17419
     2013.99315       -21.70545         6.19848
     2013.99589       -12.90715         6.11403
     2013.99863       -16.04784         6.16262
     2014.00410        -4.26924         6.10131
     2014.00684       -13.88893         6.19038
     2014.00958        -0.69263         6.21352
     2014.01232        -6.26932         6.25633
     2014.01505        -5.80202         6.24013
     2014.01779        -0.40172         6.20195
     2014.02053        -4.23741         6.11287
     2014.02327        -0.52911         6.36044
     2014.02600         4.59320         6.30376
     2014.02874         1.28450         6.28640
     2014.03148         6.89180         6.13254
     2014.03422        -6.84989         6.16493
     2014.03696         3.20041         6.15568
     2014.03969        -4.62728         6.19154
     2014.04243        -6.72498         6.52472
     2014.04517         0.95032         6.28293
     2014.04791        -2.00137         6.09321
     2014.05065        -0.33007         6.10246
     2014.05338        -1.62676         6.15915
     2014.05612        -6.66246         6.10478
     2014.05886        -5.57916         6.08742
     2014.06160        -2.01785         6.08048
     2014.06433        -3.16555         6.25286
     2014.06707         2.32476         6.30839
     2014.06981         3.04406         6.20542
     2014.07255         0.04136         6.18807
     2014.07529        -2.96833         6.13601
     2014.07802        -3.32103         6.37433
     2014.08076        -0.82973         6.12097
     2014.08350         1.72858         6.16262
     2014.08624        -2.42512         6.22625
     2014.08779         2.91440        19.61812
     2014.09253         5.88861         9.91896
     2014.09445        -4.92221         6.12097
     2014.09718        -7.32588         6.24244
     2014.09995         0.06232         6.34309
     2014.10266         2.88671         6.27484
     2014.10540         1.12401         6.04115
     2014.10814        -1.50269         6.15799
     2014.11088        -3.35038         6.32574
     2014.11362        -9.25508         6.13833
     2014.11635        -0.86077         6.21005
     2014.11909         0.06853         6.13023
     2014.12183        -0.85917         6.22393
     2014.12457        -0.53686         6.31533
     2014.12731        -4.47056         6.25980
     2014.13004        -0.46825         6.12676
     2014.13278        -2.14995         6.31880
     2014.13552        11.08135         6.37317
     2014.13826        -4.02634         7.08927
     2014.14099         3.45396         6.07701
     2014.14373        -1.10173         6.10362
     2014.14647        -5.26043         6.12791
     2014.14921        -9.76013         6.09437
     2014.15195        -9.11982         6.16146
     2014.15468        -2.75352         6.12676
     2014.15742         1.47079         6.13601
     2014.16016        -1.56991         6.38011
     2014.16290        -5.52761         6.22972
     2014.16564        -9.87230         6.10593
     2014.16837       -21.56000         6.33846
     2014.17111       -19.97170         6.30144
     2014.17385        -1.85139         6.37086
     2014.17659        -4.20209         6.28178
     2014.17932         3.43022         6.52009
     2014.18206        -5.14248         6.36970
     2014.18480        -0.51518         6.20774
     2014.18754        -6.97787         6.58719
     2014.19028        -7.57557         6.42407
     2014.19301        -4.91226         6.21005
     2014.19575        -0.65396         6.23897
     2014.19849        -1.73966         6.27831
     2014.20123       -13.21535         6.33384
     2014.20311       -11.28303        10.19777
     2014.20721         1.36046         7.87247
     2014.20944        -6.74844         6.18460
     2014.21218        -6.13214         6.26789
     2014.21492        -8.86583         6.32458
     2014.21765        -7.80853         6.16840
     2014.22039        -7.86222         9.30119
     2014.22313       -12.65192         6.25517
     2014.22587        -8.68462         6.17997
     2014.22861        -7.39031         6.20080
     2014.23134         1.22599         6.21584
     2014.23408        -2.33770         6.21815
     2014.23682        -2.99040         6.18923
     2014.23956       -13.09510         6.35119
     2014.24230        -8.54479         6.12213
     2014.24500        -8.53937         8.69500
     2014.24787        -6.27354         6.77576
     2014.25051        -6.35388         6.20195
     2014.25325        -7.25358         6.25864
     2014.25598        -4.19827         6.44952
     2014.25872        -4.36897         6.68321
     2014.26146        -0.42766         6.40672
     2014.26420        -9.81836         6.22393
     2014.26694       -10.19306         6.20889
     2014.26967        -6.29975         6.34078
     2014.27241        -5.16045         6.38937
     2014.27515        -5.56615         6.87294
     2014.27789       -11.96784         6.47613
     2014.28062       -10.41954         6.27368
     2014.28336        -5.17823         6.33731
     2014.28610        -1.11993         6.43795
     2014.28884        -8.00163         6.51662
     2014.29158        -8.63432         6.24360
     2014.29431        -4.30202         6.27599
     2014.29705        -8.20871         6.27137
     2014.29979       -13.33141         6.22278
     2014.30253        -5.58211         6.29450
     2014.30527        -6.49180         6.20427
     2014.30800        -2.45350         6.36970
     2014.32717        41.23163         6.43217
     2014.34633        42.79076         6.23203
     2014.36002        36.89828         6.80468
     2014.36276        39.13758         6.28756
     2014.38740        48.67732         6.23203
     2014.39014        59.38262         6.38590
     2014.39288        51.42192         6.56058
     2014.39561        52.79523         6.26211
     2014.39835        59.87753         6.40556
     2014.40109        43.74484         6.35929
     2014.40383        46.64714         6.35235
     2014.40657        44.81344         6.37433
     2014.40930        42.06875         6.40903
     2014.41204        42.06805         6.41944
     2014.41478        49.78136         6.36160
     2014.41752        50.35566         6.41135
     2014.42026        54.77896         6.48886
     2014.42299        49.68927         6.31417
     2014.42573        62.78457         6.43911
     2014.42847        45.98388         6.34309
     2014.43121        49.62318         6.33384
     2014.43397        49.65338         7.95460
     2014.43669        77.82277        13.87775
     2014.43897        52.87467        10.65704
     2014.44216        49.76138         7.15868
     2014.44490        54.02770         7.22115
     2014.44763        63.59800         6.63346
     2014.45037        47.53931         6.24591
     2014.45311        57.17761         6.38821
     2014.45585        54.98692         6.21352
     2014.45859        44.62522         6.18460
     2014.46132        56.34652         6.28756
     2014.46406        52.59383         6.26442
     2014.46680        48.82813         6.32921
     2014.46954        46.90143         6.38705
     2014.47159        53.40715         9.14155
     2014.47502        54.02601         6.34078
     2014.47775        52.29135         6.30839
     2014.48049        54.55865         6.48191
     2014.48323        57.02095         6.39052
     2014.48596        59.48626         6.37317
     2014.48870        62.59056         6.41482
     2014.49144        56.94387         6.26558
     2014.49418        46.36117         6.23550
     2014.49692        48.51147         6.21005
     2014.49965        52.04678         6.20080
     2014.50239        51.41408         6.45415
     2014.50513        54.93539         6.44605
     2014.50787        53.73469         6.74452
     2014.51060        51.93699         6.27831
     2014.51334        50.46530         6.31648
     2014.51608        53.61960         6.27252
     2014.51882        67.96191         6.43564
     2014.52156        67.70721         6.39515
     2014.52429        64.41751         6.50274
     2014.52703        50.52182         6.34656
     2014.52977        52.50712         6.40093
     2014.53210        63.37786         7.43286
     2014.53606        56.70983         9.49439
     2014.53798        65.23403         6.33152
     2014.54072        63.23934         6.40209
     2014.54346        45.90864        19.42608
     2014.54620        70.92595         6.38242
     2014.54893        70.73525         6.50158
     2014.55167        59.51555         6.31533
     2014.55441        59.16786         6.36391
     2014.55715        46.47316         6.33037
     2014.55989        58.25746         6.55017
     2014.56262        63.64777         6.26789
     2014.56536        61.96007         6.36970
     2014.56810        54.96038         6.27599
     2014.57084        53.28768         6.28293
     2014.57357        51.30998         6.35119
     2014.57631        62.14429         6.44258
     2014.57905        61.69059         6.45184
     2014.58179        53.14190         6.35235
     2014.58453        62.52220         6.51546
     2014.58726        62.85050         6.62999
     2014.59000        64.13781         6.35350
     2014.59274        61.53011         6.24360
     2014.59548        56.53042         6.37201
     2014.59822        63.71572         6.30491
     2014.60095        58.00202         6.39862
     2014.60369        66.13133         6.37086
     2014.60643        52.71963         6.23550
     2014.60917        57.54794         6.34193
     2014.61190        61.02324         6.37664
     2014.61464        60.51354         6.40209
     2014.61738        60.96085         6.54091
     2014.62012        65.22415         6.54207
     2014.62286        66.30946         6.25170
     2014.62559        66.79876         6.26095
     2014.62833        59.84106         6.45878
     2014.63107        74.86537         6.41713
     2014.63381        84.59767         6.86946
     2014.63655        70.76698         6.51315
     2014.63928        66.57528         6.39746
     2014.64202        58.86358         6.33499
     2014.64476        60.22389         6.34425
     2014.64750        59.72219         6.28178
     2014.65023        58.24450         6.28872
     2014.65297        65.69380         6.50158
     2014.65571        78.78310         6.57678
     2014.65845        73.83841         6.31417
     2014.66119        69.42171         6.37433
     2014.66392        80.09401         6.39284
     2014.66632        69.73953         6.95739
     2014.67020        62.26878        10.24751
     2014.67214        69.20093         6.40788
     2014.67488        58.70223         6.31070
     2014.67761        52.18253         6.22046
     2014.68035        60.39684         6.20658
     2014.68221        57.23324        10.47657
     2014.68661        62.60767        10.33312
     2014.68856        63.59575         6.36044
     2014.69130        66.79105         6.39746
     2014.69404        53.37036         6.11750
     2014.69678        54.91066         6.25864
     2014.69952        62.08597         6.19501
