# ================= DQRFIT RESULTS ================
# INPUT FILE: series/CULM.rad
# OUTPUT: LDETRENDED
# FILTER FUNCTION: f(t)
# f(t)=+line(t)+annual(t)
# line(t)=+P 1+P 2*t
# annual(t)=+P 3*sin(2*pi*t+P 4)
# heav(t)=(t<0?0:1)
# TOTAL OBSERVATIONS MTOT= 1786
# INITIAL TIME INTERVAL= 2022.7488 - 2017.6318 =  5.1170
# TOTAL OBSERVATIONS AFTER PREFILTER M= 1689
# TIME-SPAN= 2022.7488 - 2017.6318 =  5.1170
# OBSERVATIONS: USED M=  1689 REJECTED MTOT-M=    97 %USED=   94.5689
# N=  4 PARAMETERS
# MAXSIG= 175.00000
# MAXRES=  42.84964
# SCALE FACTOR FOR LENGTHS: SCL=  10.00000
# SCALE FACTOR FOR SIGMAS: SCLSIG=   1.00000
# CHI^2=   2866.510 DOF=  1685 CHI^2/DOF=   1.70119
# RMS=      8.757 SDEV=      8.760 MEAN=    0.03527
#  P #       PARAMETER +-    SIGMA %error PARAMETER NAME
# P 1 =      3065.68349 +-  277.281   9.04 YZERO                              
# P 2 =        -1.52617 +-    0.137   8.99 SLOPE                              
# P 3 =         5.24918 +-    0.272   5.17 ANNUAL AMPLITUDE                   
# P 4 =         2.90608 +-    0.071   2.44 ANNUAL PHASE                       
#       T            LDETRENDED       SIG_OBS
     2017.63175         6.66037         7.72014
     2017.63449         6.61855         7.64971
     2017.63723        -1.88227         7.57014
     2017.63997         7.41791         7.94839
     2017.64271        12.37208         7.78014
     2017.64544         2.85026         7.62884
     2017.64818         5.66944         7.73318
     2017.65092         9.15662         7.54536
     2017.65366         5.35280         7.61840
     2017.65623         1.61272         8.13099
     2017.66000        10.85747        15.78722
     2017.66187        10.99733         7.68753
     2017.66461        10.68851         7.87665
     2017.66675         2.31278        10.12657
     2017.76139        -2.72779        13.52948
     2017.76317        10.69693         7.75405
     2017.76591         2.51811         7.79970
     2017.76865         4.27929         7.70057
     2017.77138         6.98047         7.76318
     2017.77412         9.84165         7.84405
     2017.77686         6.88683         8.00448
     2017.77960         2.30700         8.10752
     2017.78234        10.16318         8.03447
     2017.78507         2.81136         7.63406
     2017.78781         9.19954         7.64449
     2017.79055         3.12772         7.77362
     2017.79329        12.30290         7.97839
     2017.79603         8.95308         7.72405
     2017.79876         8.70525         7.77101
     2017.80150         6.43543         7.89231
     2017.80424         6.72261         7.67188
     2017.80698        -3.70521         7.83100
     2017.80971         3.06697         7.80492
     2017.81245        -7.15485         7.83231
     2017.81519        -0.20368         7.74492
     2017.81793        -9.75950         7.71362
     2017.82067        -6.18032         8.27707
     2017.82340        -1.50714         7.66405
     2017.82614        -5.80096         7.61580
     2017.82888        -0.45278         7.67840
     2017.83162        10.37539         7.71883
     2017.83436        -1.99943         7.66145
     2017.83709        -4.12425         7.86492
     2017.83983        -2.41707         8.58619
     2017.84257        -2.07989         7.60275
     2017.84531        -9.40271         7.69666
     2017.84777       -12.29596         8.66836
     2017.85118        18.46125         9.80441
     2017.85352         8.52382         7.70318
     2017.85626         6.47300         7.91970
     2017.85900         1.18618         7.83361
     2017.86173        10.85836         7.94187
     2017.86447         2.59454         7.71753
     2017.86721        10.31771         7.64058
     2017.86995        -0.40811         7.66666
     2017.87259        -2.66507         8.26534
     2017.87502        -1.90337         9.72745
     2017.88093         5.45365         7.69536
     2017.88364         8.33178         7.79448
     2017.88637        -0.71404         7.69405
     2017.88911         8.03614         8.85749
     2017.89185         2.70132         7.88187
     2017.89459         5.51950         7.90796
     2017.89733         4.40668         7.68623
     2017.90006         5.12386         7.69927
     2017.90280         0.92603         7.79057
     2017.90554         0.34221         7.74753
     2017.90828        11.84839         7.93665
     2017.91102        40.93457         8.58880
     2017.91375         3.51275         7.91839
     2017.91649        -5.29907         7.68231
     2017.91923         3.57310         7.85318
     2017.92470        -1.03654         7.69144
     2017.92744        -4.22336         7.62101
     2017.93018       -10.13718         7.68492
     2017.93292         0.72900         7.50623
     2017.93566       -14.03983         7.60797
     2017.93839        -8.29665         7.75666
     2017.94113        -2.10447         7.55449
     2017.94387        -4.07229         7.58449
     2017.94661         6.23289         7.70710
     2017.94935         1.30007         7.65492
     2017.95208         1.29825         7.84666
     2017.95482         5.76642         7.79709
     2017.95756        -1.91140         8.10491
     2017.96030        -4.42722         7.58058
     2017.96303        -4.22104         8.74793
     2017.96577        -0.46186         7.79709
     2017.98220        26.84621         7.45015
     2017.98494        31.32239         7.51667
     2017.98767        30.07656         7.87405
     2017.99041        12.82674         7.64971
     2017.99315         0.94492         7.67971
     2017.99589        -5.03190         7.67710
     2018.00136        -3.16254         7.63275
     2018.00410       -11.07936         7.66275
     2018.00684        -6.91919         7.64319
     2018.00958        -0.61801         7.66275
     2018.01232       -10.50483         7.67840
     2018.01505        -4.53965         7.68362
     2018.01779        -5.04247         7.68753
     2018.02053        -3.53029         7.62101
     2018.02327        -8.27612         7.63666
     2018.02874         2.78424         7.61971
     2018.03148       -10.15658         7.68623
     2018.03422       -10.53740         7.72796
     2018.03696        -8.97922         7.63666
     2018.03969        -4.62805         7.61840
     2018.04243       -10.08087         7.81927
     2018.04517        -5.66669         7.77231
     2018.04791        -1.76251         8.03708
     2018.05065        -5.80433         7.57014
     2018.05612         5.87103         7.60797
     2018.05886        -9.79280         8.06056
     2018.06160         0.59538         7.58580
     2018.06433        -0.00244         7.80231
     2018.06707        -5.80126         7.74883
     2018.07529       -12.95573         8.00578
     2018.07802       -15.05955         8.05013
     2018.08898        -7.54483         8.06578
     2018.09171       -22.45666         7.96274
     2018.09445       -12.12248         7.90405
     2018.09719       -15.64430         8.05273
     2018.09993       -19.84012         7.79057
     2018.10266       -18.53594         7.84144
     2018.10540       -14.25076         8.37490
     2018.10814       -15.45758         8.18969
     2018.11088       -12.41741         7.70318
     2018.11362       -12.20023         7.63014
     2018.11635        -7.10505         7.77883
     2018.11909        -6.83587         8.06187
     2018.12183        -2.21369         7.91318
     2018.12457        23.37049         7.95622
     2018.13004        30.71684         9.34399
     2018.13867        27.46200         9.12356
     2018.14099        19.69456         7.52971
     2018.14373        19.31573         7.70188
     2018.14647        17.48391         7.76579
     2018.14921        20.84309         7.77101
     2018.15468       -21.99055         7.95622
     2018.16016        -5.66919         8.28751
     2018.16290         4.01898         7.87274
     2018.16564        10.59316         8.03187
     2018.16837         0.36434         7.72796
     2018.17111       -18.42548         7.67971
     2018.17385        -2.31030         7.85448
     2018.17659        -3.73712         7.83361
     2018.17932        -0.97495         7.60927
     2018.18206        -7.81077         8.01882
     2018.18754        -2.64941         7.61971
     2018.19028        -8.42923         7.59754
     2018.19301        -2.21005         7.60667
     2018.19575         4.95212         8.04491
     2018.19849       -16.03370         7.68231
     2018.20123         0.31948         7.78535
     2018.20397        -3.41234         7.54667
     2018.20670        -2.56316         7.58188
     2018.20944        -6.23998         7.58449
     2018.21218       -13.68080         7.52710
     2018.21492       -22.72763         7.36537
     2018.21765        -2.51045         7.35624
     2018.22039         1.12273         7.78927
     2018.22587       -15.04491         7.45667
     2018.22861       -12.71573         7.45145
     2018.23134        24.98644         8.84705
     2018.23408       -20.60938         7.52971
     2018.23682       -13.62820         7.62101
     2018.23956        -6.37102         7.45145
     2018.24230       -12.59684         7.64449
     2018.24503       -14.03366         7.90665
     2018.24777        25.07451         8.49750
     2018.25325        21.41687         7.74101
     2018.25598       -16.06395         7.91187
     2018.25872       -12.72277         7.69927
     2018.26146        -8.59359         7.63797
     2018.26420        -1.72441         7.48797
     2018.26694       -17.35724         7.49058
     2018.26967       -14.52106         7.82057
     2018.27241       -12.64488         7.47754
     2018.27515        -6.33170         7.38102
     2018.28062       -14.45034         7.71101
     2018.28336        -9.26717         7.60145
     2018.28610       -14.05499         7.40841
     2018.28884         0.37719         8.33446
     2018.29431       -14.08145         7.57014
     2018.29705       -13.33527         7.29885
     2018.29979       -10.83810         7.39406
     2018.30253       -14.68592         7.53623
     2018.30527       -14.44574         7.40972
     2018.30800       -15.94356         7.24537
     2018.31074        -5.40138         7.30407
     2018.31348        -9.46820         7.62623
     2018.31622        -5.56702         7.30537
     2018.31895        -3.57585         7.45276
     2018.32169       -18.38267         7.91578
     2018.32443       -12.74749         7.51667
     2018.32717       -15.73031         7.45276
     2018.32991       -12.83013         7.61449
     2018.33265        -5.92595         7.88187
     2018.33541       -11.66774         8.42446
     2018.33812        -4.48260         7.80622
     2018.34086       -10.79242         7.39146
     2018.34360        -8.52524         8.01361
     2018.34633        -6.74006         8.04230
     2018.34907        -5.68988         7.44102
     2018.35181        -4.62871         8.29794
     2018.35455       -15.39253         7.36537
     2018.35728        -8.15235         7.30146
     2018.36002       -15.47617         7.51667
     2018.36276       -12.45899         7.58188
     2018.36550        -2.81581         7.36537
     2018.36824        -7.38263         7.33407
     2018.37097        -6.41046         7.60275
     2018.37371       -11.15628         7.30146
     2018.37645        -3.47910         7.65753
     2018.37919        -6.46692         7.41624
     2018.38193       -16.39974         7.77883
     2018.38466        -5.40356         7.30668
     2018.38740        -6.70039         7.23364
     2018.39014        -6.11021         7.36407
     2018.39288         1.37697         7.53754
     2018.39561        -3.54185         7.34320
     2018.39835         3.55933         7.43450
     2018.40109         2.10851         7.39015
     2018.40383         5.60568         7.73188
     2018.40657        -3.08314         7.49189
     2018.40930         1.58604         7.65492
     2018.41204         6.35822         7.65232
     2018.41478        -0.61260         7.42928
     2018.42299        -5.94907         7.81274
     2018.42573         5.85911         7.75536
     2018.42847         0.70429         7.41754
     2018.43121        -0.46553         7.43580
     2018.43394         0.83965         7.75014
     2018.43668        -6.69817         7.68101
     2018.43942        -7.28700         7.85187
     2018.44216        -4.40282         7.42928
     2018.44490        -1.08764         7.45928
     2018.44763        -5.08146         7.53102
     2018.45037        -3.51828         7.53884
     2018.45311         0.65390         7.32755
     2018.45585        -4.87893         7.48145
     2018.45859        -4.97575         7.61840
     2018.46132        -7.16357         7.78405
     2018.46406         8.06961         7.50232
     2018.46680        -0.46521         7.49189
     2018.46954         0.93297         7.54145
     2018.47227        -0.39686         7.48145
     2018.47501        -1.22168         7.36407
     2018.47775        -1.63550         7.40319
     2018.48049        -2.66232         7.70710
     2018.48323         3.43386         7.50363
     2018.48596        -3.26396         7.49450
     2018.48870         2.16822         7.31842
     2018.49144        -0.15461         7.29233
     2018.49418        -0.67743         7.45406
     2018.49692        -5.06625         7.63536
     2018.49965        -1.16607         7.37580
     2018.50239        -2.64889         7.32885
     2018.50513        -0.89671         7.34581
     2018.50787        13.36046         7.81927
     2018.51049         4.43546         8.19360
     2018.51334         4.29182         7.62232
     2018.51608        -3.52800         7.43580
     2018.51882        -2.19382         7.43841
     2018.52156         4.90136         7.65362
     2018.52429        -5.47847         7.30798
     2018.52703        -3.07529         7.38624
     2018.52977         1.19289         7.42798
     2018.53251        -1.65693         7.37059
     2018.53520         0.90718         7.62232
     2018.53806        -5.44646         7.63406
     2018.54061         0.94144         8.79488
     2018.54346         7.50479         7.66405
     2018.54620         0.44396         7.56623
     2018.54893         3.16514         7.41754
     2018.55167         4.10032         7.56362
     2018.55441         2.74450         7.37841
     2018.55715        -1.22532         7.61058
     2018.55989         1.75385         7.89752
     2018.56262         9.01103         7.60275
     2018.56536        -7.19279         7.83100
     2018.56810         4.50339         7.39537
     2018.57084        10.22057         8.02013
     2018.57357         3.71575         7.75796
     2018.57631        -0.44708         8.36707
     2018.57905         4.01110         7.80622
     2018.58179         4.20028         7.80101
     2018.58453         6.45246         7.89361
     2018.58726         1.30964         7.37189
     2018.59000         6.03282         7.35885
     2018.59274         9.86600         7.57667
     2018.59548         1.00617         7.49450
     2018.59822         9.56635         7.49710
     2018.60095        -0.79247         7.36798
     2018.60369        15.72471         7.47493
     2018.60643         4.14589         8.01882
     2018.60917         7.54007         7.52710
     2018.61190        11.88324         7.43580
     2018.61464        12.11242         8.28881
     2018.61738         9.11060         7.39276
     2018.62012        11.45078         7.42928
     2018.62286         3.57196         7.42145
     2018.62559        -1.13186         7.73970
     2018.62833         0.92831         7.73579
     2018.63107        14.13449         7.46711
     2018.63381         2.25367         7.91448
     2018.63655         8.41685         7.42015
     2018.63928        13.97803         7.81274
     2018.64202        10.17521         8.32664
     2018.64476        10.61739         7.30016
     2018.64750         7.69356         7.48928
     2018.65023         9.39574         8.23795
     2018.65297         4.96592         7.91578
     2018.65571         7.72110         7.51928
     2018.65845         9.47528         7.55188
     2018.66119         7.76146         7.49580
     2018.66392         4.59663         8.14143
     2018.66666        13.26081         7.35233
     2018.66940        -0.76101         7.73318
     2018.67214         7.60517         7.61058
     2018.67488         4.87435         7.69014
     2018.67761         2.68953         7.54145
     2018.68035         9.65870         7.69014
     2018.68309         2.91988         7.73970
     2018.68583        -0.15494         7.79448
     2018.68856         7.90724         7.50884
     2018.69071         2.54451         9.84484
     2018.71431       -11.43946        16.71849
     2018.71594         0.09702         7.43450
     2018.71868        -5.34780         7.51797
     2018.72142        -5.65762         7.53102
     2018.72416        -4.39144         8.06839
     2018.72689         8.24674         7.69536
     2018.72963         2.28092         7.47493
     2018.73237        -1.65191         7.79318
     2018.73511        -0.04473         7.59362
     2018.73785         3.54045         7.79579
     2018.74058        -1.16037         7.46580
     2018.74332         8.26681         7.96665
     2018.74606         3.31799         7.51145
     2018.74880        -3.59383         7.60797
     2018.75154        -7.84566         8.20142
     2018.75427         5.50352         8.38272
     2018.75701         2.64570         7.56623
     2018.75975         3.25188         7.44363
     2018.76249         6.81806         7.86622
     2018.76522         5.20324         7.64710
     2018.76796         2.58841         7.48406
     2018.77070         6.50359         7.48145
     2018.77344         5.01277         7.60667
     2018.77618         7.02995         7.97187
     2018.77891         5.48213         7.97317
     2018.78165         5.25931         7.93013
     2018.78439         3.42148         7.64971
     2018.78713         4.83166         7.49841
     2018.78987        -5.90516         7.57406
     2018.79260         1.86202         7.52841
     2018.79534        12.85520         7.42928
     2018.79808         5.23138         7.50232
     2018.80082         2.79556         7.55971
     2018.80355         8.66473         7.50623
     2018.80629         3.61291         7.82057
     2018.80903        -0.26991         7.55058
     2018.81177         1.59327         8.19882
     2018.81451        -1.06155         8.43359
     2018.81724        -2.43837         8.12186
     2018.81998         3.48580         8.12186
     2018.82272         8.06798         7.62493
     2018.82546         3.53316         8.08926
     2018.82820         5.37234         7.72666
     2018.83093         1.06952         7.60145
     2018.83367         5.67470         7.59884
     2018.83641         5.60987         8.22099
     2018.83915        -0.00195         7.92883
     2018.84188         0.79823         7.91578
     2018.84462         5.50541         7.75666
     2018.84736        -4.19541         7.85448
     2018.85010        10.16177         7.99795
     2018.85284         3.38995         7.56493
     2018.85557        -4.72388         8.23925
     2018.85831         7.42230         7.48537
     2018.86105         3.09648         7.56493
     2018.86379         7.00966         7.57927
     2018.86653         9.56084         7.54275
     2018.86926        -5.52998         8.00448
     2018.87183        -4.16106         9.15095
     2018.87474         4.50737         7.83100
     2018.87748         0.54255         7.81274
     2018.88021         4.09573         7.78405
     2018.88295         8.24191         8.05795
     2018.88569        12.51609         7.59362
