# ================= DQRFIT RESULTS ================
# INPUT FILE: series/CWAK.rad
# OUTPUT: LDETRENDED
# FILTER FUNCTION: f(t)
# f(t)=+line(t)+annual(t)
# line(t)=+P 1+P 2*t
# annual(t)=+P 3*sin(2*pi*t+P 4)
# heav(t)=(t<0?0:1)
# TOTAL OBSERVATIONS MTOT= 3918
# INITIAL TIME INTERVAL= 2017.4726 - 2006.0315 = 11.4411
# TOTAL OBSERVATIONS AFTER PREFILTER M= 3898
# TIME-SPAN= 2017.4726 - 2006.0315 = 11.4411
# OBSERVATIONS: USED M=  3898 REJECTED MTOT-M=    20 %USED=   99.4895
# N=  4 PARAMETERS
# MAXSIG= 175.00000
# MAXRES= 745.98304
# SCALE FACTOR FOR LENGTHS: SCL=  10.00000
# SCALE FACTOR FOR SIGMAS: SCLSIG=   1.00000
# CHI^2=   5093.648 DOF=  3894 CHI^2/DOF=   1.30808
# RMS=      7.473 SDEV=      7.461 MEAN=    0.45127
#  P #       PARAMETER +-    SIGMA %error PARAMETER NAME
# P 1 =       145.12022 +-   70.472  48.56 YZERO                              
# P 2 =         0.22394 +-    0.035  15.65 SLOPE                              
# P 3 =         6.97684 +-    0.159   2.27 ANNUAL AMPLITUDE                   
# P 4 =        -3.02166 +-    0.032   1.06 ANNUAL PHASE                       
#       T            LDETRENDED       SIG_OBS
     2006.03149        13.94323         7.11617
     2006.03423         4.98661         7.02582
     2006.03697         6.49800         6.75133
     2006.03970        10.48439         6.57520
     2006.04244         7.36277         6.61294
     2006.04518         5.72616         6.76848
     2006.04792         5.86555         6.52831
     2006.05065         5.14693         6.63581
     2006.05339        -1.59468         6.67928
     2006.05613        -0.98829         6.40478
     2006.05887         1.38610         6.41279
     2006.06161        -7.32252         6.42995
     2006.06434         0.30387         6.85198
     2006.06670        -2.33766         7.73950
     2006.06982         0.30264         6.32701
     2006.07256        -9.16497         6.45396
     2006.07530        -1.17758         6.33731
     2006.07803        -8.54920         6.38534
     2006.08077        -4.21581         6.36361
     2006.08351         5.28258         6.33273
     2006.08625        -3.45504         6.42995
     2006.08898        -0.56165         6.81766
     2006.09169        -3.44326         6.50200
     2006.09328         9.17539        16.77139
     2006.10065        -0.51526         9.42418
     2006.10267        -3.71371         6.49056
     2006.10541       -11.25133         6.53631
     2006.10815       -19.19694         6.41737
     2006.11044        -8.07345         8.34109
     2006.11363        -3.82717         6.36933
     2006.11636        -5.04078         6.43338
     2006.11910        -5.13739         6.47455
     2006.12184         6.72399         6.36933
     2006.12458        -7.77562         6.51458
     2006.12731        -6.81823         6.41050
     2006.13011         1.53714         8.97127
     2006.13253        -1.07340         7.67087
     2006.13650         5.48271        12.52021
     2006.13827         4.84132         6.47684
     2006.14100         2.52070         6.46654
     2006.14258        -7.26665        16.53464
     2006.14648        -0.95152         6.44596
     2006.14922         7.62486         6.56834
     2006.15196         4.46025         6.46654
     2006.15469        -3.91436         6.35789
     2006.15743         1.93102         6.48828
     2006.16017        -0.48659         6.45282
     2006.16174        14.63806        19.44195
     2006.16550         3.76722         6.85312
     2006.16838        -6.61643         6.57748
     2006.17112         5.24596         6.35103
     2006.17386         7.33835         6.35675
     2006.17659         9.07773         6.41851
     2006.17937         6.73611         6.50886
     2006.18111         9.93472        13.92011
     2006.18481         8.37489         6.49171
     2006.18755         6.12428         6.37276
     2006.19029        11.00767         6.50429
     2006.19302         7.83205         6.74332
     2006.19576         7.29144         6.50200
     2006.19850         8.24083         6.65068
     2006.20124         2.02321         6.68499
     2006.20397       -14.03440         6.88629
     2006.20671        -6.60601         6.94805
     2006.20945         4.82037         6.65983
     2006.21219         1.37376         6.59578
     2006.21493         1.59715         6.64153
     2006.21766         3.56154         6.62323
     2006.22040        -7.94208         6.65869
     2006.22314        -4.83069         6.67699
     2006.22588         3.59270         6.88743
     2006.22862        -2.12492         6.63238
     2006.23135         1.59447         6.62781
     2006.23683         5.25724         6.43338
     2006.23957         2.32663         6.52487
     2006.24209        -6.01093         7.81498
     2006.24504         5.23740         6.41165
     2006.24778        -1.85721         6.36933
     2006.25046       -12.31081         6.61523
     2006.25319         5.97058         6.62209
     2006.25599         1.80595         6.62895
     2006.25873         5.04434         6.48256
     2006.26147         9.43673         6.71702
     2006.26575        13.50477        19.48999
     2006.27242         8.61427         6.68499
     2006.27516        -0.11934         6.80737
     2006.27790         2.48505         6.72045
     2006.28063         4.54643         6.56605
     2006.28337         0.38182         6.56834
     2006.28611        12.77221         6.59578
     2006.28885         3.83559         6.45740
     2006.29156        -0.98401         6.59007
     2006.29521         8.87617        10.03721
     2006.29706        11.68676         6.54317
     2006.29980        13.01514         6.61294
     2006.30254         6.49253         6.79022
     2006.30528         0.52392         6.56147
     2006.30777         4.05336         7.20538
     2006.31075         3.31469         6.37962
     2006.31343         7.98209         7.45586
     2006.31657         2.75039         7.60568
     2006.32172        -0.56377         6.58549
     2006.32444         9.82662         6.52716
     2006.32675        -6.21389         8.12378
     2006.32995         5.82939         6.52373
     2006.33539         2.59717         6.48599
     2006.34087         3.58295         6.41393
     2006.34355         9.34035         6.64153
     2006.34634        10.74472         6.48027
     2006.34908         7.03611         6.73189
     2006.35182         0.21049         6.55118
     2006.35456         1.29188         6.37505
     2006.35729         5.77927         6.52030
     2006.36003         3.78665         6.42880
     2006.36225         1.46016         8.62244
     2006.36551        -0.94557         6.51115
     2006.36781         3.19991         8.09062
     2006.37098         0.13520         6.68156
     2006.37372         5.26459         6.94690
     2006.37646         7.16298         6.60150
     2006.37920         1.86336         6.71130
     2006.38157         2.19783         7.67774
     2006.38467        14.54414         6.53860
     2006.38741        10.61552         6.59578
     2006.39015        -2.27809         7.39638
     2006.39289         2.05230         6.73532
     2006.39562        -0.98632         6.80051
     2006.39836         6.51107         6.73875
     2006.40110         6.85146         6.73646
     2006.40384         4.19484         6.57748
     2006.40658         5.58723         6.78450
     2006.40931         0.26262         6.57405
     2006.41205         6.18801         6.81881
     2006.41479        -2.10761         6.75247
     2006.41753         8.38178         6.96177
     2006.41991         8.62824         8.03229
     2006.42300         7.69855         6.73646
     2006.42574         4.23294         6.95148
     2006.42848         2.35333         8.36053
     2006.43122         4.48371         7.30031
     2006.43395        -2.38690         6.83253
     2006.43669         0.93049         6.56033
     2006.43894         9.45198         8.78142
     2006.44217        16.42526         6.64954
     2006.44491         3.64965         6.57634
     2006.44712        -0.72785         8.90608
     2006.45038         7.21442         6.59121
     2006.45386        -0.79736        11.76994
     2006.45586         9.41520         6.89086
     2006.46475         6.25620         9.17485
     2006.46681        13.45474         6.64268
     2006.46957         8.90812         6.82453
     2006.47228         8.13852         6.82338
     2006.47502         5.66190         6.67699
     2006.47658       -26.47345        19.61351
     2006.48391        15.07391         9.77530
     2006.48597        11.82745         6.87942
     2006.48871        14.72284         7.03611
     2006.49126         8.25427         7.27401
     2006.49419         8.55361         6.84397
     2006.49693        -0.67800         6.72388
     2006.49966         6.70739         6.79365
     2006.50240        -0.08223         6.74790
     2006.50514        14.52516         6.83025
     2006.50843         7.82342         8.98957
     2006.51067         8.26592         6.73074
     2006.51311        -0.12663         7.55993
     2006.52256        11.90626        13.25562
     2006.52430        11.66287         7.34835
     2006.52610        -3.31554        12.76268
     2006.52978         9.86264         6.80851
     2006.53252        11.09503         6.70787
     2006.53525         6.11842         6.69757
     2006.53799         7.81980         6.74561
     2006.54073         9.97819         6.89429
     2006.54346        11.80658         6.49285
     2006.54700         4.90479         9.64492
     2006.54881         9.54338         6.91488
     2006.55168         5.79674         6.50886
     2006.55442         6.42612         6.54660
     2006.55716         2.06951         6.52030
     2006.55990        12.35290         6.83368
     2006.56258        14.28430         6.79136
     2006.56606         5.26452         8.90036
     2006.56774         6.93214         7.83671
     2006.57175        18.68124        11.44855
     2006.57358        11.40383         6.54546
     2006.57632        16.74922         6.53288
     2006.57879         7.41067         7.40668
     2006.58171        16.58601         7.20424
     2006.58478        12.68433         7.49245
     2006.59001        19.70615         7.11503
     2006.59275        11.71054         6.69872
     2006.59549         7.57593         6.80966
     2006.59823        10.24831         6.73532
     2006.60096         6.98370         6.66326
     2006.60370        14.21009         6.56605
     2006.60644         8.62247         6.70444
     2006.60916         9.22987         6.67127
     2006.61191        12.74025         6.43223
     2006.61374        18.28584        13.41116
     2006.61755         7.37299         7.08415
     2006.62013        12.40341         6.66669
     2006.62248        18.89988         7.91677
     2006.62560        11.79418         7.18136
     2006.62834         8.79157         6.67013
     2006.63108         4.56196         6.47226
     2006.63382        10.37734         6.74904
     2006.63578        14.98190        10.98192
     2006.63929        23.61312         6.66784
     2006.64203        21.16250         6.48027
     2006.64477        15.63789         6.49743
     2006.64751        14.35828         6.78564
     2006.65024        15.16267         6.94233
     2006.65191        10.25529        16.85373
     2006.65584        13.40541         7.26829
     2006.65846         4.10583         7.24770
     2006.66120        19.22521         7.05899
     2006.66393        11.36560         7.11389
     2006.66667        14.81499         7.51190
     2006.66941        14.92037         6.86684
     2006.67215        16.37676         6.80966
     2006.67488        12.01815         7.25456
     2006.67762         8.24353         7.05899
     2006.68036        12.01092         7.06471
     2006.68310        18.35531         7.20195
     2006.68584        12.70969         7.09559
     2006.68857        20.41008         6.83368
     2006.69475        20.39070         9.75929
     2006.69679        19.70224         6.91030
     2006.69953        29.64063         6.76505
     2006.70226        29.89702         6.91831
     2006.70500        11.06940         6.63581
     2006.70774        15.47779         6.62438
     2006.71008        14.98227         8.11463
     2006.71321        15.57256         6.83711
     2006.71595        19.55295         6.62666
     2006.71936        21.13219         9.23204
     2006.72143        20.77672         6.99494
     2006.72417         9.09811         6.96978
     2006.72656        14.02057         8.10663
     2006.73870        19.96986        10.41578
     2006.74059        15.95043         6.72617
     2006.74333        13.14882         6.65869
     2006.74607        14.21621         6.82224
     2006.74881        18.91259         6.77992
     2006.75154        10.70198         6.82338
     2006.75428        10.54437         8.64303
     2006.75702        16.91875         6.65754
     2006.75976        11.40514         6.57520
     2006.76250        18.66053         6.70215
     2006.76523        16.87391         6.74104
     2006.76797        14.48130         6.71359
     2006.77071        15.61769         6.62781
     2006.77345         8.30608         6.77992
     2006.77619        15.33946         6.63581
     2006.77892        18.98385         6.58320
     2006.78097        24.09639         9.48022
     2006.79085        17.45818        13.06119
     2006.79261        22.11378         7.12647
     2006.79535        13.47917         6.49743
     2006.79809        16.56756         6.59578
     2006.80083        16.59794         6.84854
     2006.80356         6.60833         6.48141
     2006.80630        20.10772         6.41737
     2006.80904         8.33111         6.43795
     2006.81126        17.74161         8.08833
     2006.81452        23.62288         6.78335
     2006.81725        20.06827         6.77992
     2006.81999        13.61365         6.46540
     2006.82273        13.74404         6.44253
     2006.82546        25.45543         6.60265
     2006.82826        17.47880         6.64611
     2006.83100        17.93719         6.83482
     2006.83374        20.37757         6.69300
     2006.83648        11.45596         6.69757
     2006.83921        12.92435         6.77535
     2006.84195         9.20074         6.91602
     2006.84469        21.13512         6.90916
     2006.84737         1.62052         6.54660
     2006.85011        10.24191         6.83711
     2006.85275        16.93732        12.36695
     2006.85558        21.60268         6.69643
     2006.85832         8.79707         6.74790
     2006.86106        13.46246         6.77763
     2006.86380         4.70484         6.66784
     2006.86653        12.39723         6.69529
     2006.86927        15.78062         6.61866
     2006.87192        15.58103         6.74904
     2006.87475        17.93639         6.71931
     2006.87749        12.79178         6.51344
     2006.88022         8.62416         6.66898
     2006.88296         5.39255         6.69872
     2006.88570        11.63894         6.64725
     2006.88844        10.31033         6.63925
     2006.89118        11.04871         6.57405
     2006.89322        13.06325         9.29151
     2006.89665         5.29749         6.70901
     2006.89939       -43.98013         6.45854
     2006.90213        12.59526         6.52144
     2006.90486        17.42065         6.55118
     2006.91034        11.53942         6.42880
     2006.91308         2.99281         7.04755
     2006.91582        -9.70281         6.39792
     2006.91855         0.64158         6.41393
     2006.92059         6.57013         9.38987
     2006.92403         0.99135         6.44253
     2006.92677         0.89474         6.51115
     2006.92951         1.05413         6.64039
     2006.93224         1.87552         7.86416
     2006.93498         4.08890         6.85312
     2006.93772        13.30629         6.61637
     2006.94046        15.14468         6.55004
     2006.94319         6.51606         6.50657
     2006.94593         6.14145         6.58892
     2006.94867         9.73484         6.65526
     2006.95141        11.08922         6.72388
     2006.95415        12.00361         7.12075
     2006.95688        17.69500         6.52259
     2006.95962        11.16438         6.50314
     2006.96234         4.23978         6.55347
     2006.96501         3.08618         7.04526
     2006.96784        -2.12045         6.73074
     2006.97057        -4.89007         6.94690
     2006.97327        -1.56667         6.64611
     2006.97605        -7.23729         6.58320
     2006.97879        -7.12591         6.51458
     2006.98053        -3.37730        12.36810
     2006.98426         1.32587         6.56490
     2006.98700        -5.26875         6.72845
     2006.98974        -3.72436         6.67356
     2006.99248        -2.61997         6.66555
     2006.99521        -6.06859         6.77420
     2006.99795         2.80180         6.65297
     2007.00343        -4.65243         6.73760
     2007.00534        -3.26785        10.98306
     2007.00788         1.57658        16.88576
     2007.01164        -5.03326         7.32090
     2007.01438        -4.99588         6.80508
     2007.01712       -18.27049         6.60951
     2007.01985        -7.68510         6.61065
     2007.02259       -12.63872         7.26600
     2007.02533        -6.04533         6.57863
     2007.02807        -9.28394         6.47341
     2007.03081       -10.37456         6.38305
     2007.03354       -13.76117        19.74046
     2007.03628        -9.13178         6.29156
     2007.03902        -9.04640         6.26983
     2007.04176       -14.59901         6.43223
     2007.04449       -30.81562         6.22293
     2007.04723       -41.60323         6.46426
     2007.04997       -24.60985         8.06088
     2007.05271       -11.24846         6.39220
     2007.05545       -15.90007         6.32129
     2007.05818       -23.45769         6.36018
     2007.06092       -20.48530         6.44253
     2007.06366       -20.82191         6.38077
     2007.06529       -14.51428        14.99863
     2007.06914       -14.49814         6.35103
     2007.07187         0.30325         6.27440
     2007.07461        -6.53937         6.23437
     2007.07735        -4.32598         6.28355
     2007.08009       -10.69159         6.34417
     2007.08282        -3.26721         6.32587
     2007.08444        15.24443        17.03673
     2007.08830        -2.61043         6.32930
     2007.09104         1.61596         6.33731
     2007.09378       -11.32166         6.37047
     2007.09651       -13.08627         6.63238
     2007.09925       -13.02888         6.40593
     2007.10199        -7.25550         6.29613
     2007.10473       -19.17011         6.41165
     2007.10747       -16.09872         6.44939
     2007.11020        -6.61034         6.29270
     2007.11294         0.36105         6.35560
     2007.11569        -7.44756         6.34302
     2007.11842       -10.60118         6.36132
     2007.12115       -11.83279         6.40936
     2007.12389        -7.74240         6.33502
     2007.12545        -2.36875        17.12365
     2007.12937        -4.03763         6.61751
     2007.13211        -1.50724         6.44253
     2007.13484        -3.31885         6.32244
     2007.13758        -1.47347         6.44138
     2007.14020        -2.65305         6.69986
     2007.14306         2.05231         7.65143
     2007.14580        -9.05731         6.41165
     2007.14853        -5.45692         6.34760
     2007.15099        -4.92247         7.21453
     2007.15401        -2.04015         6.33273
     2007.15948        -3.73137         6.34531
     2007.16222        -0.97599         6.51916
