# ================= DQRFIT RESULTS ================
# INPUT FILE: series/DANP.rad
# OUTPUT: LDETRENDED
# FILTER FUNCTION: f(t)
# f(t)=+line(t)+annual(t)
# line(t)=+P 1+P 2*t
# annual(t)=+P 3*sin(2*pi*t+P 4)
# heav(t)=(t<0?0:1)
# TOTAL OBSERVATIONS MTOT=  923
# INITIAL TIME INTERVAL= 2022.7488 - 2020.1177 =  2.6311
# TOTAL OBSERVATIONS AFTER PREFILTER M=  907
# TIME-SPAN= 2022.7488 - 2020.1177 =  2.6311
# OBSERVATIONS: USED M=   907 REJECTED MTOT-M=    16 %USED=   98.2665
# N=  4 PARAMETERS
# MAXSIG= 175.00000
# MAXRES=  20.97537
# SCALE FACTOR FOR LENGTHS: SCL=  10.00000
# SCALE FACTOR FOR SIGMAS: SCLSIG=   1.00000
# CHI^2=    782.941 DOF=   903 CHI^2/DOF=   0.86704
# RMS=      5.649 SDEV=      5.651 MEAN=    0.05315
#  P #       PARAMETER +-    SIGMA %error PARAMETER NAME
# P 1 =      3235.14119 +-  463.023  14.31 YZERO                              
# P 2 =        -1.60241 +-    0.229  14.29 SLOPE                              
# P 3 =         3.22580 +-    0.260   8.07 ANNUAL AMPLITUDE                   
# P 4 =         2.83759 +-    0.109   3.84 ANNUAL PHASE                       
#       T            LDETRENDED       SIG_OBS
     2020.11772        -3.85108         5.11947
     2020.12046        -5.58869         5.13903
     2020.12320        -4.55030         4.94721
     2020.12594        -4.01791         4.95000
     2020.12867        -4.65553         4.93697
     2020.13141        -5.15014         5.00867
     2020.13415        -6.32175         4.95466
     2020.13689         0.15763         5.02636
     2020.13963        -1.73798         5.04871
     2020.14236        -2.28959         4.97887
     2020.14510         7.72880         5.13158
     2020.14784        -7.90682         5.03008
     2020.15058        -5.23743         5.07012
     2020.15331        -7.80704         4.97514
     2020.15605        -6.10465         4.93976
     2020.15879        -0.16827         4.94907
     2020.16153         2.01512         5.08875
     2020.16427         2.20951         4.96956
     2020.16700         1.85389         5.00029
     2020.16975         3.87029         5.45096
     2020.17248        -6.13333         6.45847
     2020.17522        -1.37294         5.84391
     2020.17796         5.72044         5.67072
     2020.18343         0.92322         5.37088
     2020.18617         0.75360         6.13070
     2020.18891        -3.57001         5.82436
     2020.19164         6.78938         5.59902
     2020.19438        -1.73723         6.15491
     2020.19986        -5.16046         5.89233
     2020.20260        -6.60507         5.72100
     2020.21081        -7.95491         5.90350
     2020.21355        -5.75852         5.42210
     2020.21629        -0.74714         5.22562
     2020.21900        -3.33878         5.12879
     2020.22176        -4.03536         5.20048
     2020.22450         3.93702         5.04405
     2020.22724        -0.91659         5.26287
     2020.22997         1.13180         5.72845
     2020.23201         4.37707        10.91496
     2020.23819         0.46196         8.09357
     2020.24093        -1.16065         6.08508
     2020.24641       -10.61487        10.27526
     2020.24914        -3.54749         5.74707
     2020.25188        -5.36810         5.67258
     2020.25462        -7.25471         6.38305
     2020.26009         4.07106         4.98446
     2020.26283         5.06344         4.96956
     2020.26557        -3.70717         5.04871
     2020.26830        -3.52578         4.98353
     2020.27104        -2.90839         4.96025
     2020.27378         0.08699         5.01146
     2020.27652        -3.76162         5.12972
     2020.27929        -1.95918         5.13903
     2020.28747        -4.17107         5.08223
     2020.29021        -0.56568         5.06360
     2020.29295        -1.07130         5.00960
     2020.29568         1.72509         5.04033
     2020.29842         0.42748         5.03008
     2020.30116         0.70286         5.02170
     2020.30390         3.44825         4.95466
     2020.30663         3.37364         5.11016
     2020.30937        -1.05497         5.14927
     2020.31211        -3.92559         5.17627
     2020.31485        -0.48620         5.09154
     2020.31759        -2.96681         5.01053
     2020.32032         5.46457         5.10551
     2020.32306         0.27696         4.91369
     2020.32580        -5.44165         4.92486
     2020.32854        -1.91426         5.02263
     2020.33128        -2.95788         4.94442
     2020.33401         0.29451         4.98632
     2020.33675         6.40590         5.03008
     2020.33949        -2.72271         4.92300
     2020.34223        -5.00233         5.01612
     2020.34496        -4.84794         5.11668
     2020.34770        -4.27555         4.96118
     2020.35044        -3.26017         4.97794
     2020.35318        -2.21378         5.02543
     2020.35592        -1.47939         5.03567
     2020.35865         0.38000         4.96770
     2020.36139         1.74738         4.94349
     2020.36413        -2.08523         5.00122
     2020.36687        -0.18984         5.07292
     2020.36961        -0.98446         4.99842
     2020.37234         4.01693         4.89134
     2020.37508         1.15832         4.87458
     2020.37782         0.78171         4.96956
     2020.38056        -4.54291         4.91183
     2020.38329        -4.98352         4.97887
     2020.38603         3.40587         5.03381
     2020.38877        -1.61075         4.98539
     2020.39151        -1.99136         4.86992
     2020.39425        -7.21997         4.92300
     2020.39698        -5.69658         5.02636
     2020.39972        -6.23320         4.95373
     2020.40246        -7.32381         5.03288
     2020.40520        -9.56842         4.99563
     2020.40794        -9.50304         4.94814
     2020.41067        -1.61665         5.04684
     2020.41341        -3.62326         4.97142
     2020.41615        -5.47787         4.98166
     2020.41889        -3.74149         4.84199
     2020.42162        -6.00710         4.95559
     2020.42436        -5.53471         5.34109
     2020.42710        -5.70533         5.22190
     2020.42984        -0.38694         5.03939
     2020.43258         0.59945         4.97608
     2020.43531         1.44884         5.01612
     2020.43805        -5.23078         5.08781
     2020.44079       -11.15639         5.09247
     2020.44353        -1.68600         5.15206
     2020.44626        -7.11662         4.97421
     2020.44900        -1.83023         5.10923
     2020.45174         5.48416         4.95000
     2020.45448        -3.41545         4.92486
     2020.45722         1.14193         4.91741
     2020.45995        -1.71068         4.87737
     2020.46269        -6.12529         4.92486
     2020.46543        -7.12291         5.13251
     2020.46817        -4.72552         5.06826
     2020.47091         1.52987         5.00308
     2020.47364        -4.69474         4.94162
     2020.47638        -2.13936         4.89134
     2020.47912        -4.58797         5.06174
     2020.48186        -4.00958         4.93604
     2020.48459        -9.56120         5.07012
     2020.48733        -1.24781         5.24145
     2020.49007         0.67458         5.11947
     2020.49281         4.29797         5.01891
     2020.49555         0.17235         5.08409
     2020.49828        -0.08726         4.90624
     2020.50102        -3.50287         4.90252
     2020.50376        -5.71649         4.94162
     2020.50650        -1.00610         4.91369
     2020.50924        -2.48471         4.88203
     2020.51197        -9.22632         4.91369
     2020.51471         2.66906         5.03101
     2020.51745        -3.89555         4.90531
     2020.52019         1.15284         5.05429
     2020.52292         2.96123         5.04033
     2020.52566        -1.59139         5.06826
     2020.52840         1.49800         5.14834
     2020.53114        -1.99461         5.01705
     2020.53388         0.05177         4.95280
     2020.53661        -1.79984         5.03008
     2020.53935       -11.60745         5.13158
     2020.54209        -2.91306         5.10458
     2020.54483         1.75832         5.01891
     2020.54757         0.12071         4.99191
     2020.55030         1.48710         5.07664
     2020.55304        -4.03252         5.13996
     2020.55578         0.90287         5.23121
     2020.55852         3.48326         5.09247
     2020.56125         1.70565         5.04777
     2020.56399         0.10003         5.01425
     2020.56673        -0.44258         4.99563
     2020.56947         3.03981         5.09526
     2020.57221         1.60819         5.22935
     2020.57494        -4.15642         5.09154
     2020.57768         3.10797         4.97701
     2020.58042        -3.17964         5.19583
     2020.58316        -0.62726         5.12599
     2020.58590        -0.69887         5.09247
     2020.58863         0.94452         5.03753
     2020.59137        -1.05010         4.99284
     2020.59411         9.99329         5.02636
     2020.59685        -1.02132         5.58784
     2020.59958         6.45207         5.15113
     2020.60232         2.42045         5.04033
     2020.60506         4.54584         4.99191
     2020.60780         3.77823         5.01146
     2020.61054         6.08761         5.15765
     2020.61327         4.95000         5.11854
     2020.61601        -2.92361         5.04964
     2020.61875         2.58178         5.00587
     2020.62149        -4.05984         5.04219
     2020.62423        -0.26645         5.15672
     2020.62696        -4.04906         5.21259
     2020.62970         0.53232         5.21166
     2020.63244        -0.37029         5.18093
     2020.63518         2.73610         5.26473
     2020.63791        -4.67051         5.23680
     2020.64065         2.95887         5.15672
     2020.64339         0.35926         5.15206
     2020.64613         5.59965         5.16696
     2020.64887        -5.81397         5.98358
     2020.65160         1.07542         5.05616
     2020.65434         3.86081         5.03846
     2020.65708        -0.40580         5.03288
     2020.65982         2.30458         5.06547
     2020.66256         1.68697         5.04777
     2020.66529         4.46936         5.11389
     2020.66803         3.13774         5.02543
     2020.67077        12.98313         5.19676
     2020.67351         6.55152         5.10271
     2020.67624        -2.69209         5.07943
     2020.67898         2.17229         5.13717
     2020.68172         0.18968         5.04591
     2020.68446         0.94307         5.24797
     2020.68720        -2.99855         5.06640
     2020.68993         7.42784         5.16976
     2020.69267         1.15223         5.09247
     2020.69541         7.25862         5.26194
     2020.69815         6.49900         5.11109
     2020.70089         4.61939         5.08688
     2020.70362         3.90678         5.08130
     2020.70636        -3.26283         5.31781
     2020.70910         3.51855         5.32991
     2020.71184         0.77994         5.12227
     2020.71457        -0.35067         5.16696
     2020.71731         4.47571         5.26939
     2020.72008        -2.45485         5.28336
     2020.72279         0.00849         5.03288
     2020.72553         6.00488         5.13158
     2020.72826         9.18126         5.34016
     2020.73100        -2.11135         5.42768
     2020.73374         9.19204         5.22097
     2020.73648         4.15042         5.15765
     2020.73921        -1.80119         5.04777
     2020.74195         3.32620         5.02543
     2020.74469         2.19059         5.02263
     2020.74743         1.53697         5.06919
     2020.75017         3.31036         5.03101
     2020.75290        -4.32325         5.11668
     2020.75564        -1.17387         5.02915
     2020.75838         3.63052         5.10923
     2020.76112        -0.21109         5.07943
     2020.76386         4.41830         5.06360
     2020.76659         8.60668         5.00867
     2020.76933         7.73807         5.12599
     2020.77207         8.06646         5.03753
     2020.87611        11.79117         5.11109
     2020.87885        13.58356         5.28801
     2020.88158         9.54794         5.19303
     2020.88432         9.82133         5.06733
     2020.88706         3.80772         5.32433
     2020.88980         2.49511         5.10271
     2020.89253         5.48949         5.05988
     2020.89527         7.32288         5.22656
     2020.89801         8.71627         5.23866
     2020.90075        12.12465         5.06640
     2020.90349         8.91104         5.03846
     2020.90622         3.93343         5.04684
     2020.90896         3.59782         5.31408
     2020.91170         4.14820         5.36344
     2020.91444         8.03359         5.30757
     2020.91718         0.83998         5.05057
     2020.91991        -3.76964         5.08130
     2020.92265        -4.22525         5.01984
     2020.92539        -6.12586         5.07943
     2020.92813        -2.33547         5.05336
     2020.93086        -3.10109         5.05336
     2020.93360        -2.28270         5.05802
     2020.93634         2.39169         5.07012
     2020.93908        -5.32293         5.11947
     2020.94182        -0.83954         5.00122
     2020.94455         0.01885         4.99749
     2020.94729        -4.02276         5.08037
     2020.95003        -7.53838         5.11854
     2020.95277       -11.15499         5.04126
     2020.95551        -8.12760         5.07943
     2020.95830         2.15588         5.16976
     2020.96098        -4.86683         5.62974
     2020.96372        -1.17044         5.07943
     2020.96646         2.69495         5.18931
     2020.96919         5.17933         5.16696
     2020.97193        -9.28728         5.06081
     2020.97467         4.84411         5.23401
     2020.97741        -5.58351         5.07757
     2020.98015        -2.70412         5.23494
     2020.98288        -3.92673         5.18652
     2020.98562         8.48266         5.02356
     2020.98836         2.72404         4.97049
     2020.99110         4.91043         4.92952
     2020.99384         0.11382         4.92114
     2020.99657        12.01920         5.02915
     2021.00205        -0.18902         4.95838
     2021.00479         8.43137         4.97235
     2021.00752        15.64075         5.00029
     2021.01026         3.12314         5.01146
     2021.01300         0.08753         5.03381
     2021.01574         4.57691         5.19862
     2021.01848        -3.26370         4.91928
     2021.02121        -5.06231         5.00960
     2021.02395        -4.48192         4.95745
     2021.02669        -2.58954         5.01425
     2021.02943        -3.39815         5.00215
     2021.03215        -4.83879         5.09247
     2021.03491         6.81164         5.21724
     2021.03764        -3.22199         5.07943
     2021.04038        -5.13860         5.08037
     2021.04312        -4.42921         4.99377
     2021.04585        -3.37683         5.04498
     2021.04859        -4.56044         5.01984
     2021.05133        -8.26705         5.07105
     2021.05407        -0.31067         5.37926
     2021.05681        -3.44428         5.13158
     2021.05954        -4.48589         4.97514
     2021.06228        -4.18650         5.03101
     2021.06502        -2.28812         5.05336
     2021.06776         0.13727         4.98353
     2021.07049         0.49266         5.04498
     2021.07323         3.32705         4.98539
     2021.07597        -4.97057         4.93511
     2021.07871        -3.24218         4.95838
     2021.08145        -4.77379         5.01053
     2021.08418        -4.32241         5.01146
     2021.08692        -4.39702         4.97235
     2021.08966        -0.55863         4.97514
     2021.09240       -10.96624         4.99004
     2021.09514        -4.15686         5.10644
     2021.09787         0.60253         5.16231
     2021.10061         1.30892         5.03474
     2021.10335         2.12530         5.00029
     2021.10609        -1.57631         4.98818
     2021.10882        -0.03192         4.97701
     2021.11156        -4.03053         5.02263
     2021.11430        -4.21915         4.96676
     2021.11704        -3.58676         4.94628
     2021.11978        -2.92837         4.98725
     2021.12251        -1.78099         4.95932
     2021.12525         5.48139         7.49112
     2021.12797        19.42775         6.97153
     2021.13073         4.56218         6.75365
     2021.13346        -1.23844         6.62608
     2021.13620        -2.85706         7.15590
     2021.13894         2.14233         7.07024
     2021.14168         1.19473         6.45475
     2021.14441        16.16810         7.46598
     2021.14716        -2.94749         8.74165
     2021.14987       -11.37814         7.22388
     2021.15263         8.08727         6.18937
     2021.15537        -0.92434         6.45754
     2021.15811         4.11905         7.85892
     2021.16085         0.13844         7.31792
     2021.16356        -0.27522         7.43432
     2021.16630         3.56917         7.32630
     2021.16906        11.62560         6.95291
     2021.17180        -0.85602         6.45940
     2021.17454        -2.65862         6.60839
     2021.17697         3.44128         8.14665
     2021.17999        -4.33889         7.42873
     2021.18275        -4.97347         6.23779
     2021.18547        -7.49211         6.61863
     2021.18822       -21.22569       150.85034
     2021.19096         2.93269         6.55624
     2021.19370        -5.02292         6.11487
     2021.19644        -8.02953         6.26572
     2021.19917        -2.48815         6.74899
     2021.20191        -1.93176         6.12791
     2021.20465         2.38363         6.82534
     2021.20739         6.54102        24.40642
     2021.21013         2.67540         6.26107
     2021.21286        -5.45321         6.28434
     2021.21560         2.81218        10.79205
     2021.21834        -2.23944         7.29185
     2021.22108        -0.20205         7.09165
     2021.22382        -4.45565         6.55717
     2021.22655        -0.82628         6.55159
     2021.22929        11.06711         6.16329
     2021.23203         9.08750         7.33934
     2021.23477        -6.12611         6.48175
     2021.23751        -4.10772         6.65215
     2021.24025        -1.09733         6.39143
     2021.24298        -6.14794         5.86998
     2021.24572        -5.80156         6.96315
     2021.24845         1.39881         6.53948
     2021.25393        -6.29340         7.74346
     2021.25667        -3.82201         6.93708
     2021.26101        -0.31706        19.13424
     2021.26488         1.21615         6.90263
     2021.26762         4.45053         6.61956
     2021.27034         7.14489         7.59820
     2021.27310        -3.92568         6.44637
     2021.27583        -0.55730         6.72571
     2021.27828        -9.24538        31.00643
     2021.28131        -1.17552         6.84304
     2021.28405        -1.20714         6.25175
     2021.28679         0.82024         7.15870
     2021.28952         1.27863         7.46225
     2021.29226        -3.75398         7.08514
     2021.29500        -0.57259         6.42402
     2021.29774        -2.93520         6.91194
     2021.30048         0.20719         7.27043
     2021.30321         3.34957         6.43892
     2021.30595         8.51995         6.07390
     2021.30867        15.78931         7.89617
     2021.31143        11.08373         7.06186
     2021.31690        10.08250         6.12232
     2021.31963        -6.45213        51.52064
     2021.32295         0.01720         9.30593
     2021.32569        -5.87542        10.65424
