# ================= DQRFIT RESULTS ================
# INPUT FILE: series/DCSO.rad
# OUTPUT: LDETRENDED
# FILTER FUNCTION: f(t)
# f(t)=+line(t)+annual(t)
# line(t)=+P 1+P 2*t
# annual(t)=+P 3*sin(2*pi*t+P 4)
# heav(t)=(t<0?0:1)
# TOTAL OBSERVATIONS MTOT= 4043
# INITIAL TIME INTERVAL= 2016.2599 - 2005.0552 = 11.2047
# TOTAL OBSERVATIONS AFTER PREFILTER M= 4038
# TIME-SPAN= 2016.2599 - 2005.0552 = 11.2047
# OBSERVATIONS: USED M=  4038 REJECTED MTOT-M=     5 %USED=   99.8763
# N=  4 PARAMETERS
# MAXSIG= 175.00000
# MAXRES=  23.69413
# SCALE FACTOR FOR LENGTHS: SCL=  10.00000
# SCALE FACTOR FOR SIGMAS: SCLSIG=   1.00000
# CHI^2=   3273.742 DOF=  4034 CHI^2/DOF=   0.81154
# RMS=      5.145 SDEV=      5.145 MEAN=    0.04762
#  P #       PARAMETER +-    SIGMA %error PARAMETER NAME
# P 1 =       978.46679 +-   50.512   5.16 YZERO                              
# P 2 =        -0.48468 +-    0.025   5.18 SLOPE                              
# P 3 =         4.87989 +-    0.113   2.33 ANNUAL AMPLITUDE                   
# P 4 =        -2.67661 +-    0.029   1.10 ANNUAL PHASE                       
#       T            LDETRENDED       SIG_OBS
     2005.05515        -3.74208        11.48408
     2005.05681       -22.64628         5.18081
     2005.05954       -12.57795         5.31864
     2005.06228       -10.83862         5.33486
     2005.06502       -18.59530         5.27630
     2005.06776       -20.01497         5.22495
     2005.07049        -8.06964         5.26189
     2005.07323       -14.15832         5.16910
     2005.07597        -2.32099         5.37629
     2005.07871        -6.10566         5.09343
     2005.08145       -11.07434         5.06730
     2005.08418       -13.88801         5.26909
     2005.08692        -9.93568         5.16459
     2005.08966       -13.68736         5.08622
     2005.09240       -14.25503         5.11595
     2005.09514       -13.50770         5.06730
     2005.09787       -17.06637         5.10063
     2005.10061       -11.35405         5.08712
     2005.10335        -7.29772         5.06010
     2005.10609        -0.55339         5.12766
     2005.10882        -2.07307         5.13036
     2005.11156        -9.57274         5.06640
     2005.11430        -8.29341         5.03577
     2005.11704        -4.57909         5.07000
     2005.11978        -5.58776         5.13487
     2005.12251        -6.12743         5.05199
     2005.12525        -4.33810         5.06100
     2005.12799        -7.29278         5.03487
     2005.13073        -6.29045         5.12676
     2005.13347        -4.31312         5.12586
     2005.13620         1.69620         5.14207
     2005.13894        -6.72547         5.08802
     2005.14168        -2.69214         5.06910
     2005.14442       -11.04782         5.02676
     2005.14715       -11.75149         5.12586
     2005.14989        -9.98516         5.21684
     2005.15263        -6.42883         5.16279
     2005.15537        -2.65151         5.15108
     2005.15811         2.22682         5.18802
     2005.16084         3.39415         5.18621
     2005.16358        -1.57653         5.16730
     2005.16632         6.86480         5.22315
     2005.16906        -6.45187         5.14117
     2005.17180         2.61445         5.15559
     2005.17453         0.56378         5.10514
     2005.17727        -9.73689         5.17360
     2005.18001        -3.77257         5.14748
     2005.18275        -8.07324         5.16910
     2005.18548        -6.97491         5.25558
     2005.18822        -1.34958         5.08892
     2005.19096        -2.96126         5.10424
     2005.19370         0.66707         5.22495
     2005.19644        -4.13760         5.17811
     2005.19917         0.16372         5.15198
     2005.20191         3.50705         5.24837
     2005.20465        10.44938         5.25828
     2005.20739         2.85270         5.17360
     2005.21013        -7.15497         5.14658
     2005.21286         0.82536         5.13667
     2005.21560        -0.20531         5.24207
     2005.21834        -0.99399         5.17721
     2005.22108         7.95534         5.16009
     2005.22381         4.86567         5.26189
     2005.22655         5.52799         5.20874
     2005.22929        -4.77968         5.20063
     2005.23203         2.82265         5.14568
     2005.23477         2.73497         5.15378
     2005.23750         4.76830         5.19793
     2005.24024         4.17363         5.34476
     2005.24298        -6.35204         5.18892
     2005.24572        -2.87572         5.29792
     2005.24846         8.90261         5.26279
     2005.25119        -2.62006         5.15919
     2005.25393        10.05426         5.35287
     2005.25667         9.63359         5.51142
     2005.25941         8.30492         5.26729
     2005.26214         1.68624         5.26099
     2005.26488        13.21757         5.22045
     2005.26762         5.63690         5.23937
     2005.27036         0.61123         5.27180
     2005.27310        -0.20345         5.28171
     2005.27583        -1.74612         5.34567
     2005.27857         1.66621         5.27810
     2005.28131         8.26953         5.27810
     2005.28405         0.24986         5.37629
     2005.28679         0.66419         5.29792
     2005.28952         5.86151         5.23216
     2005.29226        -2.92816         5.27360
     2005.29500         6.00217         5.14117
     2005.29774         4.39449         5.13577
     2005.30047        -0.42418         5.17450
     2005.30321         2.21215         5.24207
     2005.30595        -0.95552         5.18621
     2005.30869         4.85380         5.15829
     2005.31143         3.53613         5.18892
     2005.31416        -0.05254         5.14478
     2005.31690         0.15878         5.20423
     2005.31964        -1.89789         5.30242
     2005.32238         5.72744         5.31233
     2005.32512         8.36176         5.14387
     2005.32785         5.89809         5.16550
     2005.33059         8.65042         5.13757
     2005.33333        10.03275         5.14027
     2005.33607         5.86707         5.47809
     2005.33880         2.69240         5.29071
     2005.34154        -0.36527         5.18531
     2005.34428         5.52305         5.12225
     2005.34702         9.76338         5.18171
     2005.34976         7.15971         5.23666
     2005.35249         3.98203         5.15198
     2005.35523         2.40936         5.27720
     2005.35797         1.42969         5.31954
     2005.36071        -9.42198         5.32405
     2005.36344         5.40034         5.38801
     2005.36618         4.12967         5.34296
     2005.36892         0.36000         5.62043
     2005.37166        10.22332         5.34567
     2005.37440         8.66465         5.40332
     2005.37713         5.79098         5.64295
     2005.37987         6.04330         5.43305
     2005.38261         0.41263         5.35287
     2005.38535        -0.51404         5.33305
     2005.38809        -4.91172         5.63394
     2005.39082        -3.37439         5.30693
     2005.39356        -2.15406         5.29252
     2005.39630        -2.45873         5.27900
     2005.39904        -2.12641         5.26729
     2005.40177        -4.09108         5.26369
     2005.40451         9.25425         5.55827
     2005.40725         3.87157         5.48350
     2005.40999         5.67490         5.30513
     2005.41273         0.96723         5.30152
     2005.41546        -4.84445         5.19522
     2005.41820        -0.25812         5.17811
     2005.42094        -1.49879         5.18261
     2005.42368        -1.57646         5.25198
     2005.42642         8.42686         5.21504
     2005.42915         1.24319         5.21504
     2005.43189        -0.78648         5.19612
     2005.43463        -6.76016         5.18441
     2005.43737         5.88617         5.34657
     2005.44010        -1.39050         5.33486
     2005.44284         7.70082         5.34026
     2005.44558         0.90815         5.37269
     2005.44832        -0.27652         5.38080
     2005.45106         1.68381         5.20964
     2005.45379        -0.07287         5.21504
     2005.45653        -6.10754         5.40512
     2005.45927         0.07079         5.29432
     2005.46201        -3.36189         5.22585
     2005.46475        -1.31056         5.17180
     2005.46748         0.65077         5.27900
     2005.47022         2.73709         5.28801
     2005.47296        -0.09458         5.18171
     2005.47553        -1.02233         5.61953
     2005.47952         9.97860        11.86695
     2005.48117         4.36740         5.24927
     2005.48391         3.18773         5.23486
     2005.48665        -1.61294         5.36278
     2005.48939         0.42638         5.13847
     2005.49212        -0.39529         5.18802
     2005.49486         0.65604         5.17270
     2005.49760         4.07536         5.15288
     2005.50034         4.98169         5.23666
     2005.50308        -2.34398         5.14117
     2005.50581         0.40634         5.22675
     2005.50855         7.16767         5.24117
     2005.51129         9.26800         5.21234
     2005.51403        -0.57967         5.24477
     2005.51676         2.08865         5.29432
     2005.51950        -0.90202         5.22855
     2005.52224         1.48531         5.30152
     2005.52498        -1.58937         5.15018
     2005.52772        -0.38604         5.18621
     2005.53045         5.37529         5.15378
     2005.53319         3.74261         5.21594
     2005.53593         9.94194         5.18892
     2005.53867         4.42427         5.31774
     2005.54141         7.60760         5.16189
     2005.54414         8.64692         5.20693
     2005.54682         9.17922         5.33936
     2005.54962         9.30058         5.17450
     2005.55236         7.54390         5.22855
     2005.55509        10.36823         5.36278
     2005.55783         4.68156         5.17631
     2005.56057        10.81888         5.31414
     2005.56331         7.79521         5.34206
     2005.56605         8.28754         5.46998
     2005.56878        11.99086         5.46548
     2005.57152         9.72119         5.47899
     2005.57426         6.35952         5.33936
     2005.57700        12.85585         5.38080
     2005.57974         8.11117         5.36008
     2005.58247         9.89050         5.67988
     2005.58521         2.44083         5.36999
     2005.58795        11.26415         5.15018
     2005.62462         2.35493        14.41726
     2005.62628         8.72873         5.43755
     2005.62902        10.78606         5.27450
     2005.63175        11.48339         5.23576
     2005.63415         9.63455         6.01770
     2005.64089         7.81181         9.60310
     2005.64271        12.98669         5.32405
     2005.64544         3.03702         5.18802
     2005.64818        10.92235         5.21955
     2005.65092        11.95967         5.24027
     2005.65366         9.20700         5.21144
     2005.65639        13.68933         5.20693
     2005.65913         9.37965         5.25378
     2005.66187        11.51398         5.17991
     2005.66461         4.39431         5.17180
     2005.66735        15.84864         5.18982
     2005.67008        14.49896         5.17090
     2005.67282        19.19629         5.19522
     2005.67556         8.05862         5.28441
     2005.67830        10.26994         5.17811
     2005.68104         5.58327         5.14387
     2005.68377         8.50860         5.23666
     2005.68651        13.91192         5.26909
     2005.68925         3.89325         5.43845
     2005.69199         4.25458         5.44206
     2005.69472        -0.61909         5.30152
     2005.69746        -1.51677         5.26008
     2005.70020         6.19656         5.37359
     2005.70294        10.55189         5.40873
     2005.70568         9.08921         5.39431
     2005.70841        10.56354         5.40332
     2005.71115         7.24787         5.17000
     2005.71389         0.18719         5.11144
     2005.71663         4.08352         5.34657
     2005.71937         9.30185         5.22495
     2005.72210        11.29718         5.39251
     2005.72484         3.72150         5.19252
     2005.72758         7.22783         5.22946
     2005.73032        -1.31984         5.27810
     2005.73305         6.78448         5.26909
     2005.73579        13.80681         5.32314
     2005.73853        12.43414         5.36188
     2005.74127         4.92946         5.27540
     2005.74401        10.12679         5.24117
     2005.74674        15.97812         5.31053
     2005.74948        19.35045         5.41323
     2005.75222         0.28877         5.28891
     2005.75496         7.53010         5.28621
     2005.75770         4.01643         5.28891
     2005.76043         6.75075         5.24657
     2005.76317         6.24108         5.25378
     2005.76591        14.22641         5.28891
     2005.76865        10.88273         5.15559
     2005.77138         4.77006         5.20874
     2005.77412        -0.70761         5.22405
     2005.77686        13.01171         5.31414
     2005.77960         3.10604         5.25828
     2005.78234         7.19237         5.39792
     2005.78507         4.90570         5.24207
     2005.78781         7.88102         5.30513
     2005.79055         6.07835         5.21684
     2005.79329         3.96968         5.15829
     2005.79603        11.15700         5.31774
     2005.79876        15.07233         5.38260
     2005.80150         3.94966         5.26099
     2005.80424         6.21698         5.19973
     2005.80698         2.59931         5.17270
     2005.80971         6.06864         5.21594
     2005.81245        13.45997         5.15468
     2005.81519         6.67129         5.24567
     2005.81793         9.70562         5.28801
     2005.82067         4.77195         5.18351
     2005.82340        16.76227         5.29612
     2005.82614        10.12360         5.16730
     2005.82888        11.67093         5.14478
     2005.83162         2.24625         5.37359
     2005.83436         3.44458         5.39251
     2005.83709         7.29591         5.29071
     2005.83983         9.36424         5.35738
     2005.84257        19.28556         5.45107
     2005.84531         5.12089         5.49611
     2005.84804         6.66622         5.49701
     2005.85078         5.61754         5.38530
     2005.85352        -0.36613         5.34296
     2005.86173        -0.55515         5.39431
     2005.86447         8.33018         5.31864
     2005.86721         4.62950         5.24387
     2005.86995         0.43483         5.30062
     2005.87269        -6.37784         5.22495
     2005.87542        -2.53851         5.21414
     2005.87816        -1.26019         5.20964
     2005.88090        -0.74686         5.17090
     2005.88364        -0.95253         5.12586
     2005.88637        -2.15121         5.22225
     2005.88911         0.63312         5.32224
     2005.89179         3.06942         5.41053
     2005.91102         1.59874         5.27089
     2005.91375        -0.49694         5.17270
     2005.91649        -0.95661         5.26819
     2005.91923        -6.00928         5.29882
     2005.92197        -2.04796         5.17000
     2005.92470       -14.02563         5.10514
     2005.92744       -12.46930         5.13667
     2005.92995       -14.11509         5.50422
     2005.93292        -1.80165         5.25378
     2005.93566       -11.49032         5.16550
     2005.93839        -3.52599         5.19612
     2005.94113        -7.07667         5.13757
     2005.94387         1.05466         5.14928
     2005.94661        -3.32301         5.14568
     2005.94935        -4.49369         5.11775
     2005.95208        -7.06036         5.18441
     2005.95482       -12.47803         5.27360
     2005.95756        -0.55871         5.13757
     2005.96030        -0.81938         5.09523
     2005.96303        -3.94405         5.16459
     2005.96577        -0.63272         5.48800
     2005.96851       -10.44940         5.50061
     2005.97125       -10.57207         5.24297
     2005.97399        -5.24174         5.34567
     2005.97672       -14.15742         5.40152
     2005.97946        -8.22809         5.32765
     2005.98220        -0.43976         5.45827
     2005.98494        -1.24944         5.33035
     2005.98767        -0.66011         5.23486
     2005.99041        -3.94978         5.23306
     2005.99315       -10.14345         5.22675
     2005.99583        -4.08316         5.36458
     2005.99863         8.76120         5.32314
     2006.00410        -3.09415         5.24387
     2006.00684       -17.50382         5.52313
     2006.00958       -18.33449         5.34026
     2006.01232       -14.49317         5.37089
     2006.01505       -15.36484         5.41233
     2006.01779        -5.16451         6.09247
     2006.02053        -2.75718         5.34296
     2006.02327        -1.92186         5.48800
     2006.02600        -8.58453         5.43935
     2006.02874        -9.09120         6.00419
     2006.03148         0.97612         5.29612
     2006.03422        -3.23355         5.22855
     2006.03696        -5.38522         5.18712
     2006.03969        -6.24090         5.26909
     2006.04243       -10.88457         5.32585
     2006.04517        -4.68724         5.34567
     2006.04791        -1.04692         5.17721
     2006.05065        -4.95459         5.17450
     2006.05338        -6.91426         5.24927
     2006.05612       -10.81493         5.08622
     2006.05886       -10.79161         5.15018
     2006.06160       -14.57628         5.06010
     2006.06433        -3.53395         5.20784
     2006.06707       -11.57163         4.99613
     2006.06981       -11.77030         5.00244
     2006.07255       -12.97597         5.06010
     2006.07529       -10.08865         5.12946
     2006.07802       -14.42432         5.06550
     2006.08076        -3.85799         5.06910
     2006.08350       -15.87766         5.05919
     2006.08624        -6.97334         5.07631
     2006.08898        -4.53001         5.02316
     2006.09171        -5.60668         5.02406
     2006.09445         0.25664         5.76276
     2006.09747       -11.87889         5.62763
     2006.09993       -18.90570         5.07000
     2006.10266       -19.57938         5.02496
     2006.10540       -20.18305         5.03667
     2006.10814        -5.84272         5.11775
     2006.11088       -17.50839         5.20243
     2006.11362       -17.25207         5.12045
     2006.11635        -8.61574         5.04928
     2006.11909        -9.60141         5.14387
     2006.12183        -7.12709         5.04928
     2006.12457        -7.13876         5.07991
     2006.12731       -13.42243         5.11144
     2006.13004        -6.46111         5.11955
     2006.13278        -5.08778         5.11234
     2006.13552        -2.63845         5.05649
     2006.13826         0.64087         5.12676
     2006.14099         1.21620         5.06100
     2006.14373        -7.33847         5.06550
     2006.14647        -3.49914         5.11775
     2006.14921        -2.95382         5.05559
     2006.15195        -5.32349         5.05559
     2006.15468        -2.74216         5.05019
     2006.15742         0.65916         5.15559
     2006.16016         3.43549         5.15108
     2006.16290        -7.76518         5.24027
     2006.16564        -6.41286         5.15198
     2006.16837        -0.18153         5.22765
     2006.17111       -10.04420         5.03307
     2006.17385        -0.52887         5.10334
     2006.17659        -9.81955         5.17360
     2006.17932         1.26078         5.12586
     2006.18206        -3.31789         5.09523
     2006.18480        -5.93257         5.12766
