# ================= DQRFIT RESULTS ================
# INPUT FILE: series/DEA1.rad
# OUTPUT: LDETRENDED
# FILTER FUNCTION: f(t)
# f(t)=+line(t)+annual(t)
# line(t)=+P 1+P 2*t
# annual(t)=+P 3*sin(2*pi*t+P 4)
# heav(t)=(t<0?0:1)
# TOTAL OBSERVATIONS MTOT= 2501
# INITIAL TIME INTERVAL= 2016.1668 - 2006.6010 =  9.5659
# TOTAL OBSERVATIONS AFTER PREFILTER M= 2497
# TIME-SPAN= 2016.1668 - 2006.6010 =  9.5659
# OBSERVATIONS: USED M=  2497 REJECTED MTOT-M=     4 %USED=   99.8401
# N=  4 PARAMETERS
# MAXSIG= 175.00000
# MAXRES=  17.77656
# SCALE FACTOR FOR LENGTHS: SCL=  10.00000
# SCALE FACTOR FOR SIGMAS: SCLSIG=   1.00000
# CHI^2=   2169.125 DOF=  2493 CHI^2/DOF=   0.87009
# RMS=      5.292 SDEV=      5.293 MEAN=    0.00979
#  P #       PARAMETER +-    SIGMA %error PARAMETER NAME
# P 1 =      -198.41562 +-   73.454  37.02 YZERO                              
# P 2 =         0.09932 +-    0.037  36.78 SLOPE                              
# P 3 =         5.43794 +-    0.152   2.79 ANNUAL AMPLITUDE                   
# P 4 =        -2.92817 +-    0.039   1.32 ANNUAL PHASE                       
#       T            LDETRENDED       SIG_OBS
     2006.60095         4.13571         5.25904
     2006.60369         3.27744         5.32340
     2006.60643         9.34617         5.31967
     2006.60917         7.47489         5.40269
     2006.61190         6.93462         5.27956
     2006.61464         2.96735         5.29075
     2006.61738         8.81108         5.29168
     2006.62012        10.02381         5.32153
     2006.62286         9.78653         5.31407
     2006.62559        11.51426         5.31500
     2006.75975        12.01994         5.39056
     2006.76249        14.13867         5.31967
     2006.76522         4.11439         5.41668
     2006.76796         4.01212         5.43627
     2006.77070         1.04485         5.33086
     2006.77344         4.86458         5.39895
     2006.77618         8.95031         5.36817
     2006.77891        11.75504         5.30008
     2006.78165         8.41476         5.26836
     2006.78439         8.49049         5.29728
     2006.78713        14.15222         5.45026
     2006.78987        19.57295         5.28515
     2006.79260        13.24568         5.30941
     2006.79534         2.17140         5.35231
     2006.79808         7.93313         5.31500
     2006.80082        10.50286         5.45865
     2006.80355         5.84659         5.26463
     2006.80629         8.50232         5.25157
     2006.80903         5.27704         5.27676
     2006.81177         9.70977         5.37190
     2006.81451         5.20050         5.48290
     2006.81724         5.53123         5.44000
     2006.81998         8.86896         5.28889
     2006.82272         3.99768         5.23105
     2006.82546        11.43841         5.40548
     2006.82820         3.28014         5.28329
     2006.83093         6.31087         5.34579
     2006.83367         8.34460         5.31034
     2006.83641         2.52833         5.42600
     2006.83915         8.48705         5.36537
     2006.84188         9.05578         5.60697
     2006.84462         1.43751         5.44093
     2006.84736         6.87024         5.49037
     2006.85010        13.00897         5.45212
     2006.85284         9.91569         5.54727
     2006.85557        12.81842         5.52115
     2006.85831        13.58315         5.53514
     2006.86105        10.27988         5.57059
     2006.86379         5.89861         5.54074
     2006.86653        10.71333         5.51462
     2006.86926        11.50206         5.27210
     2006.87200         7.86179         5.32620
     2006.87474        11.57652         5.43253
     2006.87748        11.06925         5.33646
     2006.88021         8.03297         5.36537
     2006.88295        -0.63930         5.35138
     2006.88569         8.31243         5.42041
     2006.88843         4.53816         5.33926
     2006.89117         7.32489         5.34952
     2006.89390         1.03662         5.47731
     2006.89664         3.30234         5.44932
     2006.89938         7.71907         5.26836
     2006.90212         5.38780         5.51555
     2006.90485         6.86653         5.33832
     2006.90759         8.90926         5.33086
     2006.91033         1.85698         5.30661
     2006.91295         5.38772         5.42694
     2006.91581         1.78244         5.24878
     2006.91854        -8.52183         5.30661
     2006.92134        -8.75311         5.66013
     2006.92402        -3.05838         5.30661
     2006.92676        -2.47365         5.35605
     2006.92950        -1.13792         5.36631
     2006.93223        -0.88719         5.34112
     2006.93497        -1.33046         5.50156
     2006.93771         6.08326         5.34952
     2006.94045         5.72899         5.36911
     2006.94318         4.98672         5.39709
     2006.94592         6.40945         5.61070
     2006.94866         2.73218         5.49317
     2006.95140         8.07890         5.31034
     2006.95414        15.69263         5.63215
     2006.95687         5.00636         5.36071
     2006.95961         5.73909         5.36631
     2006.96235         1.12782         5.31314
     2006.96509        -1.44345         5.50996
     2006.96783         3.16527         5.33739
     2006.97056        -1.00800         5.36258
     2006.97330        -3.86627         5.43627
     2006.97604         3.47346         5.36724
     2006.97878        -1.36981         5.29075
     2006.98151         0.86491         5.44653
     2006.98425        -0.63936         5.56965
     2006.98699        11.93637         5.56126
     2006.98973        -3.48490         5.52395
     2006.99794        -4.91472         5.51835
     2007.00342         3.93974         5.54913
     2007.00616        -0.87653         5.54727
     2007.00889         1.30719         5.52022
     2007.01163         1.60292         5.44373
     2007.01437        -3.33935         5.50809
     2007.01711       -14.37562         5.40828
     2007.01984       -13.03789         5.41574
     2007.02258        -5.76116         5.27489
     2007.02504         4.21159         6.25432
     2007.05544       -10.51443         5.10140
     2007.05817       -13.55970         5.20214
     2007.06091       -12.80897         5.16856
     2007.06365       -11.40124         5.16296
     2007.06639       -10.97152         5.46052
     2007.06913       -11.14779         5.14337
     2007.07186        -6.04906         5.17509
     2007.07460        -8.45433         5.20307
     2007.07734       -11.14860         5.24038
     2007.08008       -10.63087         5.16856
     2007.08282        -6.94615         5.20680
     2007.08555        -5.01342         5.30474
     2007.08829        -5.54069         5.23758
     2007.09103        -1.55996         5.28142
     2007.09377        -8.87323         5.26463
     2007.09650        -4.97951         5.16483
     2007.09924        -7.82478         5.31687
     2007.10198        -7.28505         5.24038
     2007.10472        -6.95132         5.40175
     2007.10746        -3.17559         5.36351
     2007.11019        -5.49387         5.21613
     2007.11293         4.83186         5.29542
     2007.11567        -2.91141         5.20027
     2007.11841        -5.00268         5.27489
     2007.12115        -6.08795         5.29355
     2007.12388        -0.62423         5.26090
     2007.12662        -4.26150         5.26557
     2007.12936        -7.31477         5.49037
     2007.13210         0.17296         5.28609
     2007.13466        -0.09830         5.77673
     2007.13757         4.79441         5.25531
     2007.14031         2.66014         5.18535
     2007.14305        -3.70513         5.25624
     2007.14579         3.35060         5.19374
     2007.14852        -3.51867         5.21893
     2007.15126         5.46306         5.34952
     2007.15400         4.40278         5.20680
     2007.15674         4.93351         5.25437
     2007.15948         3.89124         5.20773
     2007.16221         2.76997         5.36817
     2007.16495         0.70870         5.41108
     2007.16769        -9.73558         5.35418
     2007.17043        -7.31485         5.35138
     2007.17316        -5.00512         5.34858
     2007.17590        -3.25839         5.33459
     2007.17864        -2.32666         5.33739
     2007.18138        -1.92694         5.44932
     2007.18412        -3.48321         5.36258
     2007.18685         0.84452         5.39336
     2007.18959        -6.51375         5.35231
     2007.19233        -4.00702         5.39149
     2007.19507        -3.84530         5.20960
     2007.19780       -10.29457         5.22732
     2007.20054       -10.27284         5.29728
     2007.20328        -4.46711         5.31594
     2007.20602        -3.85138         5.25531
     2007.20876        -4.65265         5.21706
     2007.21149        -6.39893         5.29168
     2007.21423        -1.54520         5.37563
     2007.21697        -0.04747         5.25437
     2007.21971         3.69126         5.23292
     2007.22245        -0.73901         5.23665
     2007.22518         0.99471         5.18908
     2007.22792         1.07744         5.16109
     2007.23066        -0.63783         5.18348
     2007.23340        -0.94510         5.35325
     2007.23613        -7.14637         5.32713
     2007.23887        -8.56465         5.19841
     2007.24161        -7.96292         5.17602
     2007.24435        -1.74519         5.19188
     2007.24709         2.48654         5.21893
     2007.24982         3.52727         5.21799
     2007.25256        -5.32101         5.23572
     2007.25530        -9.36328         5.20773
     2007.25804        -7.43455         5.38590
     2007.26078        -2.30282         5.30008
     2007.26351         3.98591         5.26836
     2007.26625         4.39164         5.39242
     2007.26899        10.33036         5.35418
     2007.27173         3.68009         5.35698
     2007.27446         8.88282         5.25624
     2007.27720        11.98955         5.27396
     2007.27994         6.43928         5.34019
     2007.28268         6.37200         5.40828
     2007.28542         0.00673         5.48664
     2007.31553         5.63874         5.29075
     2007.31827         1.76447         5.35698
     2007.32101         3.35420         5.29075
     2007.32375         1.28692         5.31873
     2007.32648         2.77765         5.31127
     2007.32922         2.76938         5.30568
     2007.33196         7.84611         5.52301
     2007.33470         1.26584         5.44186
     2007.33744         1.11757         5.30941
     2007.34017         0.54929         5.26930
     2007.34291        -5.35098         5.34299
     2007.34565        -0.55925         5.31873
     2007.34839         5.32848         5.34858
     2007.35112        -3.63479         5.43720
     2007.35386         2.42493         5.80378
     2007.35660         1.21566         5.74315
     2007.35934         0.52639         5.34579
     2007.36208         4.68412         5.44839
     2007.36481        -1.73615         5.44653
     2007.36755        -5.17843         5.35511
     2007.37029         1.20030         5.42600
     2007.37303         3.67103         5.48197
     2007.37577         3.04876         5.57525
     2007.37850        -1.32951         5.44466
     2007.38124        -3.13779         5.38403
     2007.38398         3.70994         5.44000
     2007.38672         5.40667         5.42414
     2007.38945        -2.46360         5.38776
     2007.39219         0.28213         5.53234
     2007.39493        -4.17914         5.33086
     2007.39767        -0.90842         5.35605
     2007.40041         0.44631         5.48943
     2007.40314         0.57304         5.50063
     2007.40588        -6.88923         5.26557
     2007.40856       -10.10550         5.45772
     2007.41136        -3.38178         5.35698
     2007.41410         3.01995         5.35138
     2007.41683        -5.55232         5.36164
     2007.41957         0.08141         5.32900
     2007.42231        -0.80686         5.38310
     2007.42505        15.01086         5.50529
     2007.42778        10.44859         5.31314
     2007.43052         2.98632         5.26930
     2007.43326        -4.13995         5.34019
     2007.43600         0.91678         5.29635
     2007.43868         3.49151         5.48011
     2007.44147         0.13623         5.38216
     2007.44393        -0.27801         7.99583
     2007.44695       -11.02531         5.39802
     2007.44969        -7.80058         5.24878
     2007.45243        -3.65585         5.34019
     2007.45516         2.06387         5.18348
     2007.45790         6.10560         5.32620
     2007.46064        -1.82067         5.43627
     2007.46338        -2.09094         5.28982
     2007.46611         3.57179         5.28515
     2007.46885         5.12951         5.31780
     2007.47159         5.20724         5.23852
     2007.47433        -0.94703         5.20214
     2007.47707        -3.87630         5.53234
     2007.47980        -6.08757         5.26743
     2007.48254        -7.17585         5.23758
     2007.48528        -2.24412         5.19001
     2007.48802        -2.01839         5.21240
     2007.49133        -1.34572         6.87275
     2007.49349        -1.52093         5.25531
     2007.49623        -1.59021         5.36164
     2007.49897         2.51252         5.27116
     2007.50171         1.52025         5.26183
     2007.50444        -1.86602         5.19188
     2007.50718        -1.84229         5.24411
     2007.50992        -6.14157         5.35698
     2007.51266        -0.77984         5.28236
     2007.51540         6.46289         5.24784
     2007.51813         0.64262         5.21426
     2007.52087        -0.97465         5.28982
     2007.52350        -2.87091         5.59391
     2007.52635         0.46880         5.29635
     2007.52908         8.26353         5.35231
     2007.53182         8.86126         5.43253
     2007.53456         1.59999         5.26930
     2007.53730         5.92972         5.32713
     2007.54004         4.64244         5.45119
     2007.54277         7.07917         5.39149
     2007.54551        11.78490         5.61723
     2007.54825         3.46163         5.34392
     2007.55099         0.80436         5.42974
     2007.55373         1.33008         5.28795
     2007.55646         5.45081         5.27116
     2007.55920         7.54154         5.35045
     2007.56194         4.72427         5.26557
     2007.56468         1.77800         5.27676
     2007.56741         1.09672         5.31780
     2007.57015        12.43945         5.27956
     2007.57289        10.75318         5.31127
     2007.57563         6.05691         5.29542
     2007.57837         4.99164         5.27116
     2007.58110         7.23837         5.28889
     2007.58384         8.28209         5.26370
     2007.58658         6.93882         5.59484
     2007.58932         5.70455         5.24038
     2007.59206         4.83628         5.26557
     2007.59479        13.42901         5.36164
     2007.59753         2.96773         5.43720
     2007.60027        13.38846         5.28422
     2007.60301        11.37019         5.29915
     2007.60574        10.52192         5.24038
     2007.60848         4.17565         5.18441
     2007.61122         8.60737         5.23199
     2007.61396         3.09810         5.26370
     2007.61670         7.11183         5.56312
     2007.61943         8.47956         5.57991
     2007.62217        12.32129         5.50716
     2007.62491         7.54401         5.48197
     2007.62765         7.37074         5.57432
     2007.63039        11.97147         5.60323
     2007.63312         5.91420         5.41481
     2007.63586        12.54993         5.35511
     2007.63860         5.59666         5.31221
     2007.64134         9.26638         5.32713
     2007.64407         6.33911         5.53514
     2007.64681         6.48484         5.52301
     2007.64955        13.89857         5.58085
     2007.65229         5.95830         5.58924
     2007.65503         1.64402         5.41295
     2007.65776         2.80475         5.41948
     2007.66050         7.34248         5.51742
     2007.66324        10.87521         5.56965
     2007.66598        12.74694         5.44559
     2007.66872         0.14166         5.72543
     2007.67145         3.08239         5.50343
     2007.67419         9.38612         5.48570
     2007.67693        13.77985         5.43720
     2007.67967        12.80158         5.47078
     2007.68240        11.79830         5.42507
     2007.68514         3.12003         5.52395
     2007.68788         4.67776         5.57245
     2007.69062         8.67449         5.46145
     2007.69336         8.50922         5.48104
     2007.69609        13.86295         5.53514
     2007.69883         7.46667         5.46145
     2007.70157         6.48740         5.44932
     2007.70431        10.22013         5.57338
     2007.70705         8.57586         5.47544
     2007.70978        15.62859         5.50343
     2007.71252         6.96731         5.45492
     2007.71526         7.86904         5.32993
     2007.71800         5.35677         5.34858
     2007.72073         8.56550         5.33926
     2007.72347        10.83723         5.30381
     2007.72621        14.31295         5.24225
     2007.72895        12.49468         5.27489
     2007.73169         6.02541         5.38590
     2007.73442         5.76714         5.35231
     2007.73716         8.69187         5.53234
     2007.73990        14.89059         5.31314
     2007.74264        15.81732         5.31221
     2007.74538         9.89505         5.37657
     2007.74811         8.88778         5.46425
     2007.75085         6.10951         5.61256
     2007.75359        19.29323         5.45492
     2007.75633         8.75596         5.31034
     2007.75906        13.15369         5.31221
     2007.76180        12.87842         5.32806
     2007.76454         8.03115         5.37750
     2007.76728        12.60888         5.62562
     2007.77002        10.74060         5.61349
     2007.77275         7.36233         5.45399
     2007.77549         9.78806         5.30474
     2007.77823         8.92679         5.30381
     2007.78097        11.48752         5.33366
     2007.78371         4.22924         5.26836
     2007.78644         8.86797         5.24131
     2007.78918        16.56170         5.40362
     2007.79192        13.61643         5.37563
     2007.79466        12.31316         5.44746
     2007.79739        19.18588         5.38776
     2007.80013        15.01961         5.24598
     2007.80258         6.73637         5.80472
     2007.80561         8.46207         5.28982
     2007.80835         5.52880         5.34765
     2007.81108         9.55152         5.44746
     2007.81382         8.27525         5.42321
     2007.81656         3.95998         5.56499
     2007.81930         3.74571         5.34765
     2007.82203         6.98544         5.36071
     2007.82477         6.60317         5.43906
     2007.82751         4.16189         5.39522
     2007.83025         3.91662         5.40082
     2007.83299         6.87935         5.31127
     2007.83572         9.09708         5.25531
     2007.83846         7.26681         5.27583
     2007.84120        10.05953         5.30101
     2007.84394        -2.75274         5.25157
     2007.84668         0.64699         5.27116
     2007.84941         4.84872         5.31594
     2007.85215        19.50645         5.45119
     2007.85489        16.16617         5.57245
     2007.85763         6.23490         5.37750
     2007.86036         5.56163         5.27210
     2007.86310        11.24936         5.27303
     2007.86584        12.19709         5.20680
