# ================= DQRFIT RESULTS ================
# INPUT FILE: series/DEA2.rad
# OUTPUT: LDETRENDED
# FILTER FUNCTION: f(t)
# f(t)=+line(t)+annual(t)
# line(t)=+P 1+P 2*t
# annual(t)=+P 3*sin(2*pi*t+P 4)
# heav(t)=(t<0?0:1)
# TOTAL OBSERVATIONS MTOT= 1216
# INITIAL TIME INTERVAL= 2010.2667 - 2006.6010 =  3.6658
# TOTAL OBSERVATIONS AFTER PREFILTER M= 1216
# TIME-SPAN= 2010.2667 - 2006.6010 =  3.6658
# OBSERVATIONS: USED M=  1216 REJECTED MTOT-M=     0 %USED=  100.0000
# N=  4 PARAMETERS
# MAXSIG= 175.00000
# MAXRES=  26.96046
# SCALE FACTOR FOR LENGTHS: SCL=  10.00000
# SCALE FACTOR FOR SIGMAS: SCLSIG=   1.00000
# CHI^2=    974.707 DOF=  1212 CHI^2/DOF=   0.80421
# RMS=      5.309 SDEV=      5.311 MEAN=    0.05233
#  P #       PARAMETER +-    SIGMA %error PARAMETER NAME
# P 1 =      3288.09821 +-  296.907   9.03 YZERO                              
# P 2 =        -1.63381 +-    0.148   9.05 SLOPE                              
# P 3 =         6.99907 +-    0.210   3.00 ANNUAL AMPLITUDE                   
# P 4 =        -3.09824 +-    0.042   1.37 ANNUAL PHASE                       
#       T            LDETRENDED       SIG_OBS
     2006.60095         0.12991         5.21567
     2006.60369         4.01338         5.19415
     2006.60643         8.71886         5.23988
     2006.60917         5.44833         5.11613
     2006.61190         9.07580         5.13586
     2006.61464         0.83228         5.09730
     2006.61738         8.01875         5.13317
     2006.62012        10.24222         5.26948
     2006.62286         9.52670         5.14482
     2006.62559         3.51017         5.10178
     2006.75975         8.11035         5.20491
     2006.76249        10.36383         5.27217
     2006.76522         8.02530         5.34122
     2006.76796         7.55077         5.41565
     2006.77070         3.66425         5.22464
     2006.77344        -0.24328         5.39234
     2006.77618        10.33219         5.26320
     2006.77891        11.37467         5.16635
     2006.78165        10.13414         5.05873
     2006.78439         9.03661         5.17801
     2006.78713        19.02908         5.38516
     2006.78987        20.47056         5.22912
     2006.79260         8.17003         5.15290
     2006.79534         9.71450         5.20312
     2006.79808        14.22698         5.29279
     2006.80082         5.38545         5.21029
     2006.80355         7.64592         5.13137
     2006.80629         8.46140         5.13137
     2006.80903         5.98287         5.06950
     2006.81177        10.00934         5.14662
     2006.81451         6.11982         5.29817
     2006.81724         9.94729         5.22464
     2006.81998        10.39776         5.12779
     2006.82272         3.63124         5.07129
     2006.82546        16.79171         5.29279
     2006.82820        10.42718         5.11523
     2006.83093         8.55466         5.10716
     2006.83367        10.54013         5.05963
     2006.83641        16.64560         5.19415
     2006.83915        10.89107         5.17532
     2006.84188        10.38355         5.30355
     2006.84462        16.26302         5.44525
     2006.84736         8.16649         5.23361
     2006.85010        22.35897         5.46408
     2006.85284        12.64144         5.35198
     2006.85557         9.39191         5.27934
     2006.85831         4.20839         5.21029
     2006.86105        16.32386         5.38516
     2006.86379         9.71933         5.28741
     2006.86653        11.51681         5.33674
     2006.86926        20.00828         5.20670
     2006.87200        -3.88225         5.21029
     2006.87474         3.02423         5.18966
     2006.87748         6.78070         5.11075
     2006.88021         5.78017         5.11792
     2006.88295        -0.31936         5.22823
     2006.88569         2.39712         5.16366
     2006.88843         5.95059         5.32149
     2006.89117         0.99406         5.19235
     2006.89390         1.52154         5.38427
     2006.89664         0.93301         5.29190
     2006.89938         0.55348         5.66944
     2006.90212         3.72596         5.19863
     2006.90485        -0.40557         5.13675
     2006.90759         5.26090         5.09550
     2006.91033        -0.07562         5.05604
     2006.91295         2.10866         5.27934
     2006.91581        -4.17568         5.12420
     2006.91854         0.19980         5.20670
     2006.92128        -2.81473         5.13765
     2006.92402         0.79774         5.20132
     2006.92676        -5.78579         5.15828
     2006.92950        -0.98231         5.19325
     2006.93223        -2.60284         5.19325
     2006.93497        -3.74637         5.38785
     2006.93771        -0.73589         5.24706
     2006.94045         4.39358         5.17442
     2006.94318         3.54405         5.22733
     2006.94592         2.46553         5.17352
     2006.94866         4.59500         5.24347
     2006.95140         6.63447         5.29728
     2006.95414         0.53895         5.50981
     2006.95687         2.57242         5.14034
     2006.95961         1.96589         5.09371
     2006.96235        -2.76763         5.09102
     2006.96509         1.54884         5.31701
     2006.96783         4.35831         5.31432
     2006.97056         3.12278         5.22554
     2006.97330        -5.23574         5.13137
     2006.97604        -3.22827         5.18518
     2006.97878         4.41820         5.25692
     2006.98151        -1.12832         5.23092
     2006.98425        -5.77885         5.17083
     2006.98699         4.25662         5.29548
     2006.98973        -6.91690         5.21926
     2006.99794        -7.49948         5.23450
     2007.00342         0.58546         5.50085
     2007.00616         2.46094         5.29369
     2007.00889         0.69441         5.30266
     2007.01163        -0.62712         5.19773
     2007.01437        -2.54464         5.23361
     2007.01711       -10.02217         5.27037
     2007.01984       -10.42070         5.20760
     2007.02258       -11.65223         5.24616
     2007.02504        -2.63722         5.98331
     2007.05544       -10.69855         4.93677
     2007.05817       -10.79007         5.00851
     2007.06091        -3.49560         5.12510
     2007.06365        -8.93213         4.98161
     2007.06639        -7.03866         5.18070
     2007.06913        -7.77518         4.96009
     2007.07186        -7.32671         4.92870
     2007.07460        -9.46624         4.92691
     2007.07734        -9.46576         4.94126
     2007.08008       -16.06129         4.93139
     2007.08282        -5.45582         4.96637
     2007.08555        -8.86434         5.01300
     2007.08829       -11.44887         4.99955
     2007.09103        -2.76840         5.02645
     2007.09377        -3.09692         5.15200
     2007.09650        -4.75145         5.09909
     2007.09924        -3.99498         5.07757
     2007.10198       -11.98550         5.09999
     2007.10472        -4.38803         5.11254
     2007.10746        -4.23956         5.12151
     2007.11019        -5.82909         4.92511
     2007.11293        -2.19561         4.98161
     2007.11567        -8.21914         4.99506
     2007.11841        -5.64567         4.94664
     2007.12115        -5.96719         4.91435
     2007.12388        -7.72372         5.14393
     2007.12662        -6.02825         5.05335
     2007.12936        -3.13077         5.19953
     2007.13210        -3.16630         5.07936
     2007.13466        -3.71411         5.37888
     2007.13757         5.15565         5.07308
     2007.14031        -2.31488         5.04528
     2007.14305        -3.39341         5.03900
     2007.14579        -5.06093         4.99686
     2007.14852        -0.26946         4.99955
     2007.15126         3.04601         4.99596
     2007.15400         0.23048         5.15738
     2007.15674         2.23296         5.05156
     2007.15948        -4.09057         5.00851
     2007.16221        -5.18510         5.25244
     2007.16495        -7.33162         5.10985
     2007.16769        -9.00015         5.16814
     2007.17043        -9.95568         5.12510
     2007.17316        -2.26520         5.18339
     2007.17590        -4.17673         5.13048
     2007.17864        -2.43426         5.18249
     2007.18138         1.29922         5.16993
     2007.18412        -0.95331         5.11792
     2007.18685         0.22216         5.26499
     2007.18959        -6.09036         5.16814
     2007.19233        -9.58789         5.21477
     2007.19507       -12.23142         5.00941
     2007.19780        -6.88094         5.07308
     2007.20054       -16.30547         5.02107
     2007.20328        -9.78400         5.09819
     2007.20602        -9.57953         5.09281
     2007.20876        -5.83705         5.07936
     2007.21149       -11.14258         4.98609
     2007.21423        -3.63311         5.00493
     2007.21697       -11.70663         5.05873
     2007.21971        -1.19316         5.02286
     2007.22245        -0.75469         5.06860
     2007.22518         0.68379         5.18877
     2007.22792        -2.41674         5.03183
     2007.23066        -9.15327         4.94484
     2007.23340       -12.67779         5.05335
     2007.23613       -15.78732         5.05694
     2007.23887       -11.24885         4.99058
     2007.24161        -9.67037         4.95919
     2007.24435        -5.86590         5.04170
     2007.24709        -7.95943         4.98340
     2007.24982        -9.37696         4.93946
     2007.25256       -13.02848         4.96009
     2007.25530       -13.95101         4.95291
     2007.25804       -12.90254         5.00224
     2007.26078        -8.06106         5.06232
     2007.26351        -6.33859         5.00493
     2007.26625        -3.96312         5.06770
     2007.26899         2.64736         5.01390
     2007.27173        -4.98917         5.06591
     2007.27446        -0.79870         4.95471
     2007.27720         0.37578         5.01390
     2007.27994         0.41325         5.16904
     2007.28268        -0.33628         5.06950
     2007.28542        -7.85080         4.97713
     2007.31553         0.26640         5.10626
     2007.31827        -0.59813         5.11613
     2007.32101         0.88835         5.21746
     2007.32375       -13.38718         5.02555
     2007.32648        -5.63971         5.07846
     2007.32922        -2.52923         5.05246
     2007.33196         7.08424         5.22105
     2007.33470        -4.56029         5.14303
     2007.33744        -7.27782         5.03631
     2007.34017        -6.59934         5.06860
     2007.34291       -11.92487         5.12958
     2007.34565        -4.38740         5.14931
     2007.34839        -4.34092         5.15828
     2007.35112       -10.52545         5.11792
     2007.35386        -7.55898         5.35377
     2007.35660       -13.10750         5.33225
     2007.35934        -5.79203         5.09191
     2007.36208       -10.70956         5.11972
     2007.36481        -8.51808         5.18249
     2007.36755        -6.28061         5.03452
     2007.37029        -5.75614         5.31432
     2007.37303        -5.05666         5.22374
     2007.37577        -9.32819         5.31252
     2007.37850        -8.40772         5.18966
     2007.38124         1.14176         5.09191
     2007.38398        -4.62477         5.12868
     2007.38672       -14.19130         5.05066
     2007.38945        -8.06383         5.17621
     2007.39219        -8.81235         5.15917
     2007.39493        -1.96888         5.14303
     2007.39767       -12.90341         5.09999
     2007.40041        -4.07393         5.05784
     2007.40314        -8.27246         5.06322
     2007.40588        -8.47299         4.99506
     2007.40856        -8.43161         5.27755
     2007.41136       -10.41304         5.08205
     2007.41410       -10.55557         5.06501
     2007.41683        -2.45309         5.13586
     2007.41957       -10.67262         5.12510
     2007.42231         0.04585         5.14393
     2007.42505         0.61933         5.24706
     2007.42778         3.43280         5.03004
     2007.43052         1.43327         4.94484
     2007.43326        -2.26526         4.94574
     2007.43600        -3.40278         5.10626
     2007.43862        -2.76150         5.35646
     2007.44147        -4.20184         5.13855
     2007.44381        -7.83102         6.03174
     2007.44695        -5.98489         5.02555
     2007.44969       -12.41042         4.98879
     2007.45243        -2.76394         5.06232
     2007.45516        -4.95647         5.04977
     2007.45790        -2.26800         5.04259
     2007.46064        -4.79552         5.04170
     2007.46338        -3.74105         4.94664
     2007.46611        -7.68658         5.00493
     2007.46885        -1.99210         5.09371
     2007.47159        -2.23663         5.09461
     2007.47433        -2.29816         5.07667
     2007.47707       -10.34569         5.15648
     2007.47980        -8.79321         4.97354
     2007.48254        -7.48974         5.05066
     2007.48528        -6.72527         5.09191
     2007.48802        -2.43779         5.07846
     2007.49076        -0.84532         5.10268
     2007.49463       -11.87498        12.59975
     2007.49697         6.54584         7.49977
     2007.49897       -13.45390         5.03273
     2007.50171        -4.02843         5.10716
     2007.50553        10.90482        10.75149
     2007.50787        -5.57436         6.81911
     2007.50992        -9.00401         5.01928
     2007.51266        -8.09553         5.19146
     2007.51540         4.12894         5.12420
     2007.51813        -7.57259         5.04887
     2007.52087        -8.72312         5.10626
     2007.52350        -4.57983         5.23630
     2007.52635        -2.34317         5.04797
     2007.52908         4.85730         5.33494
     2007.53182        -3.99122         5.13317
     2007.53456        -1.58875         5.16904
     2007.53730        -4.61228         5.12779
     2007.54004         0.18320         5.13406
     2007.54277        -2.87933         5.08564
     2007.54551        -0.79286         5.15200
     2007.54825         8.90862         5.08026
     2007.55099         3.38609         5.16366
     2007.55373        -1.73744         5.11882
     2007.55646         2.91204         5.07219
     2007.55920         0.48851         5.09730
     2007.56194        -0.44202         4.98430
     2007.56468         3.86245         5.16635
     2007.56741        -1.14707         5.07577
     2007.57015         1.21440         5.07936
     2007.57289        -1.76913         5.06950
     2007.57563        -2.19065         4.98968
     2007.57837        -4.04518         5.01390
     2007.58110        -0.89471         5.05066
     2007.58384         0.51677         5.05963
     2007.58658         3.93724         5.07308
     2007.58932        -3.68029         5.04170
     2007.59206         2.35419         4.99955
     2007.59479         5.84266         5.06591
     2007.59753         8.96713         5.30625
     2007.60027         3.70761         4.98251
     2007.60301         7.24808         4.98968
     2007.60574         1.63155         4.97175
     2007.60848         1.19403         4.97892
     2007.61122         4.69050         5.06501
     2007.61396        -1.63903         5.01210
     2007.61670        -1.01956         5.42462
     2007.61943         4.30692         5.38785
     2007.62217        12.14739         5.27486
     2007.62491         3.50986         5.24437
     2007.62765         4.49334         5.29907
     2007.63039        10.17281         5.26320
     2007.63312         8.39928         5.15738
     2007.63586         4.22976         5.14213
     2007.63860         1.22623         5.13317
     2007.64134        -1.24630         5.07846
     2007.64407         7.16318         5.28472
     2007.64681         6.44165         5.35377
     2007.64955         8.45512         5.46856
     2007.65229         7.54560         5.36812
     2007.65503         6.81807         5.24885
     2007.65776         7.09354         5.23361
     2007.66050         1.94401         5.20670
     2007.66324        12.53749         5.36633
     2007.66598         9.81196         5.25782
     2007.66872         0.13743         5.28921
     2007.67145         4.58091         5.33494
     2007.67419         7.41438         5.29459
     2007.67693         7.36285         5.20043
     2007.67967        10.00033         5.25782
     2007.68240        10.30880         5.29100
     2007.68514         6.83227         5.40489
     2007.68788         6.97675         5.31970
     2007.69062         6.23822         5.18249
     2007.69336         9.81069         5.16276
     2007.69609         8.90017         5.25603
     2007.69883         9.96064         5.27037
     2007.70157        11.44911         5.26410
     2007.70431        12.21558         5.34212
     2007.70705         8.07306         5.33674
     2007.70978        12.48653         5.34570
     2007.71252         9.61400         5.21746
     2007.71526         7.76348         5.14572
     2007.71800         9.54395         5.14752
     2007.72073         9.89742         5.09730
     2007.72347        14.81690         5.11972
     2007.72621         9.57237         5.02197
     2007.72895        10.92384         5.15110
     2007.73169        13.67232         5.23899
     2007.73442         6.90079         5.08205
     2007.73716         2.90126         5.28652
     2007.73990        16.31374         5.14572
     2007.74264        15.72621         5.09640
     2007.74538        27.53168         5.18787
     2007.74811        20.68815         5.22015
     2007.75085        13.52463         5.39861
     2007.75359        17.94910         5.28383
     2007.75633        12.73957         5.12420
     2007.75906        10.37405         5.11344
     2007.76180        10.88452         5.13406
     2007.76454         7.93699         5.08026
     2007.76728        10.93947         5.49188
     2007.77002         9.32394         5.51430
     2007.77275        10.95941         5.50264
     2007.77549        14.25289         5.13855
     2007.77823         6.54336         5.03631
     2007.78097         8.80383         5.01031
     2007.78371        10.30831         5.11523
     2007.78644        16.85278         5.06681
     2007.78918        18.20825         5.28114
     2007.79192        17.89573         5.25064
     2007.79466        16.98320         5.21746
     2007.79739        17.14167         5.19056
     2007.80013        14.24514         5.13137
     2007.80258        13.13215         5.57976
     2007.80561         6.98709         5.17890
     2007.80835         7.91556         5.15559
     2007.81108        25.99104         5.35108
     2007.81382         9.45451         5.25154
     2007.81656         1.08498         5.31163
     2007.81930         5.84846         5.15469
     2007.82203         3.33293         5.22733
     2007.82477         3.30140         5.23540
     2007.82751         3.47888         5.15559
     2007.83025         8.29235         5.26768
     2007.83299         3.37482         5.03183
     2007.83572         0.92530         5.04797
     2007.83846         5.50677         5.14482
     2007.84120         3.71424         5.16635
     2007.84394         2.70371         5.09999
     2007.84668         2.88419         5.09909
     2007.84941         4.51066         5.10537
     2007.85215        10.42713         5.22284
     2007.85489        10.45561         5.68379
     2007.85763         0.21708         5.30804
     2007.86036         7.32355         5.11613
     2007.86310        10.21003         5.29728
     2007.86584        -0.41550         5.11164
