# ================= DQRFIT RESULTS ================
# INPUT FILE: series/DEA3.rad
# OUTPUT: LDETRENDED
# FILTER FUNCTION: f(t)
# f(t)=+line(t)+annual(t)
# line(t)=+P 1+P 2*t
# annual(t)=+P 3*sin(2*pi*t+P 4)
# heav(t)=(t<0?0:1)
# TOTAL OBSERVATIONS MTOT= 1891
# INITIAL TIME INTERVAL= 2014.7267 - 2006.7625 =  7.9642
# TOTAL OBSERVATIONS AFTER PREFILTER M= 1891
# TIME-SPAN= 2014.7267 - 2006.7625 =  7.9642
# OBSERVATIONS: USED M=  1891 REJECTED MTOT-M=     0 %USED=  100.0000
# N=  4 PARAMETERS
# MAXSIG= 175.00000
# MAXRES=  22.10684
# SCALE FACTOR FOR LENGTHS: SCL=  10.00000
# SCALE FACTOR FOR SIGMAS: SCLSIG=   1.00000
# CHI^2=   1603.611 DOF=  1887 CHI^2/DOF=   0.84982
# RMS=      5.347 SDEV=      5.348 MEAN=    0.05220
#  P #       PARAMETER +-    SIGMA %error PARAMETER NAME
# P 1 =      3098.63798 +-  149.463   4.82 YZERO                              
# P 2 =        -1.53847 +-    0.074   4.83 SLOPE                              
# P 3 =         4.25636 +-    0.172   4.05 ANNUAL AMPLITUDE                   
# P 4 =        -2.90273 +-    0.056   1.92 ANNUAL PHASE                       
#       T            LDETRENDED       SIG_OBS
     2006.76249         1.56174         5.61595
     2006.76522         4.58895         5.43619
     2006.76796         3.90916         5.54681
     2006.77070         5.47138         5.32096
     2006.77344         9.08559         5.30529
     2006.77618         6.78480         5.34954
     2006.77891        10.62501         5.29976
     2006.78165        11.20522         5.26934
     2006.78439         6.36544         5.22877
     2006.78713         9.22565         5.55419
     2006.78987        16.22486         5.38457
     2006.79260         6.02207         5.27763
     2006.79534         0.68128         5.28316
     2006.79808         1.46350         5.39747
     2006.80082         6.35971         5.35046
     2006.80355         6.10792         5.24537
     2006.80629        11.44113         5.29146
     2006.80903         4.37634         5.26473
     2006.81177         4.82956         5.30437
     2006.81451         0.63677         5.48321
     2006.81724         7.53498         5.32741
     2006.81998        -0.64981         5.28316
     2006.82272         1.88641         5.15595
     2006.82546        11.61762         5.40024
     2006.82820         4.55483         5.27763
     2006.83093         8.26604         5.15595
     2006.83367        13.61325         5.23338
     2006.83641        13.18147         5.30529
     2006.83915        10.07068         5.46938
     2006.84188        -0.63611         5.45186
     2006.84462        12.79410         5.67219
     2006.84736         5.61131         5.45463
     2006.85010         0.68753         5.67864
     2006.85284         1.44874         5.56894
     2006.85468        11.29258         9.52924
     2006.86926         2.86801         5.25827
     2006.87200        -1.12378         5.37166
     2006.87474         4.39643         5.44172
     2006.87748        -0.86835         5.16332
     2006.88021        -3.96414         5.24537
     2006.88295         0.23407         5.37719
     2006.88569         7.56528         5.34216
     2006.88843         0.65050         5.36521
     2006.89117         5.00171         5.26380
     2006.89390       -13.63508         5.48321
     2006.89664        -7.87587         5.43066
     2006.89938        -9.02466         5.27579
     2006.90212        -3.30744         5.38825
     2006.90485         2.12877         5.34493
     2006.90759         6.05498         5.22416
     2006.91033        -5.63581         5.23891
     2006.91295         0.85523         5.47491
     2006.91581        -3.51138         6.94066
     2006.91854        -6.54217         5.17899
     2006.92128        -4.20696         5.24168
     2006.92402        -8.50675         5.35507
     2006.92676       -11.89754         5.29238
     2006.92950        -4.50432         5.36060
     2006.93223        -1.72011         5.28869
     2006.93497         8.30710         5.53667
     2006.93771        -1.12469         5.46753
     2006.94045         2.64853         5.30897
     2006.94318         1.21574         5.35507
     2006.94592        -5.63605         5.48966
     2006.94866         6.24916         5.64453
     2006.95140        13.28437         5.36797
     2006.95414         3.89659         5.56802
     2006.95687         5.10780         5.26657
     2006.95961        -3.99599         5.27394
     2006.96235        -5.09878         5.34032
     2006.96509        -3.99857         5.39286
     2006.96783         1.28765         5.43435
     2006.97056        -1.12814         5.49242
     2006.97330         1.23307         5.40669
     2006.97604        -1.24672         5.38180
     2006.97878         3.36749         5.53667
     2006.98151        12.27971         5.43711
     2006.98425        13.50992         5.39194
     2006.98699         4.12613         5.54313
     2006.98973       -12.04466         5.40024
     2006.99794        -9.40002         5.49980
     2007.00342        -5.17360         5.92293
     2007.00616         6.56162         5.56249
     2007.00889         5.24883         5.50717
     2007.01163        -2.20396         5.39655
     2007.01437        -5.88675         5.46200
     2007.01711        -9.03654         5.48228
     2007.01984       -13.38932         5.25090
     2007.02258        -8.49911         5.31174
     2007.02504        -3.42934         6.04554
     2007.05544        -7.70257         5.09418
     2007.05817       -11.72935         5.03426
     2007.06091        -8.87814         5.07298
     2007.06365       -12.91393         5.02412
     2007.06639        -7.08572         5.11170
     2007.06913        -4.52851         4.98172
     2007.07186        -2.08429         4.98079
     2007.07460        -3.89108         5.04348
     2007.07734        -9.30987         5.08681
     2007.08008        -5.86066         5.01122
     2007.08282        -2.48745         5.00568
     2007.08555        -2.85323         5.11631
     2007.08829        -6.29202         5.03795
     2007.09103        -0.63381         5.13659
     2007.09377        -3.52960         5.16148
     2007.09650        -5.10639         5.21955
     2007.09924        -3.62617         5.03795
     2007.10198        -6.21196         5.04256
     2007.10472         5.11725         5.27948
     2007.10746         0.86546         5.41868
     2007.11019        -3.26833         5.08589
     2007.11293        13.62189         5.22877
     2007.11567        -4.37290         5.13013
     2007.11841        -1.44269         5.05915
     2007.12004        -8.04218        12.38607
     2007.12771        18.43262        10.94337
     2007.12936        -5.28784         5.27948
     2007.13210        -2.21663         5.13198
     2007.13466        -2.37768         5.50717
     2007.13757         5.11380         5.20573
     2007.14031         5.66301         5.13843
     2007.14305        10.25622         5.13843
     2007.14579        -1.60857         5.10617
     2007.14852         0.72164         5.12645
     2007.15126         7.82086         5.19559
     2007.15400         1.85107         5.17991
     2007.15674         9.14128         5.19374
     2007.15948        -0.14751         5.16240
     2007.16221        -7.25130         5.24813
     2007.16495         0.39092         5.45647
     2007.16769        12.47813         5.36982
     2007.17043        -1.92266         5.17346
     2007.17316        -4.86145         5.16793
     2007.17590        -2.63923         5.19559
     2007.17864         4.30898         5.34677
     2007.18138        -0.97081         5.18268
     2007.18412        -4.13860         5.24076
     2007.18685        11.24561         5.29976
     2007.18959        -1.82917         5.39747
     2007.19233         3.71904         5.28408
     2007.19507         0.35225         5.10709
     2007.19780       -10.42954         5.08128
     2007.20054       -10.08433         5.12553
     2007.20328        -9.42711         5.20573
     2007.20602        -2.13190         5.13843
     2007.20876        -5.35969         5.18913
     2007.21149        -6.81148         5.21034
     2007.21423        -4.53227         5.35322
     2007.21697        -3.07605         5.15687
     2007.21971        -3.95784         5.08681
     2007.22245        -6.59463         5.14673
     2007.22518         5.53158         5.25919
     2007.22792        11.20279         5.12368
     2007.23066        -1.89299         5.09234
     2007.23340         1.26422         5.13935
     2007.23613       -12.23957         5.11999
     2007.23887        -6.83336         5.03703
     2007.24161       -10.67714         5.27394
     2007.24435        -0.80593         5.30713
     2007.24709        -3.71372         5.04717
     2007.24982        -0.87751         5.02136
     2007.25256        -5.77930         5.08128
     2007.25530       -11.51008         5.34585
     2007.25804        -4.67587         5.17070
     2007.26078         1.56034         5.17438
     2007.26351         7.32155         5.23430
     2007.26625        -4.11524         5.28501
     2007.26899         9.06898         5.19466
     2007.27173        -3.31581         5.30344
     2007.27446         6.52040         5.12460
     2007.27720         4.32961         5.06007
     2007.27994        -1.02918         5.08496
     2007.28268         6.56504         5.23523
     2007.28542         0.53125         5.22693
     2007.31553         0.34258         5.11170
     2007.31827        -0.04821         5.25919
     2007.32101         0.71701         5.12737
     2007.32375         0.89922         5.13935
     2007.32648        -2.63557         5.27487
     2007.32922        -2.65836         5.22877
     2007.33196         3.39885         5.37627
     2007.33470         2.58507         5.32465
     2007.33744        10.58128         5.19466
     2007.34017        -4.48451         5.20573
     2007.34291        -8.49730         5.27579
     2007.34565        -6.15609         5.11354
     2007.34839        -4.26687         6.12758
     2007.35112        -1.52266         5.15779
     2007.35386        -6.08445         5.43988
     2007.35660        -6.08524         5.43619
     2007.35934         0.29498         5.31819
     2007.36208        -1.70681         5.12553
     2007.36481        -3.77860         5.22232
     2007.36755        -2.77139         5.19098
     2007.37029        -2.12218         5.32926
     2007.37303         2.36904         5.33663
     2007.37577        -3.15675         5.70169
     2007.37850        -2.45654         5.21863
     2007.38124         3.76167         5.18913
     2007.38398         0.79688         5.37350
     2007.38672        -6.59290         5.15410
     2007.38945        -6.58769         5.28593
     2007.39219        -4.38148         5.44264
     2007.39493        -3.58027         5.17254
     2007.39767        -5.06306         5.15410
     2007.40041        -1.47284         5.13106
     2007.40314        -1.71763         5.21679
     2007.40588        -1.71342         5.13567
     2007.40856        -6.23329         5.29054
     2007.41136        -4.54999         5.75147
     2007.41410         2.12722         5.18637
     2007.41683        -4.40757         5.15042
     2007.41957         3.12664         5.44264
     2007.42231         0.16085         5.36521
     2007.42505         0.48407         5.35507
     2007.42778         3.13028         5.12092
     2007.43052         3.87149         5.11354
     2007.43275         5.53491         6.46775
     2007.44147        -2.15966         5.12553
     2007.45067        -6.91351        11.51399
     2007.45243        -5.04081         5.11170
     2007.45516        -1.20860         5.08773
     2007.45790         0.37061         5.05454
     2007.46064        -1.86318         5.07114
     2007.46338         1.42803         5.07667
     2007.46611        -5.06975         5.11631
     2007.46885         4.94946         5.08865
     2007.47159        -1.10733         5.12645
     2007.47433        -5.58112         5.08404
     2007.47707        -1.65190         5.24444
     2007.47980        -3.45169         5.05178
     2007.48254       -13.94448         5.06745
     2007.48528        -6.06727         5.13474
     2007.48802        -9.16906         5.26104
     2007.49076        -7.89784         5.40393
     2007.49389        -5.89502         5.87960
     2007.49623        -4.75142         5.11446
     2007.49914        -0.23794         5.56525
     2007.50182        -5.69882         5.46661
     2007.50444        -6.00778         5.08128
     2007.50718        -2.41457         5.13843
     2007.50992        -0.87936         5.09787
     2007.51277        -9.91597         5.38180
     2007.51540        -5.88194         5.25459
     2007.51813        -5.07972         5.11078
     2007.52087         2.04149         5.14396
     2007.52350        -6.34047         5.43803
     2007.52635         1.44991         5.39194
     2007.52908        -0.53287         5.42329
     2007.53182        -1.57166         5.21863
     2007.53456         4.42355         5.30068
     2007.53730        -8.40624         5.18360
     2007.54004         0.76797         5.40854
     2007.54277        -2.71781         5.40485
     2007.54551         1.49740         5.22970
     2007.54825        -0.44139         5.25459
     2007.55099         1.54282         5.13013
     2007.55373         3.68103         5.17899
     2007.55646        -6.59175         5.12092
     2007.55920         3.11146         5.17254
     2007.56194         2.17567         5.16332
     2007.56468         3.54688         5.13106
     2007.56741        -2.21691         5.24537
     2007.57015        -3.75769         5.37996
     2007.57289        -1.34548         5.25735
     2007.57563         1.37073         5.14120
     2007.57837        -3.34006         5.17438
     2007.58110         0.23715         5.16885
     2007.58384         0.67937         5.21126
     2007.58658         3.16958         5.45832
     2007.58932         4.82279         5.11262
     2007.59206         1.89100         5.22416
     2007.59479         8.75222         5.28869
     2007.59753        -1.40957         5.29883
     2007.60027         1.09564         5.24076
     2007.60301         3.34885         5.24537
     2007.60574         6.82406         5.17438
     2007.60848         3.74528         5.18360
     2007.61122         4.84949         5.17070
     2007.61396         0.91970         5.06376
     2007.61670        -1.52109         5.42974
     2007.61943         7.90912         5.58738
     2007.62217         5.10134         5.48782
     2007.62491         4.58555         5.37996
     2007.62765         2.71476         5.63255
     2007.63039        11.53297         5.47583
     2007.63312         7.88418         5.38365
     2007.63586         3.81840         5.29515
     2007.63860         0.87161         5.35783
     2007.64134         5.43282         5.25919
     2007.64407         9.90303         5.41868
     2007.64681        -5.75975         5.43711
     2007.64955        11.28246         5.48321
     2007.65229         3.84567         5.37811
     2007.65503         2.25788         5.28501
     2007.65776         7.39309         5.36982
     2007.66050         4.93031         5.42605
     2007.66324         6.38752         5.61503
     2007.66598         8.65173         5.24998
     2007.66872        10.78294         5.36982
     2007.67145         4.72315         5.39471
     2007.67419        10.73237         5.64453
     2007.67693        12.12458         5.42052
     2007.67967        10.83779         5.47583
     2007.68240        11.76900         5.29699
     2007.68514         4.46421         5.43527
     2007.68788         4.51643         5.43066
     2007.69062        10.50564         5.40854
     2007.69336        10.14885         5.43896
     2007.69609         7.33906         5.44818
     2007.69883         8.80427         5.27210
     2007.70157        11.93349         5.44725
     2007.70431         8.94770         5.57539
     2007.70705        10.15991         5.37811
     2007.70978        13.96512         5.46293
     2007.71252         1.56134         5.41591
     2007.71526         8.01255         5.23154
     2007.71800        13.44676         5.24168
     2007.72073        10.85297         5.13474
     2007.72347        15.89118         5.27394
     2007.72621         4.17040         5.24998
     2007.72895         8.45561         5.15871
     2007.73169         5.75682         5.32280
     2007.73442         8.20803         5.33202
     2007.73716         7.14224         5.34861
     2007.73990        16.04646         5.51178
     2007.74264         9.13167         5.23523
     2007.74538        11.08388         5.28501
     2007.74811         7.16409         5.45924
     2007.75085         2.46730         5.48228
     2007.75359         9.06452         5.55972
     2007.75633        10.77973         5.38549
     2007.75906         9.08494         5.14488
     2007.76180         3.51815         5.27302
     2007.76454         4.06237         5.36336
     2007.76728        10.89558         5.96902
     2007.77002        12.33479         5.79295
     2007.77275         2.30400         5.54220
     2007.77549         7.71221         5.21771
     2007.77823         6.25943         5.15502
     2007.78097        10.45064         5.17531
     2007.78371         6.43685         5.12276
     2007.78644         4.75606         5.20573
     2007.78918         1.81627         5.42329
     2007.79192         6.42149         5.48136
     2007.79466        14.54370         5.41314
     2007.79739        12.98791         5.47399
     2007.80013        13.88012         5.32741
     2007.80258        -3.69710         5.63716
     2007.80561        -2.63645         5.31082
     2007.80835        -3.29524         5.43343
     2007.81108         7.98397         5.34124
     2007.81382         0.48618         5.39010
     2007.81656        -5.27461         5.51086
     2007.81930        -0.88639         5.25919
     2007.82203        -4.54318         5.38825
     2007.82477        -4.49497         5.46108
     2007.82751        -3.96676         5.23523
     2007.83025        -0.07854         5.25090
     2007.83299       -12.03633         5.37719
     2007.83572        -4.39112         5.13290
     2007.83846        -2.52091         5.28040
     2007.84120         0.74330         5.13935
     2007.84394        -3.32348         5.16977
     2007.84668        -6.75327         5.23984
     2007.84941       -10.25306         5.37904
     2007.85215        -5.19585         5.42789
     2007.85489         0.02336         5.65836
     2007.85763        -3.53242         5.33847
     2007.86036        -5.14821         5.32465
     2007.86310        -1.31200         5.37996
     2007.86584        -0.29779         5.27763
     2007.86858         0.77742         5.20020
     2007.87132         0.12864         5.26196
     2007.87405         8.08685         5.35876
     2007.87679        10.39606         5.42329
     2007.87953        -3.01673         5.31451
     2007.88227         9.72749         5.27210
     2007.88501        -0.27930         5.19466
     2007.88774        -4.66909         5.15410
     2007.89048        -3.65288         5.16240
     2007.89322         0.07533         7.15453
     2007.89596         0.47855         5.40393
     2007.89869        -6.29224         5.19559
     2007.90132        -6.67721         5.50533
     2007.90948         2.46134         5.78373
     2007.91238         5.15382         5.25919
     2007.91512        -1.33697         5.22693
     2007.91786        -4.75376         5.24629
     2007.92060         0.81045         5.32557
     2007.92334        -6.53333         5.59936
     2007.92607        -2.57712         5.28040
