# ================= DQRFIT RESULTS ================
# INPUT FILE: series/DEEJ.rad
# OUTPUT: LDETRENDED
# FILTER FUNCTION: f(t)
# f(t)=+line(t)+annual(t)+jumps(t)
# line(t)=+P 1+P 2*t
# annual(t)=+P 3*sin(2*pi*t+P 4)
# jumps(t)=+P 5*heav(t-2017.5448  )
# heav(t)=(t<0?0:1)
# TOTAL OBSERVATIONS MTOT= 3495
# INITIAL TIME INTERVAL= 2022.7488 - 2012.6407 = 10.1081
# TOTAL OBSERVATIONS AFTER PREFILTER M= 3473
# TIME-SPAN= 2022.7488 - 2012.6407 = 10.1081
# OBSERVATIONS: USED M=  3473 REJECTED MTOT-M=    22 %USED=   99.3705
# N=  5 PARAMETERS
# MAXSIG= 175.00000
# MAXRES=  39.81694
# SCALE FACTOR FOR LENGTHS: SCL=  10.00000
# SCALE FACTOR FOR SIGMAS: SCLSIG=   1.00000
# CHI^2=   3305.353 DOF=  3468 CHI^2/DOF=   0.95310
# RMS=      6.683 SDEV=      6.683 MEAN=   -0.07323
#  P #       PARAMETER +-    SIGMA %error PARAMETER NAME
# P 1 =     -7180.80945 +-  135.486   1.89 YZERO                              
# P 2 =         3.56745 +-    0.067   1.88 SLOPE                              
# P 3 =         3.86195 +-    0.134   3.47 ANNUAL AMPLITUDE                   
# P 4 =         3.02185 +-    0.049   1.61 ANNUAL PHASE                       
# P 5 =        -3.77785 +-    0.393  10.39 OFFSET 2017.5448                   
#       T            LDETRENDED       SIG_OBS
     2012.64065        17.29242         6.49609
     2012.64339        14.41265         9.65432
     2012.64612         9.95092         5.48370
     2012.66063        -2.29687         8.99339
     2012.66255        13.97330         8.69270
     2012.66529         9.31251         5.74925
     2012.66739        10.02103         7.36399
     2012.68012        23.06361        16.21875
     2012.68172        10.18691         7.41574
     2012.68344        22.63779        10.70576
     2012.68777         9.97332         7.37669
     2012.68994        12.96759         5.36850
     2012.69267         6.39984         5.64479
     2012.69541         4.91107         6.70306
     2012.69815         7.39431         5.49151
     2012.69998         3.98578         9.39073
     2012.70694         4.90894         7.13945
     2012.70910         2.35322         5.55106
     2012.71183         9.31649         5.56961
     2012.71452        11.05291         5.53251
     2012.71791        12.01782        10.77605
     2012.72089        10.07518         9.82614
     2012.73211         9.07713        14.85100
     2012.73314        24.81949         7.39524
     2012.73724        16.11584         8.69758
     2012.73921        10.71180         5.68872
     2012.74195        14.35805         5.88397
     2012.74469         8.94826         5.64967
     2012.74743        15.20348         5.52080
     2012.75017        11.04573         5.64186
     2012.75290        12.74896         5.49932
     2012.75564        13.20021         7.97709
     2012.75838         7.74843         5.42805
     2012.76112        10.90966         5.54618
     2012.76385         7.27591         5.44856
     2012.77287        43.67774        30.51621
     2012.77879        10.52862        18.38119
     2012.78028        17.96029         5.56180
     2012.78302        14.00552         6.13292
     2012.78576         9.24674         5.59890
     2012.78850        17.44499         5.74632
     2012.79116        10.28048         6.03725
     2012.79480         3.97749         9.64651
     2012.79671        10.71369         5.52178
     2012.79849         5.12435        10.77703
     2012.80277        11.06109         7.74376
     2012.80493         8.52937         5.61843
     2012.80767        12.04060         6.14366
     2012.81025         6.25538         6.04603
     2012.81439         9.42863        20.54362
     2012.81587         0.67332         5.44172
     2012.81861         0.71655         5.60378
     2012.82136         0.32577         5.69067
     2012.82309        11.60156        11.49947
     2012.83007        -9.86633        20.50750
     2012.83504         1.48795         5.58426
     2012.83778         3.89218         5.69262
     2012.84052         4.13341         5.65552
     2012.84326         5.10163         5.69750
     2012.84599        -6.00312         5.87421
     2012.84873        -6.03789         5.69262
     2012.85147         3.61635         5.59304
     2012.85420         5.23358         6.84755
     2012.85694         3.34181         6.08801
     2012.85968         4.48704         5.35776
     2012.86242        -3.56374         5.64967
     2012.86516         9.42849         6.76847
     2012.86789        -0.30126         5.75608
     2012.87063         0.87198         5.56278
     2012.87337         1.02321         5.49444
     2012.87610         1.54846         5.42708
     2012.87885         6.62566         5.64576
     2012.88143         8.71847         5.98941
     2012.88788         0.94646         8.85280
     2012.88979        11.36462         5.68481
     2012.89254         2.07482         5.56473
     2012.89519        -0.82164         5.76682
     2012.89865        -3.91198         7.58561
     2012.90075         3.46152         5.45344
     2012.90348         2.02679         5.57449
     2012.90572         6.86580         7.10626
     2012.90971         0.93256        10.39726
     2012.91167         7.82357         7.47138
     2012.91443        18.88172         7.33666
     2012.91718         5.97493         7.45772
     2012.91900        13.66544        16.18361
     2012.92350       -22.48463        16.43158
     2012.92539         2.68163         8.71027
     2012.92816         7.00375        11.19487
     2012.93054        -5.72075         8.51404
     2012.93445        -1.59870        12.41423
     2012.93596        -3.47708         7.49189
     2012.93942        -1.86342         6.73723
     2012.94182         0.65601         8.15087
     2012.94459         7.76214         7.94292
     2012.94732         5.96138         8.49842
     2012.95000        -1.54215         8.67415
     2012.95364         6.52986         9.59575
     2012.95551         7.44719         6.07923
     2012.95825       -20.33659         5.81270
     2012.96098         0.05068         5.80978
     2012.96371        -3.30909         5.69848
     2012.96645        -4.97986         6.29596
     2012.96919         3.20336         5.57157
     2012.97193         9.24059         6.06360
     2012.97467        15.12082         5.62038
     2012.97741         3.45704         5.55692
     2012.98015        -2.33773         5.81759
     2012.98244        -0.45888         7.01840
     2013.04155       -11.28576        16.07622
     2013.04312        -3.16635         5.52568
     2013.04585        -0.80912         5.57840
     2013.04859        -2.29789         5.52861
     2013.05133        -0.98964         5.40755
     2013.05407         0.12858         5.53056
     2013.05681         3.28881         5.51397
     2013.05954         1.23404         5.49444
     2013.06228         0.04228         5.55790
     2013.06502         1.08651         5.60769
     2013.06775        -2.60324         5.61257
     2013.07049        -0.19903         5.57157
     2013.07324         0.72719         5.91326
     2013.07597        -3.27956         5.41048
     2013.07871        -2.07433         5.48858
     2013.08145         3.57191         5.46710
     2013.08419        -1.71288         5.48077
     2013.08692         1.30639         5.51201
     2013.08966        -4.89740         5.42317
     2013.09240         1.36982         5.38315
     2013.09514         5.05007         5.39388
     2013.09755        -1.24554         6.39944
     2013.11802        -3.93558        10.93323
     2013.11978        -2.94083         5.76487
     2013.12251        -5.46160         5.45539
     2013.12525        -8.96537         5.45637
     2013.12799        -3.08314         5.44075
     2013.13073        -2.35792         5.43098
     2013.13347        -3.20467         5.43586
     2013.13618         2.79365         5.64576
     2013.13894        -1.36720         7.80136
     2013.14168         2.06403         5.53544
     2013.14442         1.81324         5.65260
     2013.14715        -5.94451         5.65748
     2013.14990        -9.77329         5.48858
     2013.15263        -9.85904         5.49639
     2013.15537       -11.45481         5.56668
     2013.15811        -6.61557         5.38803
     2013.16084        -8.08334         5.44953
     2013.16359        -5.26413         5.51104
     2013.16632        -7.93288         5.38900
     2013.16906        -3.68564         5.43489
     2013.17180        -3.50143         5.44367
     2013.17453        -2.74518         5.90935
     2013.17727        -2.08793         5.50908
     2013.18001        -3.14071         5.64674
     2013.18275        -1.04248         5.39877
     2013.18549        -4.37726         5.30993
     2013.18823        -6.42503         5.50713
     2013.19096        -3.18978         5.41243
     2013.19370        -0.30955         5.37826
     2013.19644        -7.98131         5.38315
     2013.19917        -6.09008         5.49151
     2013.20191        -2.01785         5.36362
     2013.20465         1.33238         5.41536
     2013.20739        -7.97338         5.42903
     2013.21013        -3.43815         5.40462
     2013.21286        -2.80392         5.74144
     2013.21560        -3.83568         5.43879
     2013.21834        -9.50845         5.41146
     2013.22108       -17.14522         5.57352
     2013.22381        -2.85399         5.46125
     2013.22656        -6.94377         5.48858
     2013.22929        -5.48852         5.44953
     2013.23203        -3.00729         5.34898
     2013.23477        -3.75205         5.50616
     2013.23750        -7.25182         5.50323
     2013.24024        -5.91759         5.63893
     2013.24298        -5.05536         5.59109
     2013.24572        -0.62014         5.55009
     2013.24846         2.31811         5.52080
     2013.25119         0.46434         5.58523
     2013.25393         0.40758         5.60671
     2013.25667         0.65781         5.70531
     2013.25941         2.21704         5.60378
     2013.26214         0.13327         5.47003
     2013.26489         2.82049         5.43782
     2013.26762        -2.08026         5.52959
     2013.27037        -1.32806         5.58328
     2013.27272        -3.68544         6.87196
     2013.32884         4.13335        10.02921
     2013.33059        -6.83490         5.48273
     2013.33333        -4.99767         5.58523
     2013.33607        -8.99246         5.71020
     2013.33880        -7.93921         5.62526
     2013.34155        -1.66799         5.53447
     2013.34428        -1.21174         5.52861
     2013.34702        -0.66351         6.05579
     2013.34976        -3.31027         5.41048
     2013.35249        -5.30704         5.51104
     2013.35523        -4.90081         5.63307
     2013.35797         3.61642         5.68091
     2013.36071        -5.08836         5.50713
     2013.36344        -0.36911         5.63112
     2013.36618         1.33212         5.51689
     2013.36892         0.14336         5.51885
     2013.37166        -4.87041         5.58719
     2013.37440        -6.54020         5.44856
     2013.37713        -3.04995         5.50616
     2013.37987        -4.67971         5.57157
     2013.38261        -6.66748         5.43001
     2013.38535        -4.91025         5.52275
     2013.38809        -1.40701         5.49932
     2013.39083         0.55520         5.50323
     2013.39231       -36.58209        25.01591
     2013.39907        -0.18920         6.49219
     2013.40177         3.30317         5.56766
     2013.40451         0.33938         5.52959
     2013.40725         2.36762         5.63405
     2013.40999        -1.63715         5.65748
     2013.41273         1.00406         5.60573
     2013.41546        -2.04869         5.75608
     2013.41821        -0.63947         5.57254
     2013.42094         5.80478         5.67993
     2013.42368        -4.23099         5.53935
     2013.42642        -5.87275         5.55009
     2013.42915         1.51748         5.46027
     2013.43190         1.36169         5.62526
     2013.43463         1.96094         5.54032
     2013.43737        -0.78184         5.43782
     2013.44010        -2.10757         5.52763
     2013.44284        -0.01036         5.58328
     2013.44558        -2.33012         5.69067
     2013.44832        -3.68989         5.46125
     2013.45106        -0.54666         5.47003
     2013.45379        -3.81641         5.53642
     2013.45654        -2.64721         5.63209
     2013.45927        -1.66096         6.62105
     2013.46201         4.46127         5.60476
     2013.46475        -1.66149         5.57938
     2013.46748        -1.78226         5.47199
     2013.47022        -0.22603         5.50030
     2013.47296        -2.93080         5.42903
     2013.47570        -1.33158         5.51592
     2013.47763         2.98254         9.21500
     2013.48121        11.38777         7.84334
     2013.48391         5.27614         5.88983
     2013.48665         2.92237         6.98227
     2013.48939        -3.06540         5.87519
     2013.49212        -4.02917         6.83876
     2013.49486        -3.93393         6.60251
     2013.49760         0.85530         5.94157
     2013.50034        -4.10547         5.48273
     2013.50308         1.58477         5.47296
     2013.50581         1.10000         5.53642
     2013.50855         2.00423         5.45637
     2013.51129         0.08046         5.48273
     2013.51403         2.12468         5.40072
     2013.51676         3.24493         5.39779
     2013.51951        -0.10285         5.49054
     2013.52224         6.08240         5.60378
     2013.52498         4.43063         5.56376
     2013.52772         4.51686         5.52178
     2013.53023        -0.84709         5.84785
     2013.54798        -7.83044        15.50217
     2013.54855         2.59254        12.31270
     2013.56149        10.58038        10.72138
     2013.56330         3.57191         5.60085
     2013.56605        -3.11188         5.58523
     2013.56878         2.08437         5.60573
     2013.57153         6.34657         5.43684
     2013.57426         8.30982         5.44465
     2013.57699         6.85507         5.48468
     2013.57974         2.45329         5.52470
     2013.58247         7.47652         5.42220
     2013.58521         7.04875         5.43977
     2013.58795         5.65298         5.52470
     2013.59069         6.23722         5.47687
     2013.59342         4.81545         5.59207
     2013.59616         9.52868         5.51885
     2013.59890         6.80193         5.55302
     2013.60164         6.25915         5.42024
     2013.60438        11.13438         5.68188
     2013.60711         3.54961         5.53935
     2013.60985        10.51785         5.42513
     2013.61259         7.14508         5.45051
     2013.61533         7.26031         5.87323
     2013.61807         4.51655         5.72874
     2013.62080         3.24478         5.69653
     2013.62354         3.32101         5.56864
     2013.62628         6.18324         5.53349
     2013.62902         8.93148         5.51592
     2013.63175         4.22371         5.45246
     2013.63449         8.47994         5.64771
     2013.63723        10.06318         5.76096
     2013.63997         5.85841         5.50030
     2013.64271        11.80364         5.52666
     2013.64544         6.77687         5.47882
     2013.64818         8.64011         5.57840
     2013.65091         5.50436         5.69555
     2013.65366        10.93557         5.51787
     2013.65639        11.22981         5.55302
     2013.65913        14.34904         5.65064
     2013.66187        11.86027         5.61355
     2013.66461         3.84250         5.44660
     2013.66735        11.71874         5.56571
     2013.67008         6.89797         5.49835
     2013.67282         2.19120         5.60573
     2013.67556         8.70244         5.61452
     2013.67830         8.68067         5.50225
     2013.68104        14.23990         5.59890
     2013.68377        10.64513         5.48565
     2013.68651         5.12437         5.50908
     2013.68925        11.84960         5.46906
     2013.69199        12.88683         5.48175
     2013.69472         6.75708         5.48858
     2013.69746         7.13130         5.42513
     2013.70020        11.30253         5.61355
     2013.70294        10.12075         5.45148
     2013.70568        14.97600         5.90935
     2013.70841         5.33423         5.55595
     2013.71115         4.15046         5.47980
     2013.71389         6.76170         5.54423
     2013.71663         4.09093         5.52861
     2013.71937         9.52916         5.42122
     2013.72209        12.91943         5.47784
     2013.72484        13.28363         5.64479
     2013.72758        10.49986         5.56668
     2013.73032         6.15409         5.49932
     2013.73305        10.01033         5.42610
     2013.73579        13.56456         5.50127
     2013.73853         3.80179         5.51689
     2013.74101         9.12396         6.24324
     2013.74416        14.37170         6.18564
     2013.74674         2.08049         6.19150
     2013.74948         1.73772         8.10791
     2013.75222        -0.92204         5.45929
     2013.75496        -2.26281         5.49346
     2013.75770        -5.11658         5.76487
     2013.76044        -7.64236         5.42903
     2013.76317         3.18389         5.48565
     2013.76591         5.33512         5.77951
     2013.76854        -4.05327         6.16807
     2013.77138         0.39562        17.82471
     2013.77425         1.37938        16.21875
     2013.77686         3.68205         5.89373
     2013.77960        -0.64172         5.51299
     2013.78182        -3.81165         6.87293
     2013.78536        -9.94027         6.22859
     2013.78781        -7.42402         5.74632
     2013.79055        -2.08078         5.63502
     2013.79329         3.58345         5.44075
     2013.79603         2.34868         5.49932
     2013.79876         1.70991         5.35386
     2013.80150         6.41515         5.53447
     2013.80424         7.13238         5.62721
     2013.80697         4.69963         5.57157
     2013.80971         6.04385         5.47101
     2013.81245         7.91008         5.43586
     2013.81519         0.83131         5.50616
     2013.81793        -3.62746         5.51494
     2013.82067         4.84378         5.58914
     2013.82340         3.45101         5.48565
     2013.82569         2.53787         6.94029
     2013.82888         3.58048         5.76487
     2013.83162         6.89169         5.60769
     2013.83436         5.12094         5.59304
     2013.83709         4.64217         5.71996
     2013.83983         1.35041         5.60085
     2013.84257         1.49364         5.49932
     2013.84531         4.48487         5.56766
     2013.84804        -3.76988         5.65455
     2013.85078         3.94834         5.54325
     2013.85352         5.02755         5.53935
     2013.85626         2.31980         5.41146
     2013.85900         0.47704         5.57157
     2013.86173        -1.61473         5.46515
     2013.86448         6.21649         5.57352
     2013.86721         1.34574         5.53642
     2013.86995         2.57297         5.61843
     2013.87269         5.98420         5.59207
     2013.87541        -0.54653         5.67993
     2013.87816         7.05367         5.44660
     2013.88089         5.74992         5.52275
     2013.88363        12.70115         5.91521
     2013.88637         1.56437         5.64771
     2013.88911        -2.02340         5.53349
     2013.89185        -3.04917         5.42805
     2013.89458        -0.36492         5.54521
     2013.89734         0.00423         5.72777
     2013.90004         0.74762         5.58328
