# ================= DQRFIT RESULTS ================
# INPUT FILE: series/DMND.rad
# OUTPUT: LDETRENDED
# FILTER FUNCTION: f(t)
# f(t)=+line(t)+annual(t)
# line(t)=+P 1+P 2*t
# annual(t)=+P 3*sin(2*pi*t+P 4)
# heav(t)=(t<0?0:1)
# TOTAL OBSERVATIONS MTOT= 3588
# INITIAL TIME INTERVAL= 2022.7488 - 2011.8604 = 10.8884
# TOTAL OBSERVATIONS AFTER PREFILTER M= 3576
# TIME-SPAN= 2022.7488 - 2011.8604 = 10.8884
# OBSERVATIONS: USED M=  3576 REJECTED MTOT-M=    12 %USED=   99.6656
# N=  4 PARAMETERS
# MAXSIG= 175.00000
# MAXRES=  90.95820
# SCALE FACTOR FOR LENGTHS: SCL=  10.00000
# SCALE FACTOR FOR SIGMAS: SCLSIG=   1.00000
# CHI^2=  10340.714 DOF=  3572 CHI^2/DOF=   2.89494
# RMS=     10.128 SDEV=     10.127 MEAN=    0.23813
#  P #       PARAMETER +-    SIGMA %error PARAMETER NAME
# P 1 =      1288.83419 +-  101.451   7.87 YZERO                              
# P 2 =        -0.63856 +-    0.050   7.88 SLOPE                              
# P 3 =         7.19655 +-    0.221   3.07 ANNUAL AMPLITUDE                   
# P 4 =        -2.92734 +-    0.042   1.45 ANNUAL PHASE                       
#       T            LDETRENDED       SIG_OBS
     2011.86036         8.27181         9.19294
     2011.86310         9.37856         9.15551
     2011.86584         3.97430         9.15551
     2011.86858        20.03205         9.11978
     2011.87132         2.88380         9.13509
     2011.87405         0.03955         9.09936
     2011.87679        -9.49270         9.30694
     2011.87953         1.42005         9.15381
     2011.88227         0.68279         9.08065
     2011.88501         2.60654         9.12148
     2011.88774       -10.65371         9.19124
     2011.89048       -10.70896         9.20655
     2011.89322        -1.15121         9.35628
     2011.89596        -1.95246         9.20315
     2011.89869        -3.20672         9.28142
     2011.90143        -7.60597         9.19124
     2011.90417        -2.13822         9.36819
     2011.90691         0.53053         9.16572
     2011.90965        -1.39572         9.16402
     2011.91238        -1.50597         9.47538
     2011.91484        -6.44441        10.54219
     2011.91786         1.30452         9.93818
     2011.92060        -5.52773         9.25760
     2011.92334        -9.01398         9.30354
     2011.92607       -10.33323         9.27121
     2011.92881        -5.17549         9.35798
     2011.93155         0.17926         9.28482
     2011.93429        -3.52599         9.29333
     2011.93702        -1.65324         9.08065
     2011.93976        -3.20549         9.05512
     2011.94250        -1.07774         9.19634
     2011.94524         0.68300         9.02280
     2011.94798         3.48675         9.06703
     2011.95071         1.30150         9.02110
     2011.95345        -3.03475         9.35628
     2011.95619        -7.18500         9.56556
     2011.95893        -2.87825         9.13509
     2011.96167         2.74349         9.20655
     2011.96440        -0.28376         9.12318
     2011.96714         0.96299         9.17423
     2011.96988        -2.60426         9.12488
     2011.97262        -8.22851         9.06703
     2011.97535        -6.81876         9.07384
     2011.97809        -6.09402         9.03981
     2011.98083        -4.33827         9.12318
     2011.98357         3.82248         9.07214
     2011.98631        -4.72177         9.00408
     2011.98904         8.31898         9.23378
     2011.99178         7.46273         9.27121
     2011.99452         0.99647         9.11808
     2011.99726        -1.07278         9.11638
     2012.00273         3.12572         9.14700
     2012.00547        -0.56953         9.13850
     2012.00821         1.14622         9.25079
     2012.01095         6.01796         9.16061
     2012.01368         1.74671         9.08405
     2012.01642         3.29046         9.02450
     2012.01916        -8.13179         8.97005
     2012.02190        -2.24304         9.06703
     2012.02464         0.88370         9.00918
     2012.02737        -2.18055         8.97345
     2012.03011         0.02420         9.17082
     2012.03285        -4.59505         9.12999
     2012.03559        -1.57730         9.02620
     2012.03833         0.41345         9.10617
     2012.04106         1.30519         9.07384
     2012.04380        -1.62506         9.07044
     2012.04654         0.63869         9.06874
     2012.04928       -10.89556         8.99727
     2012.05201       -26.43781         9.05172
     2012.05475       -18.14606         9.20996
     2012.05749         2.49868         9.21676
     2012.06023         4.88843         9.30354
     2012.06297         0.76618         9.12488
     2012.06570         5.60293         9.13339
     2012.06844         2.45968         9.24058
     2012.07118        -6.93757         9.13679
     2012.07392        -1.93883         9.15551
     2012.07666         3.67692         9.16402
     2012.07939         4.29967         9.18103
     2012.08213         5.89042         9.07894
     2012.08487        -4.02783         9.04662
     2012.08761        -3.26708         9.18954
     2012.09034        -3.19534         9.25590
     2012.09308        -3.29059         9.14020
     2012.09582        -0.81784         9.19294
     2012.09856        -6.89409         9.09085
     2012.10130        -4.48934         9.29843
     2012.10403        -4.35160         9.15381
     2012.10677        -6.73485         9.29503
     2012.10951        -5.78210         9.20655
     2012.11225        -3.20935         9.23378
     2012.11498         0.90840         9.19464
     2012.11772         4.31115         9.22016
     2012.12046         6.50589         9.25079
     2012.12320         1.44164         9.23208
     2012.12594        -3.00661         9.06703
     2012.12867       -10.11386         9.00068
     2012.13141        -1.20411         9.03641
     2012.13415        -2.04036         9.03301
     2012.13689         3.53438         9.08915
     2012.13963         1.67613         9.20145
     2012.14236        10.81288         9.42944
     2012.14510        -3.71837         9.06193
     2012.14784        -7.11762         9.07044
     2012.15058        -5.40487         9.06193
     2012.15331        -6.53313         9.05683
     2012.15605        -6.62538         9.24739
     2012.15879        -3.17463         9.19975
     2012.16153        -0.66588         9.00408
     2012.16427        -6.71013         9.17933
     2012.16700        -5.89438         9.25930
     2012.16974        -7.31464         9.12488
     2012.17248        -6.47689         9.07044
     2012.17522        -1.60514         9.10447
     2012.17796        -3.13639         9.13169
     2012.18069        -8.55064         9.20655
     2012.18343       -10.21589         9.14700
     2012.18617        -6.01315         9.34607
     2012.18891        -1.81440         9.14530
     2012.19164         3.18735         9.05512
     2012.19438        -3.61090         9.17763
     2012.19712        -5.36215         9.15551
     2012.19986        -1.83441         9.15551
     2012.20260       -18.07366         9.15211
     2012.20533        -0.25991         9.10957
     2012.20807         0.80384         8.96835
     2012.21081         2.58859         8.79310
     2012.21355        -2.28166         8.77609
     2012.21629        -5.70392         8.82543
     2012.21902        -2.94817         8.78459
     2012.22176        -9.67642         9.07044
     2012.22450       -10.01867         9.13509
     2012.22724        -7.32792         9.11978
     2012.22997        -7.77417         9.13339
     2012.23271        -4.05443         9.06703
     2012.23545        -4.93968         8.85435
     2012.23819        -2.60293         9.15551
     2012.24093        -4.51518         8.85095
     2012.24366        -3.38843         8.84585
     2012.24640        -3.36168         9.03301
     2012.24914        -2.65094         9.12318
     2012.25188        -9.16619         9.09256
     2012.25462        -8.72344         9.26100
     2012.25735        -8.49469         9.11808
     2012.26009       -10.02794         8.97005
     2012.26283       -11.54719         9.11808
     2012.26557       -13.01645         9.12999
     2012.26830       -10.67470         9.14360
     2012.27104        -8.44195         9.42944
     2012.27378        -5.61420         9.11127
     2012.27652        -6.72845         9.13850
     2012.27926        -4.59470         9.42774
     2012.28199        -7.24396         9.17933
     2012.28473        -7.54421         9.23037
     2012.28747        -7.37246         9.12148
     2012.29021        -8.92671         9.15891
     2012.29295        -9.56596         9.18103
     2012.29568       -11.42022         9.12999
     2012.29842        -9.00947         9.16232
     2012.30116        -6.93372         9.30864
     2012.30390        -8.97897         9.02110
     2012.30663       -14.75822         8.87817
     2012.30937        -9.70947         8.94113
     2012.31211         6.38627         9.89734
     2012.31485        -2.58098         9.53663
     2012.31759        -7.30823         9.19124
     2012.32032       -12.52848         9.14190
     2012.32306       -12.23873         8.94453
     2012.32580       -10.58398         8.98026
     2012.32854        -1.31624         9.06363
     2012.33128        -3.20249         9.33416
     2012.33401       -11.54874         9.23378
     2012.33675       -12.24099         9.03301
     2012.33949       -11.21324         9.02960
     2012.34223       -14.38549         8.98707
     2012.34496       -18.24675         9.05342
     2012.34770       -11.62700         9.22527
     2012.35044       -13.76825         9.04321
     2012.35318       -14.85950         9.20485
     2012.35592        -7.40575         8.98026
     2012.35865       -13.16200         9.01089
     2012.36139        -9.62526         8.99387
     2012.36413       -10.55551         9.05342
     2012.36687       -13.52476         9.00748
     2012.36961       -11.25501         8.98196
     2012.37234        -5.99726         9.25760
     2012.37508        -7.84152         9.06703
     2012.37782        -7.24177         9.41243
     2012.38056        -9.46102         8.98536
     2012.38329        -5.07527         9.19805
     2012.38603       -11.82452         9.27461
     2012.38877       -11.31777         9.43455
     2012.39151        -3.06803         9.16402
     2012.39425        -4.24628         9.13679
     2012.39698        -6.56353         9.24569
     2012.39972        -5.82878         9.09766
     2012.40246        -8.74403         8.95474
     2012.40520        -4.43028         8.97686
     2012.40794        -8.39254         9.03641
     2012.41067        -9.49379         9.13509
     2012.41341        -5.59004         9.09596
     2012.41615        -4.66529         9.04662
     2012.41889        -6.59354         9.49750
     2012.42162        -7.34879         9.21336
     2012.42436        -4.95305         9.15721
     2012.42710        -6.26330         9.14190
     2012.42984        -9.05155         9.01089
     2012.43258        -9.28680         8.98877
     2012.43531        -9.00705         9.05342
     2012.43805        -7.28830         9.02280
     2012.44079       -12.22856         9.08235
     2012.44353       -11.95481         9.09766
     2012.44626        -9.45106         9.07044
     2012.44900        -8.82331         9.05683
     2012.45174       -10.59356         9.04832
     2012.45448        -9.48081         9.09256
     2012.45722        -9.03307         9.08575
     2012.45995        -0.16932         9.44816
     2012.46269         1.52343         9.06193
     2012.46543        -5.54582         8.93602
     2012.46817       -10.05407         9.04321
     2012.47091        -9.13333         9.07554
     2012.47364        -1.13658         9.12488
     2012.47638         4.86817         9.28482
     2012.47912        -1.18408         9.36479
     2012.48186        -6.14833         9.03471
     2012.48459        -6.53258         9.03301
     2012.48733        -9.70384         8.99898
     2012.49007        -9.49909         9.04832
     2012.49281        -5.87334         9.05683
     2012.49555        -7.76159         9.04492
     2012.49828        -7.83384         9.04492
     2012.50102        -4.34409         9.07724
     2012.50376        -3.64435         9.20315
     2012.50650        -7.82360         9.03471
     2012.50924        -5.96785         9.23888
     2012.51197        -8.88410         9.25760
     2012.51471        -8.41035         9.05172
     2012.51745       -10.57860         9.16402
     2012.52019        -9.01186         9.20485
     2012.52292        -4.43211         9.09766
     2012.52566        -7.58136         9.08405
     2012.52840        -5.78661         9.14020
     2012.53114         1.94314         9.20315
     2012.53388         0.11389         9.25760
     2012.53661        -0.00737         9.16402
     2012.53935        -1.27162         9.03641
     2012.54209         7.31513         9.31885
     2012.54483        -1.75612         9.04662
     2012.54757        -4.74937         9.02280
     2012.55030         5.74638         9.29503
     2012.55304        -1.09988         8.94793
     2012.55578        -4.65813         9.02790
     2012.55852         0.05862         9.24739
     2012.56125         0.08037         9.01259
     2012.56399        -2.62488         9.02110
     2012.56673        -6.25214         9.08745
     2012.56947         0.88161         9.03471
     2012.57221        -1.71664         9.11127
     2012.57494        -1.95889         9.03301
     2012.57768         0.16286         9.13339
     2012.58042        -3.86739         9.11127
     2012.58316        -7.39565         9.05342
     2012.58590         1.36210         9.05172
     2012.58863         2.12485         9.05342
     2012.59137        -0.19340         9.11297
     2012.59411        -3.11565         9.14360
     2012.59685         0.34910         9.10447
     2012.59958        -1.89316         9.15891
     2012.60232         0.39459         9.52983
     2012.60506         2.23134         9.10447
     2012.60780        -1.16391         9.17933
     2012.61054         2.43484         9.09426
     2012.61327        -1.36941         9.07214
     2012.61601         2.45533         9.10617
     2012.61875         3.47308         9.23208
     2012.62149         6.08583         9.12659
     2012.62423         2.83158         9.10787
     2012.62696         2.31633         9.07044
     2012.62970        -0.21292         9.00068
     2012.63244        10.38182         9.27461
     2012.63518         8.81657         9.12829
     2012.63791         9.85632         9.46517
     2012.64065         3.45707         9.18954
     2012.64339         8.42682         9.08235
     2012.64613         7.57856         9.15891
     2012.64887         5.29531         9.08915
     2012.65160        10.86306         9.09596
     2012.65434         2.74581         9.22697
     2012.65708         8.13056         9.31885
     2012.65982         2.17931         9.38350
     2012.66256         4.94105         9.08745
     2012.66529        10.93380         9.10276
     2012.66803         4.40655         9.18614
     2012.67077         6.67230         9.08235
     2012.67351         1.53005         8.99217
     2012.67624        12.83080         9.04662
     2012.67898         8.52254         9.07384
     2012.68172         7.45229         9.14020
     2012.68446         1.55204         9.03130
     2012.68720         3.02179         9.06874
     2012.68993         9.75054         9.25249
     2012.69267        15.19629         9.50601
     2012.69541         8.66503         8.97856
     2012.69815         6.06578         9.20145
     2012.70089         0.19753         9.00238
     2012.70362         0.40828         9.11297
     2012.70636         6.04803         9.11127
     2012.70910         0.14478         9.09085
     2012.71184         5.72952         9.08405
     2012.71457         7.24127         9.12829
     2012.71731         9.73302         9.07214
     2012.72005        10.84477         9.04832
     2012.72279         7.91052         9.09766
     2012.72553         9.78427         9.06363
     2012.72826        15.68401         9.22867
     2012.73100         5.98976         9.28652
     2012.73374         5.82851         9.25760
     2012.73648         6.76026         9.07044
     2012.73921         3.32701         9.21846
     2012.74195         7.56475         9.21336
     2012.74469         6.82050         9.03981
     2012.74743         9.97025         9.16061
     2012.75017         4.66100         9.30694
     2012.75290         8.59875         9.15551
     2012.75564         3.49450         9.05853
     2012.75838         4.60924         8.96325
     2012.76112         6.00899         8.98877
     2012.76386         5.85674         8.95474
     2012.76659         9.31649         9.03130
     2012.76933         9.98924         9.08745
     2012.77207         8.00999         9.06703
     2012.77481         7.51173         8.97856
     2012.77754         7.35148         8.83904
     2012.78028         8.46223         9.05512
     2012.78302         8.95598         9.11127
     2012.78576         9.35073         8.96835
     2012.78850        12.24648         8.86967
     2012.79123        16.87722         9.21506
     2012.79397         6.65197         8.87477
     2012.79671         5.85372         8.96835
     2012.79945        10.21247         9.24228
     2012.80219        14.03522         9.09936
     2012.80492         7.20297         9.12488
     2012.80766        -8.44829         9.10617
     2012.81040         5.30446         9.05172
     2012.81314         5.44221         9.15041
     2012.81587        -0.07704         8.98366
     2012.81861        -2.53829         9.21166
     2012.82135        -1.53455         9.07384
     2012.82409         2.00320         9.17082
     2012.82683        -1.81305         9.07044
     2012.82956         2.32370         9.06874
     2012.83230         4.36645         9.01769
     2012.83504         3.16720         9.10106
     2012.83778         2.11294         9.04662
     2012.84052         0.42469         9.05512
     2012.84325         3.69144         9.10787
     2012.84599         5.77519         9.37670
     2012.84873         3.19894         9.23548
     2012.85147         6.65869         9.33586
     2012.85420         0.81443         9.14530
     2012.85694         2.93018         9.17933
     2012.85968        -0.91407         9.15041
     2012.86242        -1.44532         9.01599
     2012.86516        -3.97057         9.04662
     2012.86789        -3.69682         9.36479
     2012.87063        -0.51008         9.18103
     2012.87337        -2.82433         9.26440
     2012.87611         1.33842         9.15721
     2012.87885         3.11417         9.07384
     2012.88158         5.10992         9.00408
     2012.88432         3.49067         9.04832
     2012.88706         2.94441         9.28652
     2012.88980         3.01216         9.31204
     2012.89253        -1.13909         9.01769
     2012.89527        -2.39134         8.97516
     2012.89801         3.07641         9.00408
     2012.90075         1.44016         9.03471
     2012.90349        -3.91010         9.08235
     2012.90622        -3.19735         9.03811
     2012.90896         0.44540         9.11808
     2012.91170         0.71015         9.08065
     2012.91444        -0.18310         9.12148
     2012.91718         4.76764         9.09596
     2012.91991         7.36739         9.03811
     2012.92265         6.22114         9.00748
     2012.92539         3.02389         8.96835
     2012.92813        -2.94236         9.06363
     2012.93086        -3.96661         9.18443
     2012.93360       -12.21787         9.19464
