# ================= DQRFIT RESULTS ================
# INPUT FILE: series/DOYL.rad
# OUTPUT: LDETRENDED
# FILTER FUNCTION: f(t)
# f(t)=+line(t)+annual(t)
# line(t)=+P 1+P 2*t
# annual(t)=+P 3*sin(2*pi*t+P 4)
# heav(t)=(t<0?0:1)
# TOTAL OBSERVATIONS MTOT=  879
# INITIAL TIME INTERVAL= 2018.3108 - 2004.2327 = 14.0780
# TOTAL OBSERVATIONS AFTER PREFILTER M=  878
# TIME-SPAN= 2018.3108 - 2004.2327 = 14.0780
# OBSERVATIONS: USED M=   878 REJECTED MTOT-M=     1 %USED=   99.8862
# N=  4 PARAMETERS
# MAXSIG= 175.00000
# MAXRES=  26.39483
# SCALE FACTOR FOR LENGTHS: SCL=  10.00000
# SCALE FACTOR FOR SIGMAS: SCLSIG=   1.00000
# CHI^2=   1631.953 DOF=   874 CHI^2/DOF=   1.86722
# RMS=      7.955 SDEV=      7.960 MEAN=   -0.02343
#  P #       PARAMETER +-    SIGMA %error PARAMETER NAME
# P 1 =      1612.62256 +-  121.474   7.53 YZERO                              
# P 2 =        -0.79932 +-    0.060   7.56 SLOPE                              
# P 3 =         2.49729 +-    0.396  15.86 ANNUAL AMPLITUDE                   
# P 4 =        -2.47008 +-    0.183   7.40 ANNUAL PHASE                       
#       T            LDETRENDED       SIG_OBS
     2004.23272         0.45623        10.09680
     2004.23546        -2.63158         9.57755
     2004.23820         2.30961         9.41904
     2004.24094        -1.72620         9.10612
     2004.24367        -5.11101         8.66475
     2004.24641         4.94518         8.42698
     2004.24915         3.73536         8.63605
     2004.25189        11.31455         8.44475
     2004.25462         5.28074         8.48847
     2004.25736         4.02793         8.10040
     2004.26010         1.11912         8.28760
     2004.26284        -5.69069         8.20425
     2004.26558         5.10949         8.16462
     2004.26831         4.05968         7.93096
     2004.27105         3.98587         7.69729
     2004.27379         5.52506         7.75332
     2004.27653         1.18525         7.98015
     2004.27927         5.87644         8.03344
     2004.28200        -6.40538         8.56500
     2004.28474         3.95781         8.80959
     2004.28748        15.13800         8.52263
     2004.29022         8.21219         8.48984
     2004.29295         8.45238         8.69071
     2004.29569         7.14657         8.93257
     2004.29843        10.50276         9.58164
     2004.30117        15.59594         9.11431
     2004.30391         7.34313         9.12251
     2004.30664        11.28532         8.84375
     2004.30938         5.39151         8.88065
     2004.31212         4.15470         8.77406
     2004.31486         4.21689         8.54313
     2004.31760         1.25707         8.48164
     2004.32033        13.94926         8.56363
     2004.32307         0.72445         7.94325
     2004.32581         7.75764         7.84350
     2004.32855        -0.79817         7.73555
     2004.33128        -1.13098         7.73692
     2004.33402         4.26821         7.82437
     2004.33676        -1.08261         7.96375
     2004.33950         7.08058         8.16462
     2004.34224         8.89677         8.13866
     2004.34497        10.47396         8.06760
     2004.34771         7.09115         7.95145
     2004.35045         1.75434         8.13729
     2004.35319         0.50252         8.19058
     2004.35593        15.07771         8.05120
     2004.35866         9.15790         7.87766
     2004.36140         6.69609         7.92822
     2004.36414         6.69028         7.99655
     2004.36688         6.62147         7.99108
     2004.36961        15.52465         7.98425
     2004.37235         8.52684         7.96102
     2004.37509        12.91303         7.95419
     2004.37783         4.35522         7.92139
     2004.38057         3.92141         7.91593
     2004.38330        -2.21140         7.98015
     2004.38604         0.15479         7.96922
     2004.38878         6.30897         7.73692
     2004.39152         1.62816         7.92412
     2004.39426         6.72035         7.80251
     2004.39699         9.36354         7.98698
     2004.39973         7.47773         7.75468
     2004.40247         5.12592         8.01841
     2004.40521        -1.26190         8.06624
     2004.40794         2.00229         7.85580
     2004.41068         5.12348         7.81207
     2004.41342         8.70067         7.90226
     2004.41616        12.16686         7.87766
     2004.41890         0.22605         7.71915
     2004.42163         2.66523         7.81754
     2004.42437         0.33942         7.81344
     2004.42711        -1.19039         7.75742
     2004.42985         0.32180         7.88450
     2004.43259         1.62299         8.22611
     2004.43532         1.22418         7.81481
     2004.43806         4.61537         7.83940
     2004.44080         5.18155         7.85307
     2004.44354         8.20674         7.78201
     2004.44627        11.68893         7.80661
     2004.44901        -1.72488         7.96922
     2004.45175         2.91931         8.08263
     2004.45449         3.76550         8.12499
     2004.45723         5.55768         8.02934
     2004.45996        -2.57913         8.01158
     2004.46270        -4.56594         8.13183
     2004.46544        -0.94675         8.01568
     2004.46818         5.35544         7.99381
     2004.47092        -3.12837         8.00338
     2004.47365         3.01181         7.95692
     2004.47639        -4.33800         8.01294
     2004.47913        -1.01481         8.06760
     2004.48187        -1.70862         8.41878
     2004.48460        -1.74343         8.13729
     2004.48734         6.04876         8.11406
     2004.49008         3.44795         8.04164
     2004.49282        -1.96187         8.21381
     2004.49556         0.17732         8.23431
     2004.49829         1.75851         8.04164
     2004.50103        -2.07930         8.00884
     2004.50377        -6.39211         8.19742
     2004.50651         0.44408         7.98288
     2004.50924        -1.45174         7.89270
     2004.51198         0.76145         8.05940
     2004.51472        -2.46336         8.28214
     2004.51746         5.25283         7.96375
     2004.52020         1.04402         8.05394
     2004.52293        -3.96179         7.88040
     2004.52567         4.84839         7.86810
     2004.52841        -7.09542         7.91593
     2004.53115        -0.87223         7.84487
     2004.53389        10.95596         7.96785
     2004.53662        -0.97185         7.93915
     2004.53936         3.73834         8.29990
     2004.54210        -1.67847         7.75332
     2004.54484        -3.37729         7.96238
     2004.54757        -0.84410         8.10723
     2004.82410         7.23593         7.69592
     2004.82684         2.95412         7.71232
     2004.82957         8.04331         7.96375
     2004.83231         6.14350         7.77381
     2004.83505         0.06969         7.93369
     2004.83779         2.08588         7.70686
     2004.84052         3.02706         7.98698
     2004.84326        14.83325         7.68363
     2004.84600        11.29344         7.73009
     2004.84874         7.15163         7.75468
     2004.85148         2.58082         7.75468
     2004.85421         2.87701         8.26711
     2004.85695         4.16119         7.87220
     2004.85969        -1.75262         7.92959
     2004.86517        -7.72024         7.72872
     2004.86790        -0.54105         7.68773
     2004.87064       -11.10086         7.68909
     2004.87338        -2.15967         7.75195
     2004.87612        -6.61749         7.76151
     2004.87885        -4.34330         7.84897
     2004.88159        -4.99511         7.90226
     2004.88433        -0.90492         8.14549
     2004.88707         5.77327         7.84350
     2004.88981         7.41346         7.87356
     2004.89254         3.92964         7.90909
     2004.89528         6.04983         7.85443
     2004.89802         6.40102         7.95282
     2004.90076         5.56221         8.04847
     2004.90350        -8.06560         7.75605
     2004.90623         0.63759         7.73965
     2004.90897         3.29877         7.64673
     2004.91171         2.00896         7.56748
     2004.91445         0.08715         7.60847
     2004.91718         1.16334         7.90499
     2004.91992         2.80053         7.87493
     2004.92266         4.07872         7.79158
     2004.92540         8.99191         7.66996
     2004.92814        11.18709         7.57431
     2004.93087        -2.42572         7.70549
     2004.93361         0.90247         8.08263
     2004.93635        -5.37834         8.00748
     2004.93909        -9.34815         7.98152
     2004.94183        -0.65096         7.99381
     2004.94456         2.23322         7.72599
     2004.94730        -2.99459         7.77655
     2004.95004         0.20160         7.76698
     2004.95278        -8.08421         7.75742
     2004.95551        -8.60702         7.68089
     2004.95825        -8.59083         7.79158
     2004.96099        -5.06865         7.53468
     2004.96373        -3.61746         7.58797
     2004.96647        -1.54027         8.52537
     2004.96920        -3.61708         8.11543
     2004.97194         1.02011         9.41220
     2004.97468        -5.62470         7.82847
     2004.97742         0.22149         8.29853
     2004.98016        -2.60433         7.79568
     2004.98289         3.99086         7.60437
     2004.98563         2.66005         8.50624
     2004.98781        -5.92821        10.03531
     2005.04586       -12.67980         9.17307
     2005.04860        -7.93462         9.22636
     2005.05134        -8.30343         8.61829
     2005.05408        -8.27624         9.14848
     2005.05682        -4.63805         8.01021
     2005.05955        -2.62586         7.97878
     2005.06229        -4.43567         8.01158
     2005.06503        -6.04749         8.01294
     2005.06777        -9.04530         7.97878
     2005.07050       -12.45511         8.09630
     2005.07324       -10.66092         7.95282
     2005.07598        -5.92573         8.11406
     2005.07872        -6.08654         7.73419
     2005.08146        -5.49235         7.73419
     2005.08419        -5.70617         7.78201
     2005.08693        -7.91298         7.76425
     2005.08967        -8.38079         7.72735
     2005.09241        -3.71760         7.86263
     2005.09515        -4.14341         7.70276
     2005.09788        -3.86722         7.69592
     2005.10062        -6.35704         7.74648
     2005.10336        -1.29485         7.71096
     2005.10610        -4.95366         7.90909
     2005.10883         0.07353         7.86400
     2005.11157        -1.52828         7.64400
     2005.11431        -0.90009         7.72052
     2005.11705         0.68909         7.79704
     2005.11979         6.50828         7.82164
     2005.12252       -24.94853         7.77928
     2005.12526        -8.84834         7.77245
     2005.12800        -8.26515         7.76561
     2005.13074        -5.75696         7.94872
     2005.13347       -11.43977         7.82847
     2005.13621       -11.18659         7.78474
     2005.13895        -6.85840         7.74785
     2005.14169       -14.21721         7.75605
     2005.14443       -27.72602         7.71096
     2005.14716       -17.85983         7.90226
     2005.14990        -7.57164         7.89953
     2005.15264        -7.39146         7.82710
     2005.15538        -3.61027         7.82437
     2005.15812        -1.87108         7.81617
     2005.16085        -2.03089         8.02661
     2005.16359        -5.64370         7.85580
     2005.16633        -9.12251         7.87220
     2005.16907        -5.56432         7.89953
     2005.17180        -3.03214         7.84214
     2005.17454        -5.82095         7.87493
     2005.17728       -10.14676         7.84214
     2005.18002        -7.11657         7.80934
     2005.18276        -8.29938         7.88450
     2005.18549       -11.29519         7.98288
     2005.18823        -3.85901         7.89953
     2005.19097        -6.16682         7.86810
     2005.19371        -6.79963         7.85033
     2005.19645        -6.23744         7.85033
     2005.19918        -5.76525         7.82984
     2005.20192        -6.12306         8.01158
     2005.20466        -3.41988         8.04301
     2005.20740        -7.62069         7.91456
     2005.21013        -3.60050         7.90499
     2005.21287        -9.33331         7.97332
     2005.21561        -6.14412         8.05940
     2005.21835        -4.52093         7.87220
     2005.22109       -16.10874         7.89133
     2005.22382        -6.29056         7.90909
     2005.22656         0.03663         7.92822
     2005.22930        -0.22418         7.85853
     2005.23204        -3.79199         7.84624
     2005.23478        -5.88280         8.14412
     2005.23751        -9.36061         7.97058
     2005.24025         1.81257         8.16462
     2005.24299        -1.29224         7.90909
     2005.24550        -3.32223         9.07469
     2005.43738        -6.26386         8.03891
     2005.44011        -2.04867         8.00338
     2005.44285         4.74752         8.26574
     2005.44559         3.49371         8.17692
     2005.44833        -0.90211         8.08537
     2005.45107        -4.06692         7.97058
     2005.45380         2.25427         7.86263
     2005.45654         4.82846         8.09083
     2005.45928        -5.26335         8.26301
     2005.46202        -4.88716         7.90909
     2005.46475        -1.61097         7.95145
     2005.46749         4.93121         7.89953
     2005.47023        -8.07160         7.80934
     2005.47297        -3.53441         7.82847
     2005.47571        -2.94122         7.80524
     2005.47844         1.76897         8.00475
     2005.48118        -1.03384         7.99791
     2005.48392        -2.37366         7.93232
     2005.48666         2.49253         7.91593
     2005.48940        -5.02028         7.87903
     2005.49213         2.57791         7.83667
     2005.49487        -0.35690         7.79158
     2005.49761         5.17729         7.85580
     2005.50035        -0.38653         8.06487
     2005.50308         3.90166         7.92276
     2005.50582         0.34985         7.80388
     2005.50856         2.63004         7.93642
     2005.51130         0.44623         8.03891
     2005.51404        -9.41058         7.95009
     2005.51677        -7.82739         7.85033
     2005.51951         3.80179         7.88723
     2005.52225        -2.61502         7.99381
     2005.52499         1.78417         7.88450
     2005.52773        -6.39864         7.88860
     2005.53046        -1.62245         8.01704
     2005.89460         6.69061         7.97742
     2005.89734         8.61080         7.95009
     2005.90007         1.01498         8.26984
     2005.90281        -0.11483         8.06077
     2005.90555         6.17136         7.88040
     2005.90829         9.77655         7.92959
     2006.45312        -7.96295         7.96922
     2006.45586       -12.99276         7.95555
     2006.45859        -6.62258         8.05804
     2006.46133       -10.50839         8.27121
     2006.46407        -7.96320         8.44065
     2006.46681        -8.67801         8.19332
     2006.46955        -8.66782         8.17419
     2006.47228       -15.43463         8.11133
     2006.47502       -10.30945         8.24798
     2006.47776       -15.09926         8.25071
     2006.48050       -19.40407         8.27257
     2006.48324       -13.94788         8.38736
     2006.48597       -15.32569         8.29307
     2006.48871       -12.58750         8.31903
     2006.49145        -9.37731         8.04301
     2006.49419       -12.15213         8.13046
     2006.49692       -15.55594         8.21928
     2006.49966       -20.14275         8.16599
     2006.50240       -15.46356         8.05804
     2006.50514       -15.12637         8.17555
     2006.50788       -20.55618         8.25344
     2006.51061       -11.12900         8.17419
     2006.51335       -14.90781         8.15642
     2006.51609       -13.89262         8.23568
     2006.51883        -9.29043         8.16599
     2006.52157       -18.06524         8.20698
     2006.52430        -5.09305         8.20971
     2006.52704       -17.15687         8.30947
     2006.52978        -8.56468         8.16735
     2006.53252       -12.21149         8.09357
     2006.53525       -14.27830         8.17419
     2006.53799       -14.32211         8.25208
     2006.54073        -7.79492         8.40785
     2006.54347        -2.17873         8.05394
     2006.54621        -6.15055         7.93642
     2006.54894       -13.57636         7.88040
     2006.55168       -16.85017         7.90226
     2006.55442       -17.82098         8.06624
     2006.55716       -15.88979         8.16326
     2006.55990        -7.27160         7.90226
     2006.56263       -12.95642         7.92959
     2006.56537       -17.25823         7.88586
     2006.56811       -10.73104         7.90909
     2006.57085       -10.38585         7.93915
     2006.57358        -8.81066         7.97332
     2006.57632        -4.18647         7.94325
     2006.57906        -3.30829         8.00338
     2006.58180        -9.21010         7.87903
     2006.58454        -8.54791         8.20562
     2006.58727        -6.74472         8.24251
     2006.59001        -4.40753         8.30127
     2006.59275       -14.63534         8.25071
     2006.59549        -9.50015         8.18785
     2006.59823       -13.43197         8.23704
     2006.60096       -14.27778         8.32586
     2006.60370       -13.59759         7.95829
     2006.60644        -5.86940         8.01431
     2006.60918       -12.65821         7.93642
     2006.61191       -13.45302         7.90636
     2006.61465        -7.02784         7.98425
     2006.61739        -4.12065         8.12636
     2006.62013        -8.77446         8.06214
     2007.08282         6.94939         7.63307
     2007.08556         9.08057         7.77381
     2007.08830         4.36676         7.80797
     2007.09104         4.86195         7.76698
     2007.09378         3.11014         7.57977
     2007.09651         3.39833         7.61394
     2007.09925         4.06152         7.64537
     2007.10199         1.94670         7.70822
     2007.10473       -25.19111         7.97605
     2007.10747       -10.50092         7.79021
     2007.11020       -11.40073         7.58934
     2007.11294        16.13946         8.21381
     2007.11568        -2.68235         7.62897
     2007.11842         3.61783         7.61394
     2007.12115        -0.50598         7.62487
     2007.12389         0.43321         7.67133
     2007.12663         0.65740         7.65083
     2007.12937         2.23159         7.85170
     2007.13211        -5.68122         7.70686
     2007.13484         7.21097         7.74375
     2007.13758         1.08715         7.79294
     2007.14032         2.40834         7.79568
     2007.14306        -3.60347         7.72462
     2007.14580         4.75572         7.68909
     2007.14853        -0.92809         7.71915
     2007.15127        -3.30790         7.72462
     2007.15401       -10.89472         7.65630
     2007.15675         3.32447         7.71369
     2007.15948         5.31866         7.64263
     2007.16222         3.20685         7.96922
     2007.16496         6.54304         7.94872
     2007.16770         2.25623         7.88176
     2007.17044        -0.74159         7.84487
     2007.17317         3.46960         7.86947
     2007.17591         0.65279         7.86673
     2007.17865         6.53098         7.92412
     2007.18139         8.08717         7.98971
     2007.18413         5.06936         8.11816
     2007.18686         0.09655         8.18375
