# ================= DQRFIT RESULTS ================
# INPUT FILE: series/DVCG.rad
# OUTPUT: LDETRENDED
# FILTER FUNCTION: f(t)
# f(t)=+line(t)+annual(t)
# line(t)=+P 1+P 2*t
# annual(t)=+P 3*sin(2*pi*t+P 4)
# heav(t)=(t<0?0:1)
# TOTAL OBSERVATIONS MTOT= 1491
# INITIAL TIME INTERVAL= 2019.7810 - 2015.6304 =  4.1506
# TOTAL OBSERVATIONS AFTER PREFILTER M= 1487
# TIME-SPAN= 2019.7810 - 2015.6304 =  4.1506
# OBSERVATIONS: USED M=  1487 REJECTED MTOT-M=     4 %USED=   99.7317
# N=  4 PARAMETERS
# MAXSIG= 175.00000
# MAXRES=  40.76916
# SCALE FACTOR FOR LENGTHS: SCL=  10.00000
# SCALE FACTOR FOR SIGMAS: SCLSIG=   1.00000
# CHI^2=   1103.226 DOF=  1483 CHI^2/DOF=   0.74392
# RMS=      6.668 SDEV=      6.667 MEAN=    0.19765
#  P #       PARAMETER +-    SIGMA %error PARAMETER NAME
# P 1 =      3129.47594 +-  287.828   9.20 YZERO                              
# P 2 =        -1.55265 +-    0.143   9.19 SLOPE                              
# P 3 =         4.23777 +-    0.222   5.24 ANNUAL AMPLITUDE                   
# P 4 =         3.07084 +-    0.074   2.41 ANNUAL PHASE                       
#       T            LDETRENDED       SIG_OBS
     2015.63039         8.74088         5.74256
     2015.63312         2.74713         5.72272
     2015.63586        15.78138         5.76585
     2015.63860        -1.21437         5.73135
     2015.64134         6.45988         5.62698
     2015.64407         5.28413         5.74601
     2015.64681        -3.86762         5.81587
     2015.64955         3.12163         5.67442
     2015.65229         3.07388         5.74256
     2015.65503         9.11213         5.68391
     2015.65776        -1.71161         5.74946
     2015.66050        14.11464         5.89954
     2015.66324         6.46889         5.67097
     2015.66598        10.36214         5.75205
     2015.66872         3.77239         5.73652
     2015.67126        13.56734         6.06255
     2015.68628        12.37467        15.28100
     2015.68788         9.65715         5.72703
     2015.69062         7.47640         5.72013
     2015.69336        -0.17635         5.88574
     2015.69609         8.19890         5.65803
     2015.69883         5.50515         5.70720
     2015.70122        10.33985         6.48863
     2015.70829        44.77483        20.19470
     2015.70978        11.69215        11.34194
     2015.71252         8.61140         7.21054
     2015.71526         7.27566         5.69081
     2015.71800        12.37591         5.74170
     2015.72073        16.69016         5.78396
     2015.72347        12.66241         5.67701
     2015.72621         2.12566         5.68908
     2015.72895        -1.08509         5.66666
     2015.73169         7.24516         5.67097
     2015.73442        11.44541         5.77533
     2015.73716         2.00866         5.68822
     2015.73990        10.06191         5.84347
     2015.74264         7.70716         5.84261
     2015.74538        19.07942         6.04961
     2015.74811         5.17867         6.09101
     2015.75085         0.66292         5.80121
     2015.75359        13.38017         5.78223
     2015.75633        11.84842         5.75636
     2015.75906         4.54667         5.72013
     2015.76180         2.71992         5.68477
     2015.76454         1.79017         5.72186
     2015.76728         1.42342         5.70461
     2015.77002         1.54567         5.72617
     2015.77275        -3.67408         5.70633
     2015.77549        -3.34782         5.80035
     2015.77823        12.97043         5.69598
     2015.78097         6.44368         5.70288
     2015.78371         4.67393         5.72703
     2015.78644         8.88318         5.72013
     2015.78918        -1.14357         5.66407
     2015.79192         6.25168         5.70978
     2015.79466         9.49593         5.73825
     2015.79739         4.79518         5.69857
     2015.80013         6.89343         5.91506
     2015.80287        -1.51031         5.70633
     2015.80561         2.75194         5.71410
     2015.80835         0.12419         5.74601
     2015.81108        -0.39056         5.65113
     2015.81382         1.25869         5.69512
     2015.81656         0.88794         5.77878
     2015.81930         3.98919         5.68477
     2015.82203         4.51344         5.70806
     2015.82477         8.91969         5.79000
     2015.82751         8.47194         5.65200
     2015.83025        12.22919         5.77533
     2015.83299        -8.30255         5.84175
     2015.83572         5.40670         5.80897
     2015.83846         7.78195         5.76498
     2015.84120         4.58320         5.96681
     2015.84394         7.74945         5.80035
     2015.84668        -2.56330         5.82622
     2015.84941         3.77595         5.74170
     2015.85215         4.40520         5.77188
     2015.85489         7.24545         5.96422
     2015.85763         9.40470         5.87797
     2015.86036         1.00295         5.85900
     2015.86310        11.67321         5.88832
     2015.86584        11.08246         5.94007
     2015.86858         6.32271         5.85296
     2015.87132         3.14896         5.83744
     2015.87405         5.27221         5.96164
     2015.87679         3.53546         5.92369
     2015.87953         2.25471         6.05651
     2015.88227         2.74396         5.96250
     2015.88501       -12.58979         5.86331
     2015.88774         1.12546         5.94784
     2015.89048        14.41472         5.95301
     2015.89322         7.60297         5.96077
     2015.89596        10.00722         5.99786
     2015.89869        12.62247         5.88229
     2015.90143         2.45972         5.96595
     2015.90417        -0.94303         5.93835
     2015.90691         5.07522         6.57315
     2015.90965        -6.43153         5.95215
     2015.91238         3.52772         5.92714
     2015.91512         5.97397         5.87625
     2015.91786         1.77122         5.87280
     2015.92060        -0.41652         5.95042
     2015.92334        -3.39427         5.97026
     2015.92607        -3.42902         5.91420
     2015.92881        -1.09177         5.92541
     2015.93155        -0.46152         6.04616
     2015.93429         4.39273         6.09360
     2015.93702         8.70498         6.14794
     2015.93976         1.04723         7.37787
     2015.94250        -0.54252        10.00420
     2015.94524         4.30473        10.42855
     2015.94676        26.27710        25.79236
     2015.95452        11.91915        12.56584
     2015.95619         4.33574         5.77361
     2015.95893         1.57299        11.07112
     2015.96167         7.61724         5.88487
     2015.96440        -2.20351         5.70892
     2015.96714        10.65774         5.74773
     2015.96988         9.12199         5.72186
     2015.97262        14.15724         5.71582
     2015.97535         9.93649         5.72445
     2015.97809        12.53575         5.94180
     2015.98083         4.40400         5.75032
     2015.98357        -7.26075         5.72531
     2015.98631       -10.61350         6.92937
     2015.98904         0.28375         5.74773
     2015.99178         5.33100         5.68650
     2015.99452        -0.71375         5.67270
     2015.99726        -0.72950         5.78223
     2016.00000        -4.21525         6.29370
     2016.00273       -10.85500         6.40238
     2016.00547        -0.12175         5.76757
     2016.00821         3.77951         5.71841
     2016.01095         4.38376         5.68650
     2016.01368        -1.66499         5.77447
     2016.01642        -2.53574         5.83312
     2016.01916       -14.82949         6.19020
     2016.02190         1.54076         5.97285
     2016.02464         5.98401         5.81329
     2016.02737         1.12726         5.79000
     2016.03011        -6.00849         5.72790
     2016.03285         3.87176         5.85900
     2016.03559         6.09201         5.75377
     2016.03833        11.57727         5.91247
     2016.04106         3.33452         5.69771
     2016.04380         6.41177         5.73307
     2016.04654         7.17202         5.67270
     2016.04928         6.64827         5.77275
     2016.05201         5.12852         5.77706
     2016.05475        -0.58323         5.77102
     2016.05749        -1.44198         5.80035
     2016.06023        -3.71773         5.76585
     2016.06297         3.59452         5.87797
     2016.06570        -0.14322         5.89781
     2016.06844         3.32803         5.93749
     2016.07118        -4.85772         5.88746
     2016.07392         4.05653         5.84261
     2016.07666         4.07578         5.96422
     2016.07939         5.59803         6.02460
     2016.08213         8.94428         6.06514
     2016.08487         8.88053         5.86072
     2016.08761        -0.57222         5.74946
     2016.09034        -6.12797         5.79517
     2016.09308        -0.33572         5.95819
     2016.09582        -7.83846         5.90730
     2016.09856        -2.65721         5.92886
     2016.10130       -15.33596         5.90299
     2016.10403       -12.33871         5.78396
     2016.10677       -10.93146         5.93835
     2016.10951        -6.88721         5.90040
     2016.11225        -9.98996         5.92282
     2016.11498       -10.17171         5.80639
     2016.11772        -5.63146         5.73825
     2016.12046         2.45779         5.81242
     2016.12320        -4.63096         5.90989
     2016.12594       -14.22770         5.88574
     2016.12867         0.86655         5.88574
     2016.13141        10.29280         5.78396
     2016.13415         2.02505         5.86590
     2016.13689         4.23630         5.89695
     2016.13963        -4.15945         5.87625
     2016.14236       -10.78620         5.89005
     2016.14510       -12.24995         5.83830
     2016.14784        -4.02870         5.77533
     2016.15058        -1.28345         5.89954
     2016.15331        -3.67219         6.01684
     2016.15605        -7.12594         5.86849
     2016.15879        -7.97369         6.05392
     2016.16153         6.48356         6.04702
     2016.16427         1.23381         6.01166
     2016.16700        -6.40894         6.05047
     2016.16974        -8.77769         5.84089
     2016.17248        -9.26144         5.87970
     2016.17522         1.15181         5.81932
     2016.17796         1.62606         5.82277
     2016.18069        -5.09769         5.99441
     2016.18343        -0.57743         6.09619
     2016.18617        -9.49118         5.76671
     2016.18891        -5.92493         5.70806
     2016.19164        -3.81468         5.69943
     2016.19438         7.06257         5.79776
     2016.19712        -4.49318         5.77878
     2016.19986         3.86307         5.95474
     2016.20260        -3.33968         6.00304
     2016.20533        -1.91343         6.06686
     2016.20807         3.09682         6.05392
     2016.21081        -2.51093         5.99614
     2016.21355        -0.82567         5.86504
     2016.21629        -4.95442         5.67615
     2016.21902        -9.57717         5.78568
     2016.22176        -2.95092         5.66493
     2016.22450        -4.72067         5.80811
     2016.22724        -4.87142         5.65803
     2016.22997         0.27883         5.70892
     2016.23271        -0.84192         5.69253
     2016.23545        -1.37967         5.73738
     2016.23819        -4.40442         5.73135
     2016.24093        -2.59417         5.90126
     2016.24366        -5.13291         5.75636
     2016.24640         6.02634         5.75118
     2016.24914         5.03559         5.83399
     2016.25188         1.35384         5.82795
     2016.25462        -4.16191         5.93145
     2016.25735        -2.51766         5.83657
     2016.26009        -9.62341         5.77447
     2016.26283        -8.35016         5.87194
     2016.26557         2.34609         5.87797
     2016.26830         1.03434         5.84347
     2016.27104        -2.41640         5.86590
     2016.27378         5.79685         5.85555
     2016.27652         3.35410         5.84261
     2016.27926        -0.17865         5.74860
     2016.28199        -6.92940         5.82105
     2016.28473         2.93885         5.73566
     2016.28747        -6.84190         5.68650
     2016.29021        -6.26665         5.74687
     2016.29295        -0.94340         5.87107
     2016.29568        -5.77115         5.85296
     2016.29842        -2.85090         5.95819
     2016.30116         3.84736         5.90126
     2016.30390        -8.20439         5.79345
     2016.30663         6.01686         5.86590
     2016.30937         0.05111         5.87797
     2016.31211        -0.33464         5.92800
     2016.31485         6.74561         5.85814
     2016.31759         1.64086         5.81932
     2016.32032        -1.62189         5.78223
     2016.32306         0.76436         5.77447
     2016.32580        -7.88339         5.80811
     2016.32854        -0.77514         5.80639
     2016.33128        -2.70088         5.73825
     2016.33401        -3.37763         5.79345
     2016.33675        -0.67438         5.88746
     2016.33949        -5.22813         5.85124
     2016.34223        -5.38988         6.03581
     2016.34496        -3.40163         6.11257
     2016.34770         4.16662         5.93576
     2016.35044         0.74887         5.91765
     2016.35318        -7.13988         5.90299
     2016.35592        -5.73963         5.85210
     2016.35865        -5.87637         5.85296
     2016.36139        -9.05512         5.77447
     2016.36413        -4.52887         5.86762
     2016.36687         5.09138         5.84261
     2016.36961         5.25963         5.92369
     2016.37234         2.89588         5.82277
     2016.37508        -0.65687         5.79172
     2016.37782        -7.38862         5.76585
     2016.38056        -4.37737         5.89264
     2016.38329        -3.74512         5.69857
     2016.38603       -12.11187         5.94352
     2016.38877        16.49839         5.90816
     2016.39151         1.78764         5.72703
     2016.39425        -3.24711         5.68822
     2016.39698        10.51714         5.73135
     2016.39972        11.44139         5.87797
     2016.40246        -5.92636         5.90816
     2016.40520         0.62489         5.82105
     2016.40794       -14.69386         5.64510
     2016.41067        -2.92661         5.74860
     2016.41341         0.77964         5.81156
     2016.41615       -12.43311         5.88487
     2016.41889       -12.79385         5.95646
     2016.42162         2.74740         5.90730
     2016.42436        -2.48435         5.81587
     2016.42710        -0.84210         5.79172
     2016.42984       -10.90985         5.86849
     2016.43258         1.14340         5.90644
     2016.43531         0.53765         5.93835
     2016.43805        -5.69810         5.85210
     2016.44079        -3.93185         5.82709
     2016.44353        -6.08160         5.70202
     2016.44626        -8.07434         5.80552
     2016.44900        -0.20309         5.85124
     2016.45174         0.61416         5.73048
     2016.45448        -7.51259         5.84434
     2016.45722        -9.72634         5.78310
     2016.45995         3.76091         5.78741
     2016.46269        -3.09684         5.77016
     2016.46543        -5.37559         5.83916
     2016.46817        -1.91334         5.70202
     2016.47091        -8.11909         5.71582
     2016.47364       -11.72384         5.74601
     2016.47638         3.06942         5.74083
     2016.47912         7.47867         5.95560
     2016.48186         3.08092         5.85986
     2016.48459        -2.75883         5.70547
     2016.48733        -8.08758         5.64596
     2016.49007         4.56967         5.69857
     2016.49281        -4.74208         5.83830
     2016.49555         1.15717         5.93490
     2016.49828        -1.62958         5.73048
     2016.50102         7.32567         5.92196
     2016.50376       -13.65408         5.90126
     2016.50650        -2.44982         6.09274
     2016.50924         3.83443         5.90816
     2016.51197        -3.75132         5.85814
     2016.51471        -0.32307         5.74860
     2016.51745         3.70718         5.89867
     2016.52019       -20.43357         5.83571
     2016.52292         4.51968         6.05392
     2016.52566         9.11493         5.78741
     2016.52840        -1.17982         5.79517
     2016.53114        -1.24657         5.74083
     2016.53388         6.26769         5.70892
     2016.53661         6.70994         5.96250
     2016.53935        -0.80481         5.81415
     2016.54209         0.82444         5.78482
     2016.54483         1.71069         5.90385
     2016.54757        -0.81806         5.75550
     2016.55030         2.47119         5.96336
     2016.55304        10.56044         5.85037
     2016.55578         4.10769         5.98320
     2016.55852        -0.85806         5.97457
     2016.56125         4.66119         5.86935
     2016.56399         4.22745         5.75032
     2016.56673         6.98270         5.96422
     2016.56947        -3.78205         6.08584
     2016.57221        -0.98880         5.85037
     2016.57494         4.21845         6.00907
     2016.57768         2.34570         5.96077
     2016.58042         9.40295         5.84347
     2016.58316        -1.19180         5.90471
     2016.58590        -4.65355         5.89695
     2016.58863         2.04670         5.85210
     2016.59137        -0.67405         5.94439
     2016.59411        -0.99479         5.82277
     2016.59685         8.40746         6.02115
     2016.59958        -4.39829         5.93749
     2016.60232        -1.19104         5.74946
     2016.60506         2.67321         5.75550
     2016.60780         7.90346         5.77275
     2016.61054         3.31071         5.82622
     2016.61327        -5.73204         5.84692
     2016.61601         2.43021         5.72358
     2016.61875        -9.11854         5.75722
     2016.62149         4.66272         5.68822
     2016.62423         5.61697         5.95905
     2016.62696        -6.16878         5.90902
     2016.62970        -1.59753         5.97457
     2016.63244        -6.03628         5.79948
     2016.63518         5.72997         5.69598
     2016.63791        18.91022         5.79431
     2016.64065        14.81947         5.75291
     2016.64339        14.71772         5.93231
     2016.64613         7.72297         5.70892
     2016.64887        -3.68078         5.72531
     2016.65160         5.51348         5.96077
     2016.65434         0.21373         5.89522
     2016.65708         3.36498         5.85469
     2016.65982         5.94723         5.77102
     2016.66256        -5.78452         5.74083
     2016.66529         4.73873         5.80897
     2016.66803        -1.14602         5.91937
     2016.67077         8.23123         5.87021
     2016.67351        13.23248         5.87194
     2016.67624        17.22973         5.65113
     2016.67898         7.87698         5.66148
     2016.68172         6.84924         5.64078
     2016.68446         8.18649         6.00045
     2016.68720        11.16674         6.17036
     2016.68993         4.99399         5.88660
     2016.69267         4.19724         5.71237
     2016.69541        -6.01251         5.67528
     2016.69815        10.93774         5.74515
     2016.70089        10.78399         5.68995
     2016.70362         7.29024         5.87366
     2016.70636         3.87549         6.08756
     2016.70910         6.21375         5.94784
     2016.71184        15.67000         5.66407
     2016.71457         5.27825         5.81587
     2016.71731        19.01150         5.98406
