# ================= DQRFIT RESULTS ================
# INPUT FILE: series/DWH1.rad
# OUTPUT: LDETRENDED
# FILTER FUNCTION: f(t)
# f(t)=+line(t)+annual(t)
# line(t)=+P 1+P 2*t
# annual(t)=+P 3*sin(2*pi*t+P 4)
# heav(t)=(t<0?0:1)
# TOTAL OBSERVATIONS MTOT= 1026
# INITIAL TIME INTERVAL= 2007.5455 - 2004.6571 =  2.8884
# TOTAL OBSERVATIONS AFTER PREFILTER M= 1016
# TIME-SPAN= 2007.5455 - 2004.6571 =  2.8884
# OBSERVATIONS: USED M=  1016 REJECTED MTOT-M=    10 %USED=   99.0253
# N=  4 PARAMETERS
# MAXSIG= 175.00000
# MAXRES=  30.15568
# SCALE FACTOR FOR LENGTHS: SCL=  10.00000
# SCALE FACTOR FOR SIGMAS: SCLSIG=   1.00000
# CHI^2=   1035.726 DOF=  1012 CHI^2/DOF=   1.02344
# RMS=      7.813 SDEV=      7.813 MEAN=    0.22620
#  P #       PARAMETER +-    SIGMA %error PARAMETER NAME
# P 1 =      6119.74543 +-  611.412   9.99 YZERO                              
# P 2 =        -3.03508 +-    0.305  10.04 SLOPE                              
# P 3 =         6.01580 +-    0.346   5.75 ANNUAL AMPLITUDE                   
# P 4 =         2.97889 +-    0.080   2.69 ANNUAL PHASE                       
#       T            LDETRENDED       SIG_OBS
     2004.65708         0.72162         7.66227
     2004.65982         3.70193         7.74017
     2004.66256         2.08424         7.67643
     2004.66529        -2.30545         7.46398
     2004.66803         2.46086         7.70982
     2004.67077         4.76617         7.79783
     2004.67351         3.61248         7.41745
     2004.67624         5.75579         7.48523
     2004.67898        -4.23990         7.55503
     2004.68172        -6.72959         7.52671
     2004.68446         0.75272         7.56819
     2004.68720         6.26003         7.55503
     2004.68993         8.82734         7.63900
     2004.69267        -7.53435         7.59853
     2004.69541        -7.98704         7.89697
     2004.69815         1.16627         7.51457
     2004.70089        10.77058         7.80997
     2004.70362        17.37189         7.83627
     2004.70636        10.01620         7.72297
     2004.70910         5.68151         7.60258
     2004.71184        -4.14618         7.70577
     2004.71457         2.60912         7.74421
     2004.71731        13.87543         7.48118
     2004.72005        -2.10726         7.47410
     2004.72279       -12.17195         7.51963
     2004.72553        -7.03164         7.52974
     2004.72826         2.86967         7.67947
     2004.73100        -1.00002         7.63900
     2004.73374       -10.52671         7.42554
     2004.73648         2.10760         7.45488
     2004.73921         4.36991         7.38002
     2004.74195         4.96422         7.51356
     2004.74469         1.97853         7.91114
     2004.74743        -2.06516         7.32741
     2004.75017        -7.90585         7.49231
     2004.75290         5.34246         7.37901
     2004.75564        -1.57223         7.46500
     2004.75838         6.09408         7.35675
     2004.76112        -0.19461         7.46601
     2004.76386        19.91270         7.74421
     2004.76659        -1.48199         7.44578
     2004.76933         9.12932         7.98398
     2004.77207        -3.13337         7.94654
     2004.77481         3.63194         7.74927
     2004.77754         3.69025         7.77052
     2004.78028         5.53956         7.72803
     2004.78302        -1.85314         7.55503
     2004.78576         0.36117         7.67846
     2004.78850         1.82648         7.65114
     2004.79123        10.25979         7.79783
     2004.79397        26.73210         8.02141
     2004.79671        21.03241         7.51861
     2004.79945        12.62172         7.78266
     2004.80219        10.50203         7.55402
     2004.80492        13.06234         7.56717
     2004.80766        21.98865         7.65620
     2004.81040        16.84996         7.85550
     2004.81314        12.79827         7.75231
     2004.81587         0.88558         7.40430
     2004.81861        10.87189         7.87573
     2004.82135        10.05420         7.69768
     2004.82409        14.97251         7.43566
     2004.82683        10.09482         7.54998
     2004.82956        12.61213         8.00117
     2004.83230        12.01544         7.57830
     2004.83504         0.29675         7.73106
     2004.83778        15.26506         7.82616
     2004.84052        11.43637         7.93238
     2004.84325         8.76168         7.39722
     2004.84599         3.31199         7.50749
     2004.84873        -6.27170         7.71184
     2004.85147        13.18760         7.67137
     2004.85420        17.48391         9.23539
     2004.85694         7.61322         7.84943
     2004.85968         1.32453         7.97487
     2004.86242         1.43084         7.67542
     2004.86516         0.30615         7.52772
     2004.86789         9.56346         7.39823
     2004.87063        -3.33823         7.38002
     2004.87337         8.57808         7.46601
     2004.87611        -0.64761         7.54188
     2004.87885        -1.63830         7.43768
     2004.88158         9.91501         7.82616
     2004.88432         2.50332         7.60966
     2004.88706         6.22663         7.12407
     2004.88980         6.50094         7.28088
     2004.89253         5.02725         7.52974
     2004.89527        12.84456         7.40632
     2004.89801        11.63387         7.45893
     2004.90075        19.21318         8.06895
     2004.90349        11.19549         7.47612
     2004.90622        -1.37520         7.68756
     2004.90896        -6.83689         7.31831
     2004.91170        -6.70958         7.17364
     2004.91444         5.65073         7.51254
     2004.91718        -0.20196         7.54896
     2004.91991         1.41435         7.35776
     2004.92265         9.19165         7.47309
     2004.92539        -0.63304         7.39418
     2004.92813        10.34627         7.42150
     2004.93086         8.64258         7.24344
     2004.93360         7.67889         7.60157
     2004.93634         8.77820         7.70071
     2004.93908        -1.28649         7.46095
     2004.94182         3.03482         8.15596
     2004.94455        -3.73187         7.55706
     2004.94729        -0.13156         7.41947
     2004.95003         3.74075         7.42858
     2004.95277         3.82606         7.74118
     2004.95551        -3.87563         7.45690
     2004.95824        -5.42932         7.27177
     2004.96098        -2.48401         7.56414
     2004.96372         2.78730         7.41846
     2004.96646       -14.03239         7.55807
     2004.96919        -6.29908         7.21006
     2004.97193         6.30423         7.55807
     2004.97467        -3.42846         7.44274
     2004.97741        -1.36015         7.31325
     2004.98015        -5.62784         7.32235
     2004.98288         1.14147         7.41138
     2004.98562        15.73678         7.50749
     2004.98836        -3.56291         7.39722
     2004.99110         4.09239         7.56212
     2004.99384        12.18770         7.39722
     2004.99657         1.97401         7.57324
     2004.99931        -1.71768         7.45286
     2005.00479        -4.03706         7.22928
     2005.00752        -0.39075         7.19488
     2005.01026        -5.86344         7.10889
     2005.01300        -2.64313         7.10586
     2005.01574         0.02118         7.30920
     2005.01848        18.27949         7.65114
     2005.02121         8.05780         7.58842
     2005.02395         4.48411         7.16656
     2005.02669       -10.04458         7.20095
     2005.02943        -1.89027         6.88937
     2005.03216        -2.43496         7.22422
     2005.03490         2.51035         7.35068
     2005.03764       -11.01734         7.18477
     2005.04038       -13.69103         7.02088
     2005.04312       -16.29272         7.43364
     2005.04585       -12.55341         7.51558
     2005.04859        -7.31510         7.57426
     2005.05133        -1.97579         7.83425
     2005.05407         0.29052         7.59955
     2005.05681        -3.48717         7.68453
     2005.05954        -0.75387         7.47916
     2005.06228        -3.56056         7.56515
     2005.06502        -2.98225         7.68655
     2005.06776        -3.88294         7.53682
     2005.07049         1.23037         7.44982
     2005.07323         0.10468         7.51963
     2005.07597       -10.34701         7.48523
     2005.07871        -5.35970         7.24344
     2005.08145        -5.55939         7.23535
     2005.08418        -1.97308         7.35574
     2005.08692       -10.03577         6.97738
     2005.08966        -4.15246         7.17162
     2005.09514        -5.11484         7.27683
     2005.09787        -0.30953         7.23535
     2005.10061        -6.51222         7.49433
     2005.10335        -6.42491         7.28290
     2005.10609       -13.38960         7.25862
     2005.10882        -4.30629         7.25862
     2005.11156       -11.53898         7.00267
     2005.11430        -7.84567         7.24749
     2005.11704        -1.08136         7.32842
     2005.11978        -0.72205         7.25457
     2005.12251        -9.66674         7.46702
     2005.12525       -12.27243         7.12407
     2005.12799       -11.95812         7.22928
     2005.13073        -9.15582         7.21916
     2005.13347        -7.92851         7.28088
     2005.13620        -6.21720         7.14734
     2005.13894        -6.11289         7.24648
     2005.14168        -5.37058         7.27885
     2005.14442        -8.59527         6.89442
     2005.14715        -9.58096         7.41745
     2005.14989       -10.51165         7.36889
     2005.15263        -9.75034         7.21512
     2005.15537        -3.45203         7.30516
     2005.15811        -1.14272         7.20804
     2005.16084        -0.17941         7.60764
     2005.16358       -13.16810         7.38710
     2005.16632       -13.77179         7.28391
     2005.16906        -8.77048         7.26368
     2005.17180       -10.79317         7.16150
     2005.17453       -17.33086         7.29807
     2005.17727       -11.15555         7.30718
     2005.18001       -10.27624         7.30313
     2005.18275       -10.56893         7.41644
     2005.18548       -16.20062         7.34663
     2005.18822        -2.68231         7.71690
     2005.19096        -8.93900         7.35068
     2005.19370        -7.31369         7.21411
     2005.19644       -18.73838         7.21815
     2005.19917        -8.14808         7.18477
     2005.20191        -1.33377         7.74320
     2005.20465        -0.02046         7.63799
     2005.20739         4.15085         7.42655
     2005.21013         1.68216         7.33550
     2005.21286        -3.58953         7.30212
     2005.21560        -4.64922         7.39216
     2005.21834        -0.86991         7.49332
     2005.22108        -9.01560         7.41340
     2005.22381        -4.53629         7.25761
     2005.22655        -5.60098         7.21309
     2005.22929        -5.15367         7.42655
     2005.23203         1.11864         7.87775
     2005.23477        12.98895         7.84740
     2005.23750         6.25326         7.53278
     2005.24024        11.99557         7.73005
     2005.24298         2.96888         7.61978
     2005.24572        -2.34981         7.80795
     2005.24846         4.23850         7.47410
     2005.25119        -1.32119         7.47612
     2005.25393         6.65212         7.77962
     2005.25667         7.04843         7.70779
     2005.25941        -0.55126         7.51558
     2005.26214         1.63005         7.49231
     2005.26488        -1.73964         7.57628
     2005.26762         7.04166         7.44476
     2005.27036         1.53297         7.28492
     2005.27304         1.53411         7.99106
     2005.27583         9.12159         7.61371
     2005.27857         2.67290         7.42251
     2005.28131        -2.86879         7.42554
     2005.28405        -4.07948         7.81199
     2005.28679        -6.96617         7.51457
     2005.28952        -1.21486         7.51254
     2005.29226         6.31645         7.37091
     2005.29500        -1.56224         7.33753
     2005.29774       -10.55193         7.05932
     2005.30047       -16.36462         7.14835
     2005.30321         1.56469         7.43465
     2005.30595       -12.31400         7.61270
     2005.30869        -0.43469         7.22726
     2005.31143         4.36562         7.39115
     2005.31416         1.38093         7.40733
     2005.31690         1.06424         7.25963
     2005.31964        -3.17745         7.29302
     2005.32238        -7.66014         7.53682
     2005.32512        -2.18883         7.23232
     2005.32785       -10.72452         7.44476
     2005.33059        -5.92321         7.31730
     2005.33333        -4.17790         7.39823
     2005.33607        -2.08359         7.90102
     2005.33880         2.75171         7.52165
     2005.34154        -2.97498         7.33652
     2005.34428        -8.29267         7.40227
     2005.34702         1.95164         7.35270
     2005.34976         3.16495         7.58134
     2005.35249         5.60026         7.41138
     2005.35523        -3.37643         7.64912
     2005.35797        -4.11712         7.63293
     2005.36071       -16.01981         7.55301
     2005.36344       -14.58150         7.68857
     2005.36618        -1.34719         7.76040
     2005.36892         6.55512         8.32794
     2005.37166         9.48043         7.66429
     2005.37440         9.23274         7.84639
     2005.37713         8.87805         7.71589
     2005.37987         7.25236         7.71386
     2005.38261         6.87967         7.98094
     2005.38535        -3.77602         7.90709
     2005.38809         5.74029         7.97588
     2005.39082        -3.53240         7.42453
     2005.39356       -16.34009         7.47612
     2005.39630       -12.88278         7.50142
     2005.39904        -4.09147         7.58235
     2005.40177        -5.00616         7.83122
     2005.40451         0.92915         7.54593
     2005.40725         7.87345         7.55706
     2005.40999        -4.31924         7.71690
     2005.41273        -0.78493         7.93036
     2005.41546         1.07838         8.04670
     2005.41820        -3.44031         7.58640
     2005.42094         0.97200         7.44476
     2005.42368        -7.79769         7.34663
     2005.42642        -6.91938         7.62990
     2005.42915         1.28093         7.69768
     2005.43189         4.60224         7.73207
     2005.43463        -2.99145         7.66025
     2005.43737        -6.90514         7.32134
     2005.44010        -4.48583         7.96071
     2005.44284         4.34048         7.80390
     2005.44558        -4.18921         8.49688
     2005.44832        -9.69490         7.75534
     2005.45106        -2.41659         7.62484
     2005.45379        -7.25328         7.66126
     2005.45653        -1.77197         7.65721
     2005.45927         2.37034         7.88888
     2005.46201         1.27265         7.80491
     2005.46475       -15.56704         7.58033
     2005.46748        -5.62073         7.44780
     2005.47022        -9.17842         7.71690
     2005.47296        -0.84611         7.72600
     2005.47570        -5.79681         7.66429
     2005.47843        -7.28150         7.89900
     2005.48117       -10.92519         7.88382
     2005.48391        -2.29588         7.69060
     2005.48665         3.63243         7.87573
     2005.48901        -2.95941         9.04217
     2005.49212        -3.29395         7.77557
     2005.49486         3.34336         7.85246
     2005.49760         2.70167         7.53986
     2005.50034        -0.35402         7.58842
     2005.50308        -0.55671         7.51356
     2005.50581         2.77960         7.77254
     2005.50855        -1.97409         7.79985
     2005.51129        -1.61578         8.26623
     2005.51403        -8.89947         7.56717
     2005.51676         5.01984         7.74421
     2005.51950         5.00915         7.78974
     2005.52224         0.68646         7.80491
     2005.52498        -2.64623         7.88787
     2005.52772        -2.56792         7.62079
     2005.53045         0.28839         7.61067
     2005.53319        -2.83230         7.57324
     2005.53593        10.28201         7.86460
     2005.53867         9.42132         7.82413
     2005.54141         4.06463         7.70982
     2005.54414         2.18594         7.60764
     2005.54688        -4.33276         7.64204
     2005.54962        -5.35545         7.61067
     2005.55236        -2.13614         7.58336
     2005.55509        10.65917         7.77962
     2005.55783         4.31948         7.68048
     2005.56057       -11.10521         8.12561
     2005.56331        -5.72690         7.89191
     2005.56605       -11.44759         8.24195
     2005.56878         1.89372         8.26724
     2005.57152         4.66203         8.34210
     2005.57426        -1.02466         7.76040
     2005.57700         5.68265         7.92328
     2005.57974        -5.11004         7.82515
     2005.58247         0.62027         7.59651
     2005.58521        -1.75942         7.69060
     2005.58795        -2.28011         7.51963
     2005.59069        -3.83280         7.63698
     2005.59342       -11.79449         7.71892
     2005.59616        -0.83918         7.70375
     2005.59890         0.98113         7.61371
     2005.60164         6.92544         7.52772
     2005.60438         2.70675         7.60258
     2005.60711        -1.38894         7.77861
     2005.60985        10.49837         7.94149
     2005.61259         1.34368         7.54087
     2005.61533         4.65798         7.70476
     2005.61807         0.40129         7.51254
     2005.62080         5.03360         7.66429
     2005.62354         3.61891         7.78873
     2005.62628         2.06322         7.56313
     2005.62902        11.43853         7.66935
     2005.63175         6.41084         8.36031
     2005.63449        -3.58585         7.64608
     2005.63723         4.07946         7.58842
     2005.63997       -10.05523         7.71690
     2005.64271         5.44008         7.60562
     2005.64544         1.64939         7.61067
     2005.64818         0.89070         7.56616
     2005.65092        -0.34399         7.69060
     2005.65366        -3.82468         7.62484
     2005.65639         0.47463         7.69464
     2005.65913        -1.57906         7.97791
     2005.66187        -1.92475         7.61978
     2005.66461         2.71856         7.53784
     2005.66735        -0.54213         7.49231
     2005.67008         4.47218         7.62079
     2005.67282         0.03849         7.52064
     2005.67556         2.97480         7.40227
     2005.67830         4.18611         7.61371
     2005.68104        -6.83358         7.32539
     2005.68377        -3.40228         7.49636
     2005.68651         4.65603         7.52165
     2005.68925        15.37934         7.74826
     2005.69193        16.35148         8.07604
     2005.69467        10.79979         7.98296
     2005.69741        -3.86290         7.66834
     2005.70014        11.35241         7.87370
     2005.70294         1.61189         7.69060
     2005.70568        -1.08280         7.92024
     2005.70841         4.70651         7.69667
     2005.71115        -4.52918         7.39216
     2005.71389        -0.18487         7.53986
     2005.71663         4.93244         7.63698
     2005.71937         3.51875         7.41340
     2005.72210         0.95006         7.51254
     2005.72484         0.70337         7.37597
     2005.72758        -2.36632         7.43161
     2005.73032        -0.74301         7.79075
     2005.73305         7.35230         7.76546
