# ================= DQRFIT RESULTS ================
# INPUT FILE: series/ELGN.rad
# OUTPUT: LDETRENDED
# FILTER FUNCTION: f(t)
# f(t)=+line(t)+annual(t)+jumps(t)
# line(t)=+P 1+P 2*t
# annual(t)=+P 3*sin(2*pi*t+P 4)
# jumps(t)=+P 5*heav(t-2015.9802  )
# heav(t)=(t<0?0:1)
# TOTAL OBSERVATIONS MTOT= 2746
# INITIAL TIME INTERVAL= 2021.6696 - 2013.8508 =  7.8188
# TOTAL OBSERVATIONS AFTER PREFILTER M= 2741
# TIME-SPAN= 2021.6696 - 2013.8508 =  7.8188
# OBSERVATIONS: USED M=  2741 REJECTED MTOT-M=     5 %USED=   99.8179
# N=  5 PARAMETERS
# MAXSIG= 175.00000
# MAXRES=  28.66569
# SCALE FACTOR FOR LENGTHS: SCL=  10.00000
# SCALE FACTOR FOR SIGMAS: SCLSIG=   1.00000
# CHI^2=   3024.187 DOF=  2736 CHI^2/DOF=   1.10533
# RMS=      5.908 SDEV=      5.909 MEAN=   -0.01381
#  P #       PARAMETER +-    SIGMA %error PARAMETER NAME
# P 1 =     -2694.51699 +-  156.660   5.81 YZERO                              
# P 2 =         1.33728 +-    0.078   5.81 SLOPE                              
# P 3 =         3.50246 +-    0.159   4.53 ANNUAL AMPLITUDE                   
# P 4 =         2.89066 +-    0.062   2.15 ANNUAL PHASE                       
# P 5 =         2.71689 +-    0.396  14.58 OFFSET 2015.9802                   
#       T            LDETRENDED       SIG_OBS
     2013.85078        -7.92216         5.66046
     2013.85352         7.60418         5.67202
     2013.85626         0.85852         5.65520
     2013.85900        -0.57914         5.62576
     2013.86173        -4.26680         5.60473
     2013.86447       -12.11447         5.69620
     2013.86721        -8.60213         5.60368
     2013.86995         0.14021         5.61735
     2013.87269         6.31055         5.60999
     2013.87542         2.71589         5.68569
     2013.87816         3.77223         5.59001
     2013.88090         9.84157         5.74982
     2013.88364         7.53391         5.92014
     2013.88637         8.49824         5.74561
     2013.88911        -1.88342         5.62681
     2013.89185        -8.18308         5.61630
     2013.89459        -7.63174         5.60999
     2013.89733         0.41760         5.64679
     2013.90006        -1.78906         5.67938
     2013.90280        -6.68472         5.69200
     2013.90554        -1.99038         5.60053
     2013.90828         0.68895         5.59527
     2013.91102        -1.61871         5.63943
     2013.91375        -5.07537         5.66151
     2013.91649        -5.68803         5.65835
     2013.91923        -6.35369         5.81185
     2013.92197        -2.31535         5.72669
     2013.92470         0.86499         5.61314
     2013.92744         1.53333         5.76033
     2013.93018         1.17966         5.63207
     2013.93292        -2.16300         5.57424
     2013.93566         0.42734         5.62681
     2013.93839         1.24168         5.61840
     2013.94113        -0.69498         5.58896
     2013.94387         2.09936         5.60053
     2013.94661         3.65270         5.73825
     2013.94935         3.72304         5.60158
     2013.95208         2.59437         5.59948
     2013.95482         3.03971         5.62050
     2013.95756        -1.61395         5.58160
     2013.96030        -1.02961         5.61420
     2013.96303         7.04873         5.64994
     2013.96577         2.59207         5.62786
     2013.96851        -0.01659         5.60684
     2013.97125        -1.18925         5.69094
     2013.97399        -2.79892         5.64994
     2013.97672        -5.62558         5.62891
     2013.97946        -0.66724         5.68884
     2013.98220        -7.29090         5.77085
     2013.98494        -1.14556         5.63522
     2013.98767        -0.81822         5.68043
     2013.99041        -3.57388         5.70882
     2013.99315        -9.31054         5.69094
     2013.99589        -0.05621         5.69410
     2013.99863       -10.53887         5.75823
     2014.00416        -2.97927         5.76559
     2014.00684        -6.87685         5.83182
     2014.00958        -0.63451         5.63838
     2014.01232        -9.42017         5.78557
     2014.01505        -6.33483         5.76559
     2014.01779        -1.60550         5.83393
     2014.02053        -9.32516         5.66781
     2014.02327        -5.35782         5.91593
     2014.02600        -2.48848         5.89806
     2014.02874        -2.93714         5.72984
     2014.03148        -2.55880         5.72038
     2014.03422         5.31154         5.72354
     2014.03696        -3.59313         5.74351
     2014.03969        -6.32379         5.71302
     2014.04249        -3.30552         6.18718
     2014.04517         1.69389         5.82026
     2014.04791         0.15123         5.67938
     2014.05065        -1.04843         5.67412
     2014.05338        -4.60409         5.63943
     2014.05612        -5.27175         5.60789
     2014.05886        -2.84942         5.67833
     2014.06160        -3.34608         5.87283
     2014.06433        -3.39774         5.84549
     2014.06707        -4.76840         5.85495
     2014.06981        -3.56706         5.71302
     2014.07255        -5.71672         5.63522
     2014.07529        -1.72238         5.69725
     2014.07802        -8.98304         5.68884
     2014.08076         0.89529         5.68569
     2014.08350        -4.99137         5.64153
     2014.08624       -13.78803         5.74036
     2014.08898        -7.01069         5.86337
     2014.09171        -5.75135         5.89491
     2014.09445        -2.13401         5.65415
     2014.09719        -5.30667         5.78977
     2014.09993         2.28667         5.65940
     2014.10266         0.94200         5.78136
     2014.10540       -10.66866         5.65520
     2014.11362        -4.26464         5.72248
     2014.11635        -9.65730         5.67623
     2014.11909        -1.47496         5.77821
     2014.12183       -11.38462         5.77190
     2014.12457        -2.98129         5.79713
     2014.12731         7.36805         5.75192
     2014.13004        -3.74161         5.73510
     2014.13278        -3.89827         5.88124
     2014.13552         8.01707         5.86442
     2014.13826        -8.70959         5.70041
     2014.14099        -1.61525         5.75508
     2014.14373         0.40209         5.72984
     2014.14647       -14.69458         5.78767
     2014.14921        -2.04124         5.73615
     2014.15195        -6.76990         5.76874
     2014.15468        -1.38256         5.81080
     2014.15742        -1.69622         5.82131
     2014.16016         3.94612         6.01371
     2014.16290        -4.50854         5.88124
     2014.16564       -17.58620         5.97165
     2014.16837        -6.12187         5.99689
     2014.17111         1.13947         6.01371
     2014.17385        -1.67519         5.94958
     2014.17659         4.72015         5.95378
     2014.17932         0.96449         6.09887
     2014.18206        -3.64217         5.90857
     2014.18480        -1.96183         5.98637
     2014.18754         1.32051         5.79082
     2014.19028        -6.45416         5.77821
     2014.19301        -6.73282         5.77505
     2014.19575        -1.56248         5.75508
     2014.19849        -0.40614         5.84654
     2014.20123        -5.04780         5.82447
     2014.20397        -7.58146         5.76769
     2014.20670         1.64488         5.85390
     2014.20944        -4.02578         5.74351
     2014.21218        -1.39945         5.79608
     2014.21492         0.29589         5.94958
     2014.21765         0.54823         5.82236
     2014.22039        -3.70943         5.79713
     2014.22313        -8.18709         5.78031
     2014.22587        -6.26675         5.75403
     2014.22861        -1.51241         6.04840
     2014.23134        -3.02207         5.78662
     2014.23408         4.23426         5.82236
     2014.23682        -5.67340         5.82552
     2014.23956        -3.28306         5.93170
     2014.24230        -3.35972         5.82867
     2014.24503        -7.93238         5.74982
     2014.24777        -2.33004         6.00740
     2014.25051        -2.74470         5.79398
     2014.25325        -7.02236         5.87178
     2014.25598        -5.56403         5.93275
     2014.25872        -6.59569         5.78767
     2014.26146        -1.55735         5.96114
     2014.26420       -14.63901         5.76980
     2014.26694        -4.38367         5.79923
     2014.26967        -5.04833         5.92119
     2014.27241        -6.30799         5.93696
     2014.27515        -6.66965         5.91068
     2014.27789        -4.46532         5.80134
     2014.28062        -6.56598         5.77505
     2014.28336        -5.22164         5.79503
     2014.28610         1.74770         5.86757
     2014.28884        -4.94196         6.30493
     2014.29158        -7.10762         5.72564
     2014.29431        -3.74628         5.84549
     2014.29705         0.55405         5.77505
     2014.29979        -8.54861         5.92434
     2014.30253       -13.22227         5.80449
     2014.30527        -8.71493         5.80449
     2014.30800        -5.34059         5.80870
     2014.31074        -2.58425         5.83813
     2014.31348        -6.80691         5.78977
     2014.31622        -3.83357         5.81395
     2014.31895        -5.98024         5.73195
     2014.32169       -11.59690         5.94116
     2014.32443       -15.95856         5.88755
     2014.32717       -16.03222         5.93275
     2014.32991       -10.41788         5.75823
     2014.33264        -5.15754         5.81816
     2014.33538        -9.96620         5.80239
     2014.33812       -10.22486         5.84234
     2014.34086        -3.22053         5.80975
     2014.34360        -5.85919         5.75928
     2014.34633        -2.38585         5.78977
     2014.34907        -7.43751         6.34593
     2014.35181       -11.53017         5.96429
     2014.35455        -6.09783         5.75087
     2014.35728       -14.37049         5.76244
     2014.36002       -18.78815         5.79292
     2014.36276       -13.59282         5.81290
     2014.36550       -19.24948         5.82341
     2014.36824       -14.76714         5.89385
     2014.37097        -7.34680         6.18613
     2014.37371       -23.78046         5.79818
     2014.37645       -13.33412         5.77610
     2014.37919        -3.17378         5.85075
     2014.38193       -14.38144         5.88124
     2014.38466       -10.88411         5.89070
     2014.38740       -15.62777         5.89491
     2014.39014        -9.46543         5.85285
     2014.39288       -13.21209         5.92750
     2014.39561       -12.48675         5.90437
     2014.39835        -6.19241         5.90857
     2014.40109       -14.67107         5.85811
     2014.40383        -9.30973         5.86967
     2014.40657       -14.29240         5.89806
     2014.40930       -18.25006         5.91488
     2014.41204        -7.73672         5.97060
     2014.41478       -14.41238         5.85075
     2014.41752       -11.57104         5.78451
     2014.42026        -9.87370         5.88755
     2014.42299        -7.86536         6.00950
     2014.42573       -12.93502         5.88439
     2014.42847        -7.76469         6.05997
     2014.43121       -14.75635         5.74982
     2014.43394       -16.41501         5.83918
     2014.43668       -14.37767         5.90437
     2014.43942        -8.54533         5.83077
     2014.44216       -11.21299         5.85495
     2014.44490        -8.05865         5.99058
     2014.44763         3.20769         5.94642
     2014.45037       -11.38398         5.75087
     2014.45311       -15.60564         5.79818
     2014.45585        -8.35430         5.80554
     2014.45859       -13.30096         5.76874
     2014.46132       -14.33562         5.72564
     2014.46406       -10.32128         5.77400
     2014.46680       -12.94094         6.25867
     2014.46954       -11.96760         5.80028
     2014.47227        -6.04927         5.76033
     2014.47501       -10.85293         5.77715
     2014.47775       -13.77959         5.75508
     2014.48049        -7.34525         5.70566
     2014.48323        -6.93291         5.75192
     2014.48596        -1.11857         5.87283
     2014.48870        -0.71123         5.83288
     2014.49144        -3.32689         5.77085
     2014.49418        -9.83656         5.67833
     2014.49692       -12.72722         5.71092
     2014.49965       -14.92388         5.72248
     2014.50239       -12.83154         5.90752
     2014.50513       -10.65820         5.82972
     2014.50787        -9.70486         5.69410
     2014.51060        -9.85852         5.74982
     2014.51334        -9.42218         5.73615
     2014.51608        -9.30985         5.72774
     2014.51882        -7.03751         5.77190
     2014.52156        -7.48617         6.00845
     2014.52429        -7.48783         5.73300
     2014.52703        -1.87049         5.82341
     2014.52977        -6.78515         5.73510
     2014.53251       -13.42381         5.93486
     2014.53525        -5.60548         5.79923
     2014.53798        -3.75414         5.85811
     2014.54072        -9.09880         5.88334
     2014.54346        -1.53746         5.91278
     2014.54620       -10.89912         6.05156
     2014.54893        10.90422         6.00109
     2014.55167         2.27856         6.02948
     2014.55441        -6.04110         5.98112
     2014.55715       -10.24477         6.19349
     2014.55989        -8.16543         5.91488
     2014.56262        -8.45109         5.87283
     2014.56536        -7.55775         5.84129
     2014.56810        -8.20441         5.84654
     2014.57084        -8.55307         5.87283
     2014.57357       -13.10373         5.96114
     2014.57631       -10.34039         5.76454
     2014.57905        -8.75806         5.96535
     2014.58179        -8.92172         5.96219
     2014.58453       -13.13238         5.94852
     2014.58726        -8.36704         6.27654
     2014.59006        -6.56878         6.03053
     2014.59274        -2.55736         5.97691
     2014.59548        -2.17902         6.01581
     2014.59822        -9.62868         6.00319
     2014.60095        -8.18935         6.03684
     2014.60369       -10.69901         5.99794
     2014.60643       -16.98967         5.87072
     2014.60917        -6.85333         5.89806
     2014.61190        -2.64799         6.20505
     2014.61464       -11.06965         6.55936
     2014.61738       -16.12831         6.13672
     2014.62012       -12.67197         6.03894
     2014.62286         1.41136         5.86337
     2014.62559        -9.29330         5.91593
     2014.62833        -4.06396         5.94011
     2014.63107        -1.09962         6.04104
     2014.63381         1.36672         6.31334
     2014.63655        -9.22494         5.92434
     2014.63928        -4.89060         6.11569
     2014.64202        -6.35126         5.94642
     2014.64476        -6.65193         5.84549
     2014.64750        -7.55859         5.95588
     2014.65023       -10.05925         5.81080
     2014.65252        -3.24830         7.05139
     2014.65942       -10.23653        11.51015
     2014.66119         2.00911         6.08205
     2014.66392         1.69445         5.88544
     2014.66666         9.79378         5.90121
     2014.66940         0.08612         5.82657
     2014.67214        10.38646         6.07994
     2014.67488        -4.69820         5.79818
     2014.67761        -5.89286         5.85495
     2014.68035        -3.94552         5.77926
     2014.68309       -10.50318         5.87808
     2014.68583        -0.76284         5.78557
     2014.68856       -11.13551         5.93275
     2014.69130       -14.20017         5.75928
     2014.69404        -4.70483         5.77715
     2014.69678        -6.64449         5.78451
     2014.69952        -1.52715         5.78241
     2014.70225        -2.15581         5.82762
     2014.70499        -2.44547         5.75718
     2014.70773         5.47187         5.82657
     2014.71047         2.60020         5.80659
     2014.71321         0.64154         5.82867
     2014.71594        -4.40012         5.83918
     2014.71868        -0.80178         5.92855
     2014.72142         0.15356         5.74456
     2014.72416         3.12290         5.76980
     2014.72689         4.01024         5.86126
     2014.72963         2.52858         5.79292
     2014.73237         2.94891         5.81290
     2014.73511        -1.78575         5.87914
     2014.73785        -2.31641         5.74246
     2014.74058        -0.22007         5.73090
     2014.74332         5.05327         5.86021
     2014.74606         3.11861         6.04209
     2014.74880        -0.26505         5.90857
     2014.75154        -2.66971         5.87178
     2014.75427        -1.88738         5.99163
     2014.75701        -5.02304         5.80449
     2014.75975         1.87630         5.85916
     2014.76249        -4.02136         5.81816
     2014.76522        -4.20102         5.81185
     2014.76796        -3.80968         5.72984
     2014.77070         0.03166         5.76349
     2014.77344        -4.30900         5.79292
     2014.77618         7.92233         6.03368
     2014.77891         9.61367         5.95904
     2014.78165        -2.69799         5.79818
     2014.78439         4.02635         5.67833
     2014.78713         7.76669         5.90647
     2014.78987         3.38003         5.80449
     2014.79260        -0.22063         5.87178
     2014.79534         1.54070         5.80554
     2014.79808         1.93204         5.82762
     2014.80082         7.07538         5.76138
     2014.80355         4.31072         5.89701
     2014.80629        -0.43994         5.98006
     2014.80903         3.92439         5.90437
     2014.81177        11.57174         5.74351
     2014.81451         5.06208         5.80554
     2014.81724        20.61741         5.72879
     2014.81998         4.23675         5.81185
     2014.82266        -2.62383         6.10623
     2014.82454        19.97165        10.73846
     2014.82820         1.84277         5.72564
     2014.83093        -6.35589         5.75087
     2014.83367         4.80345         5.81290
     2014.83641         3.89779         5.74246
     2014.83915         5.23512         5.84970
     2014.84188         0.10546         6.06733
     2014.84462         2.19080         5.77926
     2014.84736         3.98514         5.94852
     2014.85010         7.82748         5.86442
     2014.85284         5.43682         5.78241
     2014.85557        -1.69484         6.12620
     2014.85831         2.43350         5.90962
     2014.86105        -3.84017         6.02632
     2014.86379        -2.61383         5.73931
     2014.86653        -0.86249         5.80975
     2014.86926        -9.75715         5.80134
     2014.87200        -7.02281         5.76664
     2014.87474       -10.96647         5.76244
     2014.87748        -6.98813         5.81816
     2014.88021        -0.59579         6.23239
     2014.88295         2.24554         5.77190
     2014.88569         8.56588         5.96535
     2014.88843         6.56422         6.12095
     2014.89117         9.13656         6.29967
     2014.89390        11.14990         5.97376
     2014.89664         3.07024         5.97901
     2014.89938        -0.15442         6.18718
     2014.90212         0.58792         5.94222
     2014.90485        -9.74075         5.79187
     2014.90759         4.59859         5.75508
     2014.91033        12.86493         5.81605
     2014.91307         8.24027         5.72774
     2014.91581         6.33461         5.73195
     2014.91854         4.02195         5.85706
     2014.92128         2.79029         5.77085
     2014.92402         5.72563         5.66676
     2014.92676         0.30996         5.68779
