# ================= DQRFIT RESULTS ================
# INPUT FILE: series/ENTR.rad
# OUTPUT: LDETRENDED
# FILTER FUNCTION: f(t)
# f(t)=+line(t)+annual(t)
# line(t)=+P 1+P 2*t
# annual(t)=+P 3*sin(2*pi*t+P 4)
# heav(t)=(t<0?0:1)
# TOTAL OBSERVATIONS MTOT= 4144
# INITIAL TIME INTERVAL= 2022.4305 - 2008.9949 = 13.4356
# TOTAL OBSERVATIONS AFTER PREFILTER M= 4131
# TIME-SPAN= 2022.4305 - 2008.9949 = 13.4356
# OBSERVATIONS: USED M=  4131 REJECTED MTOT-M=    13 %USED=   99.6863
# N=  4 PARAMETERS
# MAXSIG= 175.00000
# MAXRES=  21.93724
# SCALE FACTOR FOR LENGTHS: SCL=  10.00000
# SCALE FACTOR FOR SIGMAS: SCLSIG=   1.00000
# CHI^2=   4457.834 DOF=  4127 CHI^2/DOF=   1.08016
# RMS=      6.004 SDEV=      6.004 MEAN=   -0.08181
#  P #       PARAMETER +-    SIGMA %error PARAMETER NAME
# P 1 =      1135.37456 +-   51.196   4.51 YZERO                              
# P 2 =        -0.56274 +-    0.025   4.51 SLOPE                              
# P 3 =         4.66330 +-    0.129   2.76 ANNUAL AMPLITUDE                   
# P 4 =         3.02281 +-    0.039   1.28 ANNUAL PHASE                       
#       T            LDETRENDED       SIG_OBS
     2008.99494        -2.06034        13.98390
     2008.99657         0.04458         5.86586
     2008.99931        -3.78188         5.92510
     2009.00479        -5.05480         5.85651
     2009.00752        -3.92626         5.77336
     2009.01026       -10.94672         5.83468
     2009.01300        -6.01818         5.91263
     2009.01574        -7.97964         5.98226
     2009.01848        15.00190         5.99889
     2009.02121         1.81244         6.02487
     2009.02395        -6.42001         5.94589
     2009.02669       -15.14247         5.93134
     2009.02943       -21.63193         6.03631
     2009.03216       -19.30239         5.90639
     2009.03490       -15.56985         5.78375
     2009.03764       -13.89131         5.76193
     2009.04038       -13.70177         5.84092
     2009.04312       -14.14123         5.84403
     2009.04585       -15.31069         5.88561
     2009.04859       -16.95215         5.75673
     2009.05133       -16.12361         5.72347
     2009.05407       -18.21107         5.82117
     2009.05681        -8.29953         5.86482
     2009.05954        -9.96599         5.92094
     2009.06211       -16.01154         7.20761
     2009.07141       -20.36131         9.97633
     2009.07323       -12.32328         5.96979
     2009.07597       -17.82974         6.25768
     2009.07871       -13.14920         5.74530
     2009.08145       -12.48866         5.68918
     2009.08418        -7.38412         5.69333
     2009.08692        -7.46458         5.73179
     2009.08966       -11.92404         5.76920
     2009.09240       -13.75450         5.88873
     2009.09514        -3.56496         5.75673
     2009.09787        -4.93142         5.75361
     2009.10061         0.48912         5.76713
     2009.10335       -10.42433         5.78583
     2009.10609        -4.33079         5.83468
     2009.10882        -0.76425         5.75673
     2009.11156        -3.23071         5.72244
     2009.11430        -6.07917         5.79831
     2009.11704        -1.96763         5.92510
     2009.11978        -3.61409         5.79207
     2009.12251        -0.22255         5.77752
     2009.12525        -2.77401         5.74010
     2009.12799        -2.54447         5.71724
     2009.13073         3.23807         5.80870
     2009.13347        -7.63839         5.77752
     2009.13620        -9.15385         5.83676
     2009.13894        -4.01531         5.72763
     2009.14168        -9.40776         5.78687
     2009.14442        -4.52422         5.74426
     2009.14715        -8.66568         6.05190
     2009.14989       -20.46414         6.04982
     2009.15263        -1.24060         5.81078
     2009.15537        -9.00306         6.00201
     2009.15811        -6.68852         5.84923
     2009.16084        -8.17098         5.79831
     2009.16358         2.99256         5.88353
     2009.16632       -14.05790         6.07372
     2009.16906         2.55164         5.96979
     2009.17180        -0.33082         5.77648
     2009.17453        -2.46128         5.80246
     2009.17727        -0.25974         6.08204
     2009.18001        -3.72120         5.83676
     2009.18275        -4.04165         5.96563
     2009.18548        -7.93311         5.80766
     2009.18822       -11.64657         5.87210
     2009.19096        -7.93803         5.89704
     2009.19370        -9.90149         5.86482
     2009.19644        -7.47495         5.86066
     2009.19917        -0.01941         5.89912
     2009.20191       -10.95187         5.84923
     2009.20465       -11.75233         5.94173
     2009.20739        -7.55879         5.95524
     2009.21013       -10.14425         5.92614
     2009.21286        -5.59571         6.09659
     2009.21560        -7.19217         5.77024
     2009.21834       -10.22063         5.82845
     2009.22108         1.56192         5.79727
     2009.22381        -6.81754         5.81078
     2009.22655        -8.59600         5.87106
     2009.22929       -11.28346         5.81597
     2009.23203        -9.81092         5.77024
     2009.23477        -5.26138         5.88041
     2009.23750        -9.55084         5.91159
     2009.24024         1.29870         5.88145
     2009.24298        -4.48276         5.88769
     2009.24572        -7.55422         5.90016
     2009.24846        -3.90168         5.84715
     2009.25119        -4.07414         6.07372
     2009.25393        -4.84260         6.02695
     2009.25667        -5.96906         5.86378
     2009.25941        -9.91852         5.87210
     2009.26214       -11.15197         5.88249
     2009.26488        -8.00443         5.83468
     2009.26762        -0.90189         5.91887
     2009.27036        -4.81235         5.90016
     2009.27310       -10.62081         5.90224
     2009.27583        -8.12427         5.86690
     2009.27857       -10.83773         5.87833
     2009.28131        -4.38119         5.99785
     2009.28405        -7.88065         5.89808
     2009.28679        -3.50511         5.92406
     2009.28952       -11.52857         5.82325
     2009.29226       -13.99603         5.83468
     2009.29500       -16.10749         5.88561
     2009.29774       -12.89795         5.91990
     2009.30047       -18.95840         5.89288
     2009.30321       -14.52786         5.84403
     2009.30595        -6.08832         5.85027
     2009.30869        -6.45578         5.99889
     2009.31143        -6.08424         5.83676
     2009.31416        -8.37870         5.87314
     2009.31690        -9.50916         5.83364
     2009.31964        -6.60962         5.84715
     2009.32238        -5.93708         5.79207
     2009.32512        -9.23154         5.93965
     2009.32785       -20.71800         5.94173
     2009.33059       -15.74546         5.82741
     2009.33333        -6.22792         5.79519
     2009.33607       -12.76238         5.86586
     2009.33880        -2.16384         5.82325
     2009.34154        -6.64029         6.06125
     2009.34428        -9.05375         5.97187
     2009.34702        -7.78721         6.01136
     2009.34976       -13.55367         5.78687
     2009.35249       -12.21813         5.85131
     2009.35523       -13.96759         5.88353
     2009.35797        -4.61105         5.87106
     2009.36071       -15.00951         6.19740
     2009.36344        -8.70697         5.96563
     2009.36618         0.21957         5.99785
     2009.36892        -8.80189         5.87521
     2009.37166       -11.01435         5.87210
     2009.37440       -12.08781         5.80662
     2009.37713       -16.08427         5.91783
     2009.37987        -6.46872         6.11010
     2009.38261        -5.33918         5.90224
     2009.38535        -7.05464         5.88769
     2009.38809       -13.39410         5.96044
     2009.39082       -11.37656         5.83156
     2009.39356       -10.90602         5.89600
     2009.39630       -14.85348         5.89184
     2009.39904       -12.92594         5.88353
     2009.40177        -9.31840         5.91159
     2009.40451        -2.14686         5.81078
     2009.40725        -3.57232         5.89392
     2009.40999        -6.26278         6.13400
     2009.41273        -3.09924         5.92510
     2009.41546        -1.97270         5.96356
     2009.41820        -6.24015         5.97083
     2009.42094        -8.77061         5.89496
     2009.42368       -11.46307         5.96459
     2009.42642       -10.15953         6.11114
     2009.42915        -3.09499         6.11529
     2009.43189       -12.75045         5.99058
     2009.43463        -5.09291         5.88041
     2009.43737        -3.10737         5.89704
     2009.44010       -13.83183         5.97187
     2009.44284       -13.67029         5.92718
     2009.44558        -2.31075         6.01552
     2009.44832        -4.45021         5.94589
     2009.45106        -2.48567         5.81701
     2009.45379        -5.97513         5.89392
     2009.45653        -1.89859         6.14959
     2009.45927        -1.18604         5.99889
     2009.46201        -1.67250         5.96356
     2009.46475         0.95204         6.02280
     2009.46748        -8.61642         6.00201
     2009.47022        -7.30988         5.98954
     2009.47302        -2.26131         6.11737
     2009.47570        -3.77080         5.88665
     2009.47843        -2.31626         5.94381
     2009.48123       -11.96369         6.16830
     2009.48391        -8.28018         5.96875
     2009.48665        -9.87364         6.05294
     2009.48933       -11.20813         6.14440
     2009.49224        -4.43449         6.45931
     2009.49486       -12.35702         5.99266
     2009.49760        -5.93847         5.97187
     2009.50034        -6.14893         5.97291
     2009.50308        -6.85739         6.09347
     2009.50581         1.36215         6.09555
     2009.50855        -1.86931         6.09035
     2009.51129        -2.90677         6.14543
     2009.51403         3.84677         5.94277
     2009.51676        -0.40769         5.93445
     2009.51950        -9.08315         5.89392
     2009.52224        -6.62361         5.92926
     2009.52498        -9.30507         5.89704
     2009.52772        -3.74653         5.96563
     2009.53045        -3.07899         6.11945
     2009.53319        -3.33445         5.91783
     2009.53593        -7.94591         5.95524
     2009.53867        -5.00336         5.93342
     2009.54141        -4.58782         5.92822
     2009.54414        -9.10628         6.08931
     2009.54688        -8.21374         5.91471
     2009.54962        -2.05920         5.87106
     2009.55236         1.35034         5.91263
     2009.55509         2.30888         5.85651
     2009.55783         7.81342         5.88457
     2009.56057        -0.89504         6.14959
     2009.56331        -6.62850         6.11841
     2009.56605        -6.69996         6.33563
     2009.56878        -4.14342         5.95524
     2009.57152        -2.16488         6.18805
     2009.57426        -2.97934         6.01032
     2009.57700        -1.55879         6.04774
     2009.57974        -7.47125         6.07164
     2009.58247        -6.99071         6.07268
     2009.58521        -6.31717         6.07580
     2009.58789        -6.42366         6.07268
     2009.59069        -3.64109         6.02384
     2009.59342        -2.37155         6.14959
     2009.59616         5.58699         6.23170
     2009.59890         2.61753         5.91055
     2009.60164        -3.06593         5.92718
     2009.60438        -3.43239         5.94069
     2009.60711        -1.01185         5.94797
     2009.60985        -7.94231         5.92822
     2009.61259        -2.08477         6.03735
     2009.61533         1.07277         6.25976
     2009.61807        -2.47768         5.93342
     2009.62080         0.64786         5.92406
     2009.62360        -6.99157         5.91055
     2009.62628        -3.47506         5.96044
     2009.62907        -2.75349         6.24729
     2009.63175        -1.52998         5.91783
     2009.63449        -3.47544         5.99785
     2009.63723        -0.58990         6.01968
     2009.63997        -3.89936         5.97811
     2009.64271        -2.85382         6.05190
     2009.64544         1.21172         5.93342
     2009.64818        -2.13774         6.05190
     2009.65092        -3.68820         5.95004
     2009.65366        -7.49966         5.99162
     2009.65639        -4.91611         5.90224
     2009.65913         2.53643         6.05917
     2009.66187        -0.46803         6.04046
     2009.66461        -6.42549         6.08723
     2009.66735         1.15805         6.03942
     2009.67008         3.62659         5.95732
     2009.67282        -1.73887         5.88561
     2009.67556        -4.91333         5.95524
     2009.67830        -4.27779         6.20052
     2009.68104        -8.87025         6.20571
     2009.68377       -10.01371         5.96356
     2009.68651         0.10383         5.87625
     2009.68925         0.56837         5.96459
     2009.69199        -6.80309         5.99681
     2009.69472        -7.13654         5.97499
     2009.69746        -1.85800         5.89496
     2009.70020         8.15554         5.90847
     2009.70294         5.64208         5.95212
     2009.70568        -1.63238         5.84300
     2009.70841        -4.24284         5.88769
     2009.71115         2.36770         5.97187
     2009.71389        -0.95376         6.09139
     2009.71663        -5.01622         5.96563
     2009.71937        -4.23368         6.14024
     2009.72210        -7.21714         5.88457
     2009.72484        -4.56560         6.18493
     2009.72758        -5.06806         5.95420
     2009.73032        -1.67152         5.88561
     2009.73305        -0.78098         6.05813
     2009.73579        -5.11743         5.98018
     2009.73853         0.21411         5.97083
     2009.74127         4.43665         6.06645
     2009.74401         2.59119         6.08100
     2009.74674         0.46073         5.90328
     2009.74948        -1.85973         6.18909
     2009.75222         0.15781         5.89392
     2009.75496        -4.03965         5.95420
     2009.75770         9.41489         5.98434
     2009.76043         3.93643         5.91367
     2009.76317         1.97897         5.91367
     2009.76591        -0.93349         5.99473
     2009.76865        -2.05295         6.04358
     2009.77138        -0.51241         5.98954
     2009.77412         0.85614         5.88769
     2009.77686        -1.28232         5.86274
     2009.77960         2.65722         5.96875
     2009.78234         8.61576         5.98018
     2009.78507        18.14230         6.13504
     2009.78781         1.17984         6.04358
     2009.79055        -0.46562         6.03839
     2009.79329        -7.41508         6.13920
     2009.79603        -9.03754         6.24105
     2009.79876         3.71200         6.10178
     2009.80150        -2.35146         6.05709
     2009.80424        -2.96292         6.03527
     2009.80698        -0.58038         6.20468
     2009.80971        -2.02184         6.17765
     2009.81245        10.70870         6.40422
     2009.81519         7.13325         6.20364
     2009.81793         7.27979         6.16102
     2009.82067         6.63333         6.26392
     2009.82340         1.39487         6.04254
     2009.82614         6.26041         6.02591
     2009.82888        11.15295         6.12257
     2009.83162         3.27549         6.29613
     2009.83436        -0.24597         6.02280
     2009.83709        -4.22243         6.12673
     2009.83989        -2.74086         6.29509
     2009.84257         2.99965         6.32004
     2009.84536         0.05923         6.44683
     2009.84804         4.17673         6.50296
     2009.85078        12.47627         6.10386
     2009.85352         8.61782         6.18285
     2009.85626         4.16036         6.07892
     2009.85900         3.66890         6.32316
     2009.86173        -5.44856         6.09555
     2009.86447         5.49598         6.49672
     2009.86721         1.18852         6.29406
     2009.86995         3.28006         6.10178
     2009.87269         2.25560         6.13504
     2009.87548        -0.11783         6.25248
     2009.87816         7.98068         6.36473
     2009.88084        -0.02581         6.51855
     2009.88364         3.24976         6.45307
     2009.88637         3.72330         6.16934
     2009.88911        13.40284         5.99058
     2009.89185        12.85739         6.15479
     2009.89459         4.78193         6.04566
     2009.89733        -6.11453         6.12881
     2009.90006        -5.72399         6.02384
     2009.90280         6.04955         5.99993
     2009.90554        -0.56291         6.28366
     2009.90828        -2.48237         5.98850
     2009.91102        -2.30783         6.02072
     2009.91375        -3.02129         5.93549
     2009.91649        -5.72075         6.03527
     2009.91923        -4.39221         5.96044
     2009.92197        -7.05867         5.97395
     2009.92470        -5.76113         6.02280
     2009.92744        -4.03059         5.98226
     2009.93018        -5.87005         6.21195
     2009.93292        -1.24450         5.96459
     2009.93566        -2.62496         6.00928
     2009.93839        -0.84042         6.17765
     2009.94113        -0.97088         6.00825
     2009.94387        -3.11034         6.08515
     2009.94661        -2.48280         6.12673
     2009.94935         4.81574         5.99681
     2009.95208         1.41328         6.25768
     2009.95482        -5.45918         5.93134
     2009.95756        -4.24964         5.92406
     2009.96030       -11.23110         5.95732
     2009.96303        -6.61956         5.90535
     2009.96577       -11.74702         6.13192
     2009.96851        -2.70048         6.04254
     2009.97130        -0.22790         6.25872
     2009.97399        -0.61439         6.00617
     2009.97672        -9.39685         5.95108
     2009.97946       -12.29231         6.10386
     2009.98220       -10.34877         5.94693
     2009.98494        -5.56423         5.88976
     2009.98767        -9.06569         5.89912
     2009.99041        -9.46715         5.90016
     2009.99315        -8.66261         6.03007
     2009.99589        -7.23507         5.92926
     2009.99863       -11.91353         5.90431
     2010.00410        -8.77445         5.89080
     2010.00684       -10.16491         5.90535
     2010.00958        -8.82537         5.98330
     2010.01232       -13.30682         6.09659
     2010.01505        -9.82528         5.90951
     2010.01779        -9.55174         5.84507
     2010.02053        -5.71120         5.89184
     2010.02327        -8.97366         6.30341
     2010.02600       -12.41812         5.95732
     2010.02874        -2.44058         6.16622
     2010.03148         6.80296         6.12049
     2010.03422        -0.77550         6.07788
     2010.03696        -6.23996         6.30445
     2010.03969        -5.32842         6.14232
     2010.04243         5.25212         5.92822
     2010.04517        12.07866         5.95732
     2010.04791         9.97320         6.07580
     2010.05065         5.06975         6.04982
     2010.05344         6.31132         6.35018
     2010.05612         2.74083         6.10490
     2010.05886         8.00237         5.94589
     2010.06160        -6.30809         5.91159
     2010.06433        -7.37755         5.87314
     2010.06707        -4.81201         5.93965
     2010.06981       -16.08847         6.01864
     2010.07255       -10.93293         6.23585
     2010.07534        -6.35336         6.20156
