# ================= DQRFIT RESULTS ================
# INPUT FILE: series/ESM1.rad
# OUTPUT: LDETRENDED
# FILTER FUNCTION: f(t)
# f(t)=+line(t)+annual(t)
# line(t)=+P 1+P 2*t
# annual(t)=+P 3*sin(2*pi*t+P 4)
# heav(t)=(t<0?0:1)
# TOTAL OBSERVATIONS MTOT= 1827
# INITIAL TIME INTERVAL= 2012.5556 - 2006.6010 =  5.9546
# TOTAL OBSERVATIONS AFTER PREFILTER M= 1825
# TIME-SPAN= 2012.5556 - 2006.6010 =  5.9546
# OBSERVATIONS: USED M=  1825 REJECTED MTOT-M=     2 %USED=   99.8905
# N=  4 PARAMETERS
# MAXSIG= 175.00000
# MAXRES=  29.45353
# SCALE FACTOR FOR LENGTHS: SCL=  10.00000
# SCALE FACTOR FOR SIGMAS: SCLSIG=   1.00000
# CHI^2=   1656.430 DOF=  1821 CHI^2/DOF=   0.90963
# RMS=      5.613 SDEV=      5.614 MEAN=    0.03100
#  P #       PARAMETER +-    SIGMA %error PARAMETER NAME
# P 1 =      3414.31112 +-  163.233   4.78 YZERO                              
# P 2 =        -1.69519 +-    0.081   4.79 SLOPE                              
# P 3 =         6.21033 +-    0.180   2.90 ANNUAL AMPLITUDE                   
# P 4 =        -3.05050 +-    0.041   1.34 ANNUAL PHASE                       
#       T            LDETRENDED       SIG_OBS
     2006.60095        -1.77618         5.50978
     2006.60369         6.43746         5.55269
     2006.60643        11.28810         5.50119
     2006.60917         7.85074         5.46876
     2006.61190         2.85238         5.48212
     2006.61464         9.17002         5.47258
     2006.61738         9.78367         5.47449
     2006.62012        10.09731         5.50691
     2006.62286         8.02495         5.41345
     2006.62559         8.76459         5.48212
     2006.75975        11.80801         5.53934
     2006.76249         8.93465         5.54411
     2006.76522         8.34829         5.61755
     2006.76796         5.45993         5.65856
     2006.77070         9.11257         5.54220
     2006.77344         0.25921         5.65761
     2006.77618         5.68085         5.51454
     2006.77891        11.96249         5.50501
     2006.78165        13.83214         5.41059
     2006.78439         9.43078         5.45923
     2006.78713        24.08542         5.74344
     2006.78987        27.47406         5.59561
     2006.79260         7.85870         5.49356
     2006.79534         4.71834         5.63185
     2006.79808        15.71698         5.68336
     2006.80082         6.82162         5.72055
     2006.80355         5.80127         5.49547
     2006.80629        11.49591         5.44969
     2006.80903         4.70755         5.50215
     2006.81177         8.97719         5.59275
     2006.81451         7.70583         5.65570
     2006.81724         6.45947         5.73772
     2006.81998         7.24511         5.45923
     2006.82272         3.97075         5.48116
     2006.82535        19.04222         5.72055
     2006.82836        12.68231         5.67000
     2006.83093         7.43768         5.46209
     2006.83367         8.30032         5.45541
     2006.83641         8.19996         5.57558
     2006.83915        21.17260         5.70815
     2006.84188         4.21524         5.75870
     2006.84462        17.20488         5.66810
     2006.84736        13.50852         5.66142
     2006.85010         7.48817         5.78064
     2006.85284        17.85581         5.76919
     2006.85557        23.40645         5.74630
     2006.85831        11.63909         5.58703
     2006.86006         1.03105        11.27992
     2006.88079        -6.35181         7.45350
     2006.88295         9.37686         5.59275
     2006.88569         8.85850         5.56891
     2006.88843         8.45314         5.50215
     2006.89117        15.25478         5.52885
     2006.89390         1.29942         5.70815
     2006.89664         4.12407         5.51931
     2006.89938        -4.15629         5.40868
     2006.90212        -0.00565         5.53076
     2006.90759         6.49363         5.49261
     2006.91033        -3.52873         5.43634
     2006.91295         0.95672         5.97711
     2006.91581        -1.51245         5.49547
     2006.91854        -5.78980         5.44301
     2006.92128        -8.39616         5.43538
     2006.92402        -5.27652         5.52885
     2006.92676        -4.56288         5.44587
     2006.92950        -6.88524         5.60515
     2006.93223        -0.58160         5.53934
     2006.93497         0.19004         5.81688
     2006.93771         3.50268         5.57463
     2006.94045         3.22132         5.56223
     2006.94318         9.25497         5.63758
     2006.94592        -2.26339         5.67573
     2006.94866         5.13025         5.67477
     2006.95140         5.13489         5.57654
     2006.95414         7.95453         6.06581
     2006.95687         3.30117         5.54792
     2006.95961         1.94881         5.52027
     2006.96235        -3.37855         5.49165
     2006.96509        -1.04590         5.61183
     2006.96783        -0.11926         5.77205
     2006.97056         0.48538         5.70052
     2006.97330         5.18702         5.58989
     2006.97604        -1.17934         5.71388
     2006.97878        -2.55870         5.63662
     2006.98151        -5.26206         5.60706
     2006.98425        -0.84942         5.58226
     2006.98699         0.86222         5.74344
     2006.98973        -7.53613         5.67954
     2006.99794        -8.83321         5.70148
     2007.00342         9.84907         5.95517
     2007.00616        10.58171         5.76252
     2007.00889        -0.46565         5.69862
     2007.01163         1.05300         5.67191
     2007.01437         5.67064         5.65188
     2007.01711        -4.48172         5.62136
     2007.01984        -9.89008         5.58226
     2007.02258        -8.84244         5.47449
     2007.02504        10.95672         6.30234
     2007.05544       -12.77675         5.28469
     2007.05817       -15.46610         5.49261
     2007.06091       -16.31346         5.30854
     2007.06365       -15.29682         5.30854
     2007.06639       -11.84918         5.48116
     2007.06913       -12.71454         5.27897
     2007.07186        -7.18390         5.25703
     2007.07460       -12.14626         5.27134
     2007.07734       -13.43762         5.33619
     2007.08008       -11.88797         5.34287
     2007.08282        -9.21233         5.32761
     2007.08555       -12.54969         5.44397
     2007.08829        -9.77505         5.30854
     2007.09114        -8.69622         5.63853
     2007.09377        -4.87777         5.34669
     2007.09650        -8.52313         5.41535
     2007.09924       -15.09449         5.44111
     2007.10198        -3.70485         5.30949
     2007.10472        -5.16920         5.51168
     2007.10746       -10.53756         5.44397
     2007.11019        -0.54092         5.36957
     2007.11293        -0.74328         5.41440
     2007.11567        -3.99064         5.33715
     2007.11841        -9.77300         5.17120
     2007.12115       -14.24536         5.31807
     2007.12388       -11.38372         5.43634
     2007.12662       -11.11707         5.28088
     2007.12936        -1.82643         5.50310
     2007.13210        -3.46379         5.31044
     2007.13466        -0.05944         5.67477
     2007.13757         6.69049         5.41345
     2007.14031        -6.05087         5.33524
     2007.14305        -2.19223         5.35813
     2007.14579        -7.15259         5.40582
     2007.14852        -7.06195         5.39056
     2007.15400        -0.09666         5.39056
     2007.15674         1.19798         5.34764
     2007.15948        -1.39938         5.29423
     2007.16221         1.95226         5.83023
     2007.16495        -3.82010         5.47639
     2007.16769        -0.65946         5.37148
     2007.17043        -7.91782         5.40772
     2007.17316        -2.21517         5.49738
     2007.17590        -6.63853         5.35431
     2007.17864        -2.01489         5.58321
     2007.18138        -0.82825         5.48021
     2007.18412        -3.99761         5.44397
     2007.18685        -4.16997         5.59084
     2007.18959         2.83467         5.56795
     2007.19233         1.89931         5.50691
     2007.19507        -8.05405         5.53553
     2007.19780       -13.85040         5.32761
     2007.20054       -17.19476         5.40105
     2007.20328       -17.80912         5.34764
     2007.20602        -5.44848         5.33810
     2007.20876        -1.32784         5.31998
     2007.21149       -15.21820         5.30281
     2007.21423        -2.30656         5.41440
     2007.21697        -4.07492         5.31235
     2007.21971        -7.56327         5.36004
     2007.22245        -8.93263         5.35908
     2007.22518        -0.81599         5.42394
     2007.22792         0.90165         5.26657
     2007.23066        -6.07471         5.28088
     2007.23340        -9.61007         5.33715
     2007.23613        -9.42143         5.40105
     2007.23887       -13.15479         5.35718
     2007.24161        -9.44015         5.38007
     2007.24435        -5.55450         5.37625
     2007.24709         0.36514         5.37148
     2007.24982        -1.92622         5.32380
     2007.25256       -11.41758         5.25226
     2007.25530        -8.63194         5.29041
     2007.25804       -10.11930         5.35145
     2007.26078        -6.50566         5.42108
     2007.26351        -5.96202         5.33143
     2007.26625        -0.13137         5.42871
     2007.26899         4.57827         5.44969
     2007.27173        -2.88409         5.36004
     2007.27446        -3.93545         5.28851
     2007.27720         0.70619         5.37720
     2007.27994        -6.09117         5.43348
     2007.28268        -0.87853         5.53553
     2007.28542        -1.46289         5.39819
     2007.31553        -4.43483         5.33619
     2007.31827       -10.13619         5.41631
     2007.32101       -12.10855         5.35431
     2007.32375         0.55109         5.37816
     2007.32648        -2.48427         5.30186
     2007.32922        -2.04563         5.42298
     2007.33196        -1.36899         5.46018
     2007.33470        -6.40234         5.46018
     2007.33744         0.13130         5.42012
     2007.34017       -10.75706         5.32475
     2007.34308       -12.87613         5.80639
     2007.34565       -14.82178         5.28660
     2007.34839        -8.53114         5.37720
     2007.35112        -2.99050         5.38388
     2007.35386        -7.70086         5.63853
     2007.35660       -12.72622         5.67191
     2007.35934        -2.57357         5.39246
     2007.36208        -5.06393         5.41917
     2007.36481       -10.24329         5.45255
     2007.36755        -6.32565         5.38102
     2007.37029       -10.44401         5.39628
     2007.37303        -3.89037         5.52217
     2007.37577        -9.36873         5.46304
     2007.37850        -8.31409         5.65379
     2007.38124       -10.31144         5.45255
     2007.38398         4.78120         5.54029
     2007.38672        -4.40716         5.34096
     2007.38945        -8.23752         5.34001
     2007.39219        -6.60288         5.55937
     2007.39493        -2.18624         5.47353
     2007.39767       -11.21160         5.52027
     2007.40041         1.45504         5.40009
     2007.40314         1.04868         5.38293
     2007.40588        -4.53567         5.35718
     2007.40856        -8.34413         5.58417
     2007.41136        -5.58239         5.48879
     2007.41410        -5.96475         5.52313
     2007.41683        -8.41111         5.41440
     2007.41957        -7.17647         5.61183
     2007.42231        -0.21483         5.51931
     2007.42505         3.21181         5.52599
     2007.42778         1.11846         5.50787
     2007.43052        -1.15390         5.40868
     2007.43326        -2.29526         5.39533
     2007.43600         1.41338         5.54602
     2007.43868         0.46392         5.59561
     2007.44147        -8.18734         5.46495
     2007.44381        -0.12137         6.88603
     2007.44695       -12.36906         5.56986
     2007.59869        -7.87683        13.99904
     2007.60027        10.28685         5.37148
     2007.60301         1.41749         5.37911
     2007.60574         4.74413         5.40963
     2007.60848        -1.30323         5.44015
     2007.61122         2.19341         5.39246
     2007.61396        -2.24094         5.37339
     2007.61670        -5.54430         5.74153
     2007.61943         0.52534         5.87983
     2007.62217         8.19398         5.68526
     2007.62491        -3.40238         5.66047
     2007.62765         1.45926         5.79208
     2007.63039        14.40990         5.75107
     2007.63312         7.26554         5.54697
     2007.63586        -3.50681         5.54983
     2007.63860        -2.88417         5.54506
     2007.64134         2.81647         5.40677
     2007.64407        12.18211         5.72532
     2007.64681         0.57675         5.63567
     2007.64955        10.97839         5.80639
     2007.65229        -1.30197         5.73104
     2007.65503        -1.67433         5.57940
     2007.65776         2.87031         5.58035
     2007.66050         2.58596         5.65474
     2007.66324         2.28860         5.62995
     2007.66598        11.71824         5.67191
     2007.66872         0.78188         5.75870
     2007.67145         2.67152         5.65093
     2007.67419        12.93016         5.92847
     2007.67693        10.24880         5.58989
     2007.67967         2.89444         5.70052
     2007.68240        10.32509         5.59943
     2007.68514         0.97573         5.68050
     2007.68788         3.54637         5.67954
     2007.69062         7.32901         5.57177
     2007.69336         5.54365         5.61087
     2007.69609         7.98729         5.60992
     2007.69883         2.30393         5.57081
     2007.70157         6.48657         5.55365
     2007.70431         1.29721         5.76729
     2007.70705        12.37986         5.84454
     2007.70978        18.32850         5.69385
     2007.71252         7.98514         5.56032
     2007.71526        15.07778         5.45732
     2007.71800         6.89242         5.46876
     2007.72073         5.15806         5.47067
     2007.72347        15.75670         5.49070
     2007.72621         5.81934         5.43729
     2007.72895         6.67899         5.45160
     2007.73169         3.19063         5.46400
     2007.73442         1.77927         5.60896
     2007.73716         4.03591         5.59084
     2007.73990        23.60155         5.53553
     2007.74264         4.36819         5.43252
     2007.74538        16.45283         5.59370
     2007.74811        10.64247         5.60610
     2007.75085         7.98911         5.98569
     2007.75359        17.93076         5.59084
     2007.75633         6.31240         5.44206
     2007.75906         6.81504         5.40200
     2007.76140         3.23500         6.42728
     2007.76454         3.15232         5.57558
     2007.76728        20.82596         5.97520
     2007.77002         7.09560         5.87124
     2007.77275         4.52024         5.62899
     2007.77549         2.24689         5.48212
     2007.77823         7.10553         5.49356
     2007.78097         6.84217         5.36099
     2007.78371         5.25681         5.39056
     2007.78644        16.29545         5.43729
     2007.78918         7.41909         5.62327
     2007.79192        12.26473         5.50501
     2007.79466         9.34937         5.67763
     2007.79739        15.00001         5.67573
     2007.80013        22.86466         5.50024
     2007.80264        -0.74609         5.74249
     2007.80561        12.00994         5.46686
     2007.80835         4.54258         5.50310
     2007.81108         1.17322         5.84740
     2007.81382        11.02086         5.55555
     2007.81656        -2.60250         5.58989
     2007.81930         1.47614         5.48975
     2007.82203         0.67279         5.44587
     2007.82477        -2.27257         5.54029
     2007.82751        -1.11493         5.48498
     2007.83025         2.57371         5.46400
     2007.83299         0.30335         5.42203
     2007.83572         0.76999         5.34669
     2007.83846         3.72963         5.43443
     2007.84120         4.53327         5.42394
     2007.84394        -2.42908         5.33238
     2007.84668        -0.74344         5.45160
     2007.84941         2.86120         5.48116
     2007.85215         9.74184         5.62327
     2007.85489         7.66748         5.85598
     2007.85763         9.86812         5.64044
     2007.86036         0.87076         5.48879
     2007.86310         4.98840         5.61087
     2007.86584        10.35904         5.47067
     2007.86835         4.63630         5.78731
     2007.87132        12.66333         5.45350
     2007.87405         5.96597         5.52217
     2007.87679         7.69261         5.42680
     2007.87953        -0.90175         5.45350
     2007.88227         3.02489         5.42298
     2007.88501         5.78553         5.38674
     2007.88774        -7.67083         5.40009
     2007.89048        -7.42118         5.34859
     2007.89305        -2.69583         7.81497
     2007.89596         5.02910         5.60324
     2007.90948         2.35301         5.90558
     2007.91238        -0.70106         5.41059
     2007.91512         1.94959         5.49452
     2007.91786        20.52523         6.67620
     2007.92060         2.45887         6.05436
     2007.92334       -10.33749         5.64998
     2007.92607         1.86815         5.47353
     2007.92881        -3.58521         5.46590
     2007.93155        -4.25857         5.47258
     2007.93429        -3.76693         5.44587
     2007.93697        -4.37438         5.61469
     2007.93976        -1.62264         5.45827
     2007.94136         4.93206        12.13734
     2007.95448       -12.84670        11.54316
     2007.95613        -2.41989         6.24130
     2007.95916         8.22523         6.28898
     2007.96167        11.32749         5.59084
     2007.96440        -0.67487         5.62899
     2007.96714         1.07877         6.74297
     2007.96988        -8.43759         5.52504
     2007.97262       -14.59495         5.67191
     2007.97535        -2.17531         5.60229
     2007.97809        -0.29567         5.58894
     2007.98083        -5.34303         5.55746
     2007.98357         6.49662         5.39342
     2007.98631         2.57726         5.76538
     2007.98904        -0.35510         5.70815
     2007.99178         2.19354         5.59847
     2007.99452         0.00718         5.63090
     2007.99726        -0.38518         5.41154
     2008.00000       -12.53354         5.49165
     2008.00273       -12.57190         5.55269
     2008.00547         0.12174         5.55746
     2008.00821        -2.58161         5.71960
     2008.01095         7.64503         5.31330
     2008.01368         4.38367         5.27706
     2008.01642         0.47831         5.40582
     2008.01916        -2.92905         5.59847
     2008.02190         2.97559         5.49452
     2008.02455         1.87808         6.19838
     2008.02823       -17.25468         8.63710
     2008.03011        -3.31248         5.51264
     2008.03285        -9.71284         5.32189
     2008.03559        -6.52520         5.51550
     2008.03833        -5.20856         5.43061
     2008.04095       -12.88511         5.71102
     2008.04380       -13.68928         5.58131
     2008.04654       -11.48064         5.40105
     2008.04928        -9.36100         5.49642
     2008.05201        -9.77536         5.43252
     2008.05475        -7.27171         5.39723
