# ================= DQRFIT RESULTS ================
# INPUT FILE: series/FITT.rad
# OUTPUT: LDETRENDED
# FILTER FUNCTION: f(t)
# f(t)=+line(t)
# line(t)=+P 1+P 2*t
# heav(t)=(t<0?0:1)
# TOTAL OBSERVATIONS MTOT=  617
# INITIAL TIME INTERVAL= 2018.5433 - 2004.7693 = 13.7740
# TOTAL OBSERVATIONS AFTER PREFILTER M=  616
# TIME-SPAN=    0.0000 -    0.0000 =  0.0000
# OBSERVATIONS: USED M=   616 REJECTED MTOT-M=     1 %USED=   99.8379
# N=  2 PARAMETERS
# MAXSIG= 175.00000
# MAXRES=  16.98048
# SCALE FACTOR FOR LENGTHS: SCL=  10.00000
# SCALE FACTOR FOR SIGMAS: SCLSIG=   1.00000
# CHI^2=    823.249 DOF=   614 CHI^2/DOF=   1.34080
# RMS=      6.702 SDEV=      6.708 MEAN=   -0.00659
#  P #       PARAMETER +-    SIGMA %error PARAMETER NAME
# P 1 =     -1426.02097 +-  120.487   8.45 YZERO                              
# P 2 =         0.70944 +-    0.060   8.45 SLOPE                              
#       T            LDETRENDED       SIG_OBS
     2004.76934         3.93422         6.75651
     2004.77208        -0.08573         6.83872
     2004.77482        12.18333         6.77619
     2004.77755         7.91439         6.85841
     2004.78029         5.76845         6.76577
     2004.78303         3.42850         6.86072
     2004.78577         7.81156         6.56198
     2004.78851        11.78262         6.67314
     2004.79124        12.02568         6.57124
     2004.79398        15.25573         6.64419
     2004.79672         9.25679         6.65693
     2004.79946        10.51285         6.64072
     2004.80220         4.75891         6.69167
     2004.80493        -1.94604         6.64882
     2004.80767         9.48802         6.63956
     2004.81041        -4.11992         6.58514
     2004.81315        -6.37786         6.52956
     2005.25120        -0.26164         6.64882
     2005.25394        10.80842         6.97999
     2005.25668        16.98048         7.05526
     2005.25942         6.80653         6.81093
     2005.26215         2.93859         6.82714
     2005.26489         1.17265         6.82599
     2005.26763         5.45071         6.80283
     2005.27037        12.84176         6.82714
     2005.27311         8.67782         6.80051
     2005.27584         9.97988         6.81209
     2005.27858         1.72494         6.83525
     2005.28132         2.23800         6.81672
     2005.28406         1.47605         6.91630
     2005.28679         3.98611         6.85957
     2005.28953         6.27317         6.70325
     2005.29227        -1.48677         6.74377
     2005.29501        10.82828         6.69167
     2005.29775         8.47534         6.68703
     2005.30048         8.02540         6.69746
     2005.30322         3.94346         6.70325
     2005.30596         5.08451         6.63724
     2005.30870         4.24457         6.68009
     2005.31144         7.34863         6.72177
     2005.31417         4.57769         6.69861
     2005.31691         3.12274         6.68703
     2005.31965         0.56780         6.82830
     2005.32239         6.73586         6.82599
     2005.32512        -0.62308         6.71251
     2005.32786        -0.97302         6.72525
     2005.33060         8.72003         6.74377
     2005.33334         3.57009         6.85146
     2005.33608         4.13415         6.78546
     2005.33881         2.02721         6.77156
     2005.34155         2.93626         6.71367
     2005.34429         4.47632         6.66735
     2005.34703         2.17638         6.65693
     2005.34977         1.48444         6.66040
     2005.35250        -8.85651         6.74377
     2005.35524         7.44655         6.89662
     2005.35798         4.09361         6.90820
     2005.36072        -2.99433         6.91051
     2005.36345         0.11972         6.96609
     2005.36619         6.65778         6.87809
     2005.36893         6.40484         7.02168
     2005.37167         1.99590         7.05410
     2005.37441        12.21196         6.97767
     2005.37714         7.13401         7.01241
     2005.37988        -6.02993         6.91746
     2005.38262        -0.28087         7.02283
     2005.38536         2.82819         6.95104
     2005.38810         4.89024         6.96957
     2005.39083        -0.02970         6.97073
     2005.39357         1.35936         6.86767
     2005.39631        -1.10858         6.80630
     2005.39905        -1.32753         6.90472
     2005.40178         5.96753         6.94294
     2005.40452         6.85759         7.08999
     2005.40726         9.04565         6.87925
     2005.41000         7.91870         6.85725
     2005.41274         4.19476         6.85493
     2005.41547        -8.29618         6.82483
     2005.41821         4.77588         6.70093
     2005.42095         3.37194         6.68935
     2005.42369         9.83799         6.70440
     2005.42643         0.58205         6.78893
     2005.42916         2.67411         6.71946
     2005.43190         3.97917         6.69977
     2005.43464         4.12822         6.71830
     2005.43738         4.36728         6.94757
     2005.44011        10.06534         6.87230
     2005.44285         2.53640         7.00894
     2005.44559        -6.79955         6.91515
     2005.44833        -2.26449         6.92673
     2005.45107         1.75857         6.82946
     2005.57427         7.97916         7.12473
     2005.57701        -1.05178         6.94525
     2005.57974         3.72628         7.16294
     2005.58248         5.75734         6.96841
     2005.58522        10.23639         6.88851
     2005.58796        11.22145         6.70440
     2005.59070        10.45351         6.63956
     2005.59343         6.48657         6.72872
     2005.59617        11.31062         6.75188
     2005.59891         9.25468         6.79356
     2005.60165         5.23674         6.86188
     2005.60439         0.44380         6.75072
     2005.60696        -4.09003         7.29842
     2005.93567         8.33277         6.65345
     2005.93840         3.80183         6.64303
     2005.94114         9.96789         6.64535
     2005.94388         9.75895         6.65577
     2005.94662         9.14900         6.64998
     2005.94935         5.08106         6.63609
     2005.95209         3.00912         6.72872
     2005.95483         3.81518         6.86651
     2005.95757         6.41023         6.69398
     2005.96031        11.29029         6.58861
     2005.96304         4.16435         6.54924
     2005.96578        -0.44059         6.79820
     2005.96852         4.30246         6.91051
     2005.97126        -1.81148         6.76114
     2005.97400        -7.02542         6.82599
     2005.97673        -5.47136         6.86188
     2005.97947         0.67370         6.68009
     2005.98221         5.73075         6.72409
     2005.98495        -2.04719         6.75188
     2005.98768       -10.90413         6.88967
     2005.99042        -1.34907         6.72061
     2005.99316         2.15598         6.83988
     2005.99590        -5.49796         6.77156
     2005.99864        -0.38190         6.85262
     2006.00411       -27.14479         7.14905
     2006.00959        -2.74367         6.76577
     2006.01233        -1.01661         6.77735
     2006.01506        -2.18156         6.79704
     2006.01780         8.55550         6.81093
     2006.02054         1.44856         6.86767
     2006.02328         1.66962         6.94641
     2006.02601        -1.44232         6.94525
     2006.02875        -1.95327         6.85030
     2006.03149         3.56079         6.87693
     2006.03423         6.22185         6.78198
     2006.03697         3.94291         6.73335
     2006.03970         8.36796         6.80746
     2006.04244         0.27802         6.82599
     2006.04518         0.39008         6.93715
     2006.04791         2.11314         6.83525
     2006.06161         0.47442         7.23358
     2006.06434         8.71848         6.71482
     2006.06708         0.77354         6.42071
     2006.06982        -3.90340         6.41724
     2006.07256        -4.92234         6.46240
     2006.07530       -18.03129         6.52724
     2006.07803        -3.71623         7.11778
     2006.08351        -3.99911         7.21852
     2006.08625       -15.73706         7.32621
     2006.08898        -9.22300         7.81601
     2006.09172         2.20006         7.06336
     2006.09446         7.35512         6.66735
     2006.09720         0.66817         6.65809
     2006.09994        -1.53777         6.55619
     2006.10267        -2.75671         6.51103
     2006.10541        -5.82465         6.54345
     2006.10815         0.45240         6.69861
     2006.11089        -1.13954         6.82946
     2006.11363        -5.56548         6.57008
     2006.11636        -2.95142         6.60251
     2006.11910        -1.67436         6.54808
     2006.12184         7.77269         6.58861
     2006.12458         2.58975         6.58166
     2006.12731        -2.64619         6.59556
     2006.13005         1.10887         6.57587
     2006.13279        -2.86108         6.52145
     2006.13553         2.44798         6.50177
     2006.13827         9.64604         6.57587
     2006.14100         9.40710         6.57587
     2006.14374         7.01915         6.58166
     2006.14648         8.82921         6.51682
     2006.14922         4.84427         6.50408
     2006.15196         4.94733         6.57124
     2006.15469         1.21738         6.59324
     2006.15743        12.62944         6.63030
     2006.16017         0.82750         6.88851
     2006.16291         3.31256         6.73798
     2006.16564        -1.61038         6.48092
     2006.16838         2.65467         6.75767
     2006.17112         6.15473         6.62219
     2006.17386         8.09679         6.51682
     2006.17660         1.57685         6.50871
     2006.17933         9.06590         6.52029
     2006.18207         6.52296         6.54345
     2006.18481         2.31002         6.62798
     2006.66941        -3.29178         7.13399
     2006.67215         1.66028         7.07957
     2006.67488        -0.88166         7.34474
     2006.67762        -0.36660         7.28221
     2006.68036         3.89845         7.13284
     2006.68310         2.41851         7.41653
     2006.68584         0.37457         7.33895
     2006.68857         6.80463         7.09115
     2006.69131         3.82168         6.96841
     2006.69405         5.01874         6.98462
     2006.69679         4.84280         6.94178
     2006.69953         9.96886         6.94988
     2006.70226         7.57691         7.15715
     2006.70500        13.42697         7.01704
     2006.70774         9.34303         6.77735
     2006.71020         6.82929         7.66317
     2007.25805        -0.00538         6.68240
     2007.26079         0.44567         6.67661
     2007.26352         2.01473         6.57472
     2007.26626         2.08379         6.68124
     2007.26900        -0.91315         6.93251
     2007.27174        -3.72710         6.68240
     2007.27447         4.62896         6.67314
     2007.27721        -9.32698         6.76346
     2007.27995         2.56408         6.56545
     2007.28269         5.64314         6.56661
     2007.28543         2.94519         6.61408
     2007.28816         4.77225         6.59093
     2007.29090        -5.78969         6.70093
     2007.29364         6.35537         6.64998
     2007.29638         0.79242         6.66503
     2007.29911         2.11648         6.69398
     2007.30185         1.43754         6.61756
     2007.30459       -18.91440         6.66272
     2007.30733         3.61065         6.66967
     2007.31007        -0.55029         6.70556
     2007.31280         4.99777         6.66967
     2007.31554         0.98283         6.60714
     2007.31828         0.06488         6.58629
     2007.32102         2.46794         6.60135
     2007.32376        -2.11500         6.66272
     2007.32649         1.79506         6.60714
     2007.32923         0.81412         6.59208
     2007.33197        -9.91583         6.84914
     2007.33471        -1.14577         6.81556
     2007.33744       -14.99171         6.65809
     2007.34018        -1.26865         6.61640
     2007.34292        -0.47260         6.60714
     2007.34566        -1.83154         6.61293
     2007.34840        -4.39948         6.62914
     2007.35113        -2.93842         6.63030
     2007.35387         2.00963         7.03673
     2007.35661        -3.68131         7.14905
     2007.35935        -1.23125         6.65114
     2007.36209        -6.51619         6.60945
     2007.36482        -3.46814         6.71367
     2007.36756        -5.88208         6.64072
     2007.37030        -2.89902         6.65809
     2007.37304        -3.70096         6.73798
     2007.37577        -8.92591         6.74840
     2007.37851        -8.44585         6.57356
     2007.38125        -6.56079         6.63840
     2007.38399        -6.96373         6.79588
     2007.38644       -10.63547         7.43042
     2007.90966       -10.92266         6.75072
     2007.91239        -1.07861         6.72525
     2007.91513        -1.30255         6.76230
     2007.91787        -8.16049         6.71482
     2007.92061        -8.89743         6.79125
     2007.92334        -4.00638         7.08305
     2007.92608        -4.21032         6.79472
     2007.92882        -2.65626         6.75188
     2007.93156       -12.16120         6.76693
     2007.93977       -12.25303         7.13631
     2007.94525        -4.53191         6.93946
     2007.94799        -7.65886         6.86188
     2007.95072        -7.80580         6.83756
     2007.95346        -3.33474         6.92557
     2007.95620        -4.57068         6.87578
     2007.95894        -0.61263         6.92325
     2007.96167        -2.67757         6.79241
     2007.96441       -15.41751         6.83409
     2007.97263       -11.03234         6.90704
     2007.97536       -11.96728         7.57401
     2007.98358       -10.10311         6.89893
     2007.98632        -3.72205         6.93367
     2007.99727        -4.32982         6.60714
     2008.00000       -16.69876         6.67430
     2008.00274       -13.56870         6.68356
     2008.00548        -7.04665         6.70672
     2008.00822       -10.67459         6.64651
     2008.01643       -11.89642         7.31347
     2008.03012        -9.20813         6.66967
     2008.03560        -8.86501         6.63261
     2008.04107       -11.99290         6.73335
     2008.04381        -9.65684         6.67198
     2008.04655        -7.56878         6.69514
     2008.04929       -11.68072         6.71135
     2008.05202       -16.12067         6.67082
     2008.05476        -7.68761         6.61408
     2008.05750        -7.59955         6.60829
     2008.06024        -6.96349         6.60019
     2008.06298        -7.54744         6.62682
     2008.06571       -10.21138         6.59672
     2008.06845        -9.25432         6.65924
     2008.07119        -1.31726         6.65114
     2008.07393        -9.84621         6.65809
     2008.07666       -15.56815         6.95567
     2008.07940       -10.60409         7.02283
     2008.08214       -13.14603         6.60135
     2008.08488       -13.24297         6.80977
     2008.08762        -7.79592         6.58166
     2008.09035       -10.55286         6.65809
     2008.09309        -6.41780         6.58282
     2008.09583        -5.43874         6.71251
     2008.09857        -8.81969         6.84567
     2008.10131       -19.07063         7.04831
     2008.10404       -12.67357         6.66851
     2008.10678        -6.20951         6.59903
     2008.10952       -12.93746         6.55966
     2008.11226        -6.30740         6.57935
     2008.11499        -6.68034         6.58745
     2008.11773        -7.69128         6.66967
     2008.12047        -6.54323         6.58514
     2008.12321        -3.60717         6.77040
     2008.12595        -3.45311         6.60366
     2008.12868        -5.24505         6.61640
     2008.13142        -5.58799         6.60714
     2008.13416        -4.20894         6.59324
     2008.13690        -5.93188         6.61061
     2008.13964         0.39318         6.57240
     2008.14237        -3.96376         6.60945
     2008.14511        -4.97071         6.56777
     2008.14785        -8.74965         6.79125
     2008.15059        -9.81959         6.66735
     2008.15332        -8.41753         6.60019
     2008.15606        -4.97848         6.55850
     2008.15880        -4.57242         6.59787
     2008.16154        -7.96336         6.60598
     2008.16428        -7.41630         6.71598
     2008.16701        -6.91625         6.68472
     2008.16975       -13.07519         6.55387
     2008.17249       -14.49313         6.78662
     2008.17523       -10.94007         6.77851
     2009.48666       -10.43946         7.47674
     2010.36277         3.98799         6.51566
     2010.36551        -3.04995         6.69514
     2010.36825        -1.61090         6.67198
     2010.37098        -1.64184         6.52608
     2010.37372         0.06322         6.53766
     2010.37646         7.34228         6.53882
     2010.37920         7.10733         6.85841
     2010.38193        -8.57861         7.05873
     2010.38467        -1.12555         6.73451
     2010.38741         2.24651         6.74609
     2010.39015         4.07856         6.61293
     2010.39289         8.74062         6.57008
     2010.39562        -2.22032         6.64419
     2010.39836        -2.60726         6.58861
     2010.40110        -2.97421         6.62451
     2010.40384        -2.21915         6.43576
     2010.40658         1.14491         6.52029
     2010.40931        -3.37803         6.50292
     2010.41205        -6.87697         6.48903
     2010.41479         0.72208         6.50292
     2010.41753         2.74014         6.51103
     2010.42026         1.85720         6.46240
     2010.42300        -5.47474         6.76114
     2010.42574        -4.05569         6.48324
     2010.42848        -5.73263         6.61756
     2010.43122        -1.92157         6.56661
     2010.43395        -2.19451         6.43345
     2010.43669       -21.37046         6.86304
     2010.43943         7.22760         6.56661
     2010.44217        -3.31034         6.52956
     2010.44491        -2.65628         6.42418
     2010.44764        -3.94923         6.48787
     2010.45038        -1.74517         6.40334
     2010.45312         1.05189         6.50524
     2010.45586        -9.37605         6.65114
     2010.45859        -6.05899         6.58977
     2010.46133        -5.13694         6.54808
     2010.46407        -2.70788         6.43924
     2010.46681        -2.51082         6.51682
     2010.46955        -2.39576         6.48092
     2010.47228        -7.02171         6.43461
     2010.47502        -6.58865         6.43461
     2011.40042        -4.62516         6.70209
     2011.40315         1.58089         6.66967
     2011.40589         2.09995         6.50640
     2011.40863         8.35701         6.57472
     2011.41137        -1.41293         6.61756
     2011.41410        -5.18588         6.64072
     2011.41684         1.82418         6.48440
     2011.41958         1.81324         6.53187
     2011.42232        -6.26470         6.48208
     2011.42506         4.37635         6.53303
     2011.42779         3.31641         6.54345
     2011.43053        -5.17653         6.52608
     2011.43327        -4.67047         6.61408
     2011.43601       -10.18042         6.56777
     2011.43875        -3.32936         6.51219
     2011.44148         2.08970         6.55503
     2011.44422        -0.14324         6.58050
     2011.44696        -4.12218         6.70556
     2011.44970        -3.24913         6.64651
     2011.45243         1.04893         6.55156
