# ================= DQRFIT RESULTS ================
# INPUT FILE: series/FLAN.rad
# OUTPUT: LDETRENDED
# FILTER FUNCTION: f(t)
# f(t)=+line(t)+annual(t)
# line(t)=+P 1+P 2*t
# annual(t)=+P 3*sin(2*pi*t+P 4)
# heav(t)=(t<0?0:1)
# TOTAL OBSERVATIONS MTOT=  791
# INITIAL TIME INTERVAL= 2019.5045 - 2005.2704 = 14.2341
# TOTAL OBSERVATIONS AFTER PREFILTER M=  791
# TIME-SPAN= 2019.5045 - 2005.2704 = 14.2341
# OBSERVATIONS: USED M=   791 REJECTED MTOT-M=     0 %USED=  100.0000
# N=  4 PARAMETERS
# MAXSIG= 175.00000
# MAXRES=  26.81713
# SCALE FACTOR FOR LENGTHS: SCL=  10.00000
# SCALE FACTOR FOR SIGMAS: SCLSIG=   1.00000
# CHI^2=    916.170 DOF=   787 CHI^2/DOF=   1.16413
# RMS=      6.272 SDEV=      6.276 MEAN=    0.07283
#  P #       PARAMETER +-    SIGMA %error PARAMETER NAME
# P 1 =       850.12210 +-  112.829  13.27 YZERO                              
# P 2 =        -0.42046 +-    0.056  13.35 SLOPE                              
# P 3 =         4.90961 +-    0.340   6.93 ANNUAL AMPLITUDE                   
# P 4 =         2.86641 +-    0.094   3.27 ANNUAL PHASE                       
#       T            LDETRENDED       SIG_OBS
     2005.27037         7.46795         6.41219
     2005.27311         4.34510         6.43161
     2005.27584         4.31625         6.33774
     2005.27858         7.16641         6.36795
     2005.28132         4.13756         6.41974
     2005.28406         3.19571         6.45319
     2005.28679         3.58786         6.39493
     2005.28953         7.68801         6.25359
     2005.29227         7.40016         6.39924
     2005.29501         8.51231         6.26114
     2005.29775        10.73446         6.22014
     2005.30048         9.49162         6.18130
     2005.30322         2.98577         6.20935
     2005.30596         0.18192         6.26222
     2005.30870         1.98007         6.26977
     2005.31144         3.23522         6.27624
     2005.31417         1.90437         6.22985
     2005.31691        -0.63348         6.20827
     2005.31965         4.55967         6.32695
     2005.32239         4.10082         6.40248
     2005.32512         0.37098         6.28595
     2005.32786         0.47213         6.31401
     2005.33060         7.17428         6.21582
     2005.33334         6.54643         6.19856
     2005.33608         6.53958         6.38845
     2005.33881         9.63973         6.43809
     2005.34155         5.46788         6.25898
     2005.34429        10.00103         6.25251
     2005.34703         5.75118         6.20287
     2005.34977         4.01434         6.23956
     2005.35250         1.48149         6.54598
     2005.35524         3.57264         6.43485
     2005.35798         2.25879         6.47261
     2005.36072        -3.87406         6.44456
     2005.36345         0.31209         6.51145
     2005.36619         0.88524         6.53627
     2005.36893         1.91139         6.57727
     2005.37167         5.80554         6.51685
     2005.37441         6.87670         6.44348
     2005.37714         2.82285         6.62474
     2005.37988        17.52900         6.76716
     2005.38262        -2.31185         6.75314
     2005.38536        -1.43970         6.40572
     2005.38810         0.49345         6.42730
     2005.39083        -2.15540         6.43161
     2005.39357        -5.26225         6.38953
     2005.39631        -4.91909         6.39061
     2005.39905        -4.50594         6.36364
     2005.40178        -0.81079         6.48772
     2005.40452         1.12636         6.61395
     2005.40726         3.46951         6.57835
     2005.41000        -1.11834         6.37982
     2005.41274        -0.50519         6.45319
     2005.41547         3.95896         6.40140
     2005.41821        -3.44989         6.27732
     2005.42095        -0.91473         6.19964
     2005.42369         0.71442         6.24711
     2005.42643         4.86757         6.58266
     2005.42916         1.48472         6.29135
     2005.43190         0.79587         6.28056
     2005.64819         1.43081         6.25898
     2005.65093         5.04296         6.30645
     2005.65367         4.82011         6.33990
     2005.65640        -3.43674         6.36148
     2005.65914         0.59741         6.30430
     2005.66188         4.00557         6.23848
     2005.66462         0.46972         6.13598
     2005.66736         3.99587         6.16619
     2005.67009         2.93602         6.24603
     2005.67283         7.47717         6.24819
     2005.67557         3.08032         6.35393
     2005.67831         3.51347         6.18022
     2005.68105        -1.05938         6.17374
     2005.68378         3.99278         6.22122
     2005.68652         3.95793         6.33666
     2005.68926         1.85908         6.34314
     2005.69200         4.37623         6.41111
     2005.69473         2.93138         6.28380
     2005.69747         0.32453         6.23201
     2005.70021         4.61068         6.56216
     2005.70295         5.19983         6.47153
     2005.70569         0.41498         6.58914
     2005.70842         3.87414         6.47585
     2005.71116         6.67629         6.25790
     2005.71390         1.64644         6.12627
     2005.71664         0.92359         6.48664
     2005.71938         0.67674         6.27301
     2005.72211         1.76989         6.43161
     2005.72485        -0.81896         6.22337
     2005.72759         0.47119         6.26437
     2005.73033         0.98934         6.40140
     2005.73306         3.25850         6.38522
     2005.73580         4.79865         6.32264
     2005.73854         4.19580         6.44348
     2005.74128         3.84395         6.31616
     2005.74402         3.81510         6.37659
     2005.74675         5.22525         6.22985
     2005.74949         5.54540         6.32695
     2005.75223         2.53655         6.44780
     2005.75497         4.19570         6.29135
     2005.75770         5.52186         6.32587
     2005.76044        -1.54699         6.23093
     2005.76318         6.88016         6.20072
     2005.76592        13.06031         6.26545
     2005.76866         8.44146         6.25143
     2005.77139         8.24761         6.23632
     2005.77413         6.63276         6.21043
     2005.77687         7.85691         6.32048
     2005.77961         6.08607         6.35501
     2005.78235         3.58022         6.36903
     2005.78508        10.09437         6.25682
     2005.78782        13.93352         6.48556
     2005.79056         6.59167         6.18130
     2005.79330        13.25582         6.21906
     2005.79603         8.52297         6.39061
     2005.79877        10.33712         6.50822
     2005.80151         6.45227         6.38737
     2005.80425        13.41443         6.22337
     2005.80699         6.04658         6.20503
     2005.80972        11.32073         6.18993
     2005.81246         8.17488         6.25574
     2005.81520         7.21003         6.30322
     2005.81794         9.86918         6.63661
     2005.82068         5.92933         6.22445
     2005.82341         7.24948         6.19316
     2005.82615         7.62963         6.32048
     2005.82889         6.79379         6.24064
     2005.83163         1.33094         6.43916
     2005.83436         3.94109         6.43916
     2005.83710        -4.38276         6.52980
     2005.83984         5.00639         6.51685
     2005.84258         8.19754         6.57187
     2005.84532         4.22069         6.61072
     2005.84805        -4.37016         6.98188
     2005.85079        -3.20001         6.55245
     2005.85353         1.93615         6.47153
     2005.85627        -2.20870         6.51037
     2005.85873         6.78633         7.16314
     2005.97400        -1.77320         6.35501
     2005.97673        -6.02005         6.45211
     2005.97947        -8.57190         6.30322
     2005.98221        -0.22475         6.38630
     2005.98495        -0.92560         6.34637
     2005.98768        -7.42645         6.36040
     2005.99042         0.00870         6.52764
     2005.99316        -7.80915         6.33882
     2005.99555        -7.40214         7.29909
     2006.10815       -16.47380         6.26977
     2006.11089       -16.69065         6.37874
     2006.11363       -20.30750         6.20719
     2006.11636       -15.92434         6.13706
     2006.11910       -15.74119         6.13922
     2006.12184        -8.98004         6.24387
     2006.12458       -13.01189         6.15648
     2006.12731       -20.01874         6.15756
     2006.13005       -13.37559         6.16835
     2006.13279       -13.20144         6.12087
     2006.13553        -7.05829         6.12627
     2006.13827        -7.40214         6.13706
     2006.14100        -9.26198         6.17698
     2006.14374        -6.80683         6.12735
     2006.14648        -8.35368         6.14893
     2006.14922       -13.07553         6.15216
     2006.15196       -14.58838         6.18345
     2006.15452       -12.82430         6.82651
     2006.20671        -8.77036         6.37443
     2006.20945        -6.71921         6.24064
     2006.21219        -7.30105         6.41327
     2006.21493        -5.06890         6.22445
     2006.21766        -3.22675         6.27193
     2006.22040       -10.53460         6.25143
     2006.22314       -12.67145         6.34422
     2006.22588         2.06570         6.45535
     2006.22862        22.31285         6.76609
     2006.23135        -7.46400         6.32803
     2006.23409        -3.82385         6.31185
     2006.23683        -0.82469         6.32372
     2006.23957        -2.00654         6.14030
     2006.24230        -3.84839         6.09930
     2006.24504         3.07176         6.09714
     2006.24778         0.60991         6.16619
     2006.25052        -6.53294         6.16511
     2006.25326        -4.14279         6.22014
     2006.25599        -8.86264         6.26977
     2006.25873        -3.11848         6.18777
     2006.26147        -1.26833         6.30106
     2006.26421        -4.87718         6.47261
     2006.26695        -6.83703         6.40572
     2006.26968        -7.24488         6.23524
     2006.27242        -4.33973         6.15972
     2006.27516         1.36942         6.33774
     2006.27790       -10.09443         6.43161
     2006.28063        -5.52128         6.22661
     2006.28337         2.31188         6.21259
     2006.28611        -7.74797         6.42945
     2006.28885         8.38318         6.20611
     2006.29159       -13.85167         6.34314
     2006.29432        -5.36752         6.19101
     2006.29706        -6.12637         6.15972
     2006.29980        -4.16222         6.29027
     2006.30254        -6.59407         6.23524
     2006.30528       -11.16792         6.21582
     2006.30801        -3.91376         6.13382
     2006.31075        -4.33361         6.26869
     2006.31349        -8.41746         6.31185
     2006.31623        -3.31631         6.21690
     2006.32170        -4.47901         6.17806
     2006.32444        -5.03786         6.17806
     2006.32718        -9.17571         6.26869
     2006.32992        -5.13756         6.34422
     2006.33265        -6.99840         6.20072
     2006.33539        -3.55025         6.09174
     2006.33813        -6.55110         6.15108
     2006.34087        -7.97195         6.21043
     2006.34361        -5.67480         6.29135
     2006.34634        -4.14965         6.26977
     2006.34908       -10.66650         6.26977
     2006.35182        -8.80035         6.29135
     2006.35456       -12.23519         6.22122
     2006.35729       -10.49804         6.27085
     2006.36003        -7.34489         6.17806
     2006.36277       -12.09074         6.22230
     2006.36551       -11.58859         6.23093
     2006.36825       -12.74944         6.22122
     2006.37098       -12.07129         6.35716
     2006.37372        -8.43014         6.51577
     2006.37646        -1.47599         6.27085
     2006.37920        -4.40583         6.44780
     2006.38193         4.59532         6.57943
     2006.38467         4.03347         6.34314
     2006.38741        -5.91438         6.42298
     2006.39015        -7.56423         6.38737
     2006.39289        -7.24508         6.40248
     2006.39562        -5.11293         6.53951
     2006.39836        -1.70678         6.56540
     2006.40110         8.69037         6.59453
     2006.40384        -3.62747         6.36472
     2006.40658        -8.24732         6.36795
     2006.40931        -9.09917         6.34422
     2006.41205        -6.78802         6.39061
     2006.41479        -5.91587         6.43161
     2006.41753       -11.43672         6.53195
     2006.42026        -9.75657         6.62906
     2006.42300        -4.35942         6.60964
     2006.42574        -3.77827         6.60748
     2006.42848        -6.14811         6.69703
     2006.43122        -1.03896         6.60964
     2006.43395        -4.36781         6.44024
     2006.43669        -5.68866         6.40572
     2006.43943        -2.66151         6.32911
     2006.44217         1.65564         6.37551
     2006.44491         2.13579         6.35501
     2006.87749         5.21867         6.29998
     2006.88022        -3.47218         6.33019
     2006.88296        -2.57302         6.25143
     2006.88570        -1.43587         6.38630
     2006.88844        15.57728         6.40140
     2006.89118        -0.27757         6.43377
     2006.89391         3.00958         6.50930
     2006.89665         1.07473         6.40032
     2006.89939         3.70688         6.24711
     2006.90213         3.67803         6.31293
     2006.90486         4.40319         6.37659
     2006.90760        16.10234         6.26114
     2006.91034         3.16249         6.26869
     2006.91308         3.16664         6.31293
     2006.91582         1.63479         6.30214
     2006.91855        -0.62006         6.28056
     2006.92129         1.22409         6.23093
     2006.92403        -2.30776         6.30969
     2006.92677         0.77939         6.36903
     2006.92951         0.46855         6.46506
     2006.93224         2.35770         6.50714
     2006.93498         4.66685         6.47801
     2006.93772         9.19100         6.71430
     2006.94046        17.39015         6.46506
     2006.94319         4.03830         6.38522
     2006.94593         8.26745         6.46182
     2006.94867         8.04460         6.30969
     2006.95141         3.23975         7.50840
     2006.96236         3.66336         6.81356
     2006.96510         0.64551         6.78335
     2006.97056         1.11981         6.39709
     2006.97605         0.70511         6.90851
     2006.99795         0.90232         7.20953
     2007.00343         3.58963         7.16206
     2007.01438        -1.48977         6.95274
     2007.01985        -7.62347         6.84485
     2007.02259        -0.87732         6.61287
     2007.02533         3.05484         6.77148
     2007.03354        -2.74271         6.29351
     2007.03628        -1.88256         6.10469
     2007.03902        -7.21241         6.05830
     2007.04176        -3.13326         6.12735
     2007.04449        -3.82811         6.40032
     2007.04723        -8.19596         6.23201
     2007.04997        -5.59480         6.40248
     2007.05271         1.19635         6.73588
     2007.05545        -1.52450         6.37119
     2007.05818        -5.14835         6.04858
     2007.06092        -4.09520         6.05074
     2007.52909        -4.16135         6.30430
     2007.53183        -6.91020         6.38414
     2007.53457         8.21795         6.25466
     2007.53731         4.10610         6.22553
     2007.54005        -6.79075         6.34206
     2007.54278         3.62840         6.39277
     2007.54552        -3.51945         6.61611
     2007.54826        -0.36230         6.18777
     2007.55100        -8.24615         6.38737
     2007.55374        -1.56799         6.20395
     2007.55647         1.71116         6.27624
     2007.55921        10.54931         6.33343
     2007.56195        -5.98654         6.25682
     2007.56469         3.94161         6.30645
     2007.56742        -4.03624         6.18885
     2007.57016        -0.84709         6.18453
     2007.57290        -6.78294         6.24387
     2007.57564        -2.20478         6.25035
     2007.57838        -5.54163         6.19424
     2007.58111        -0.46548         6.22445
     2007.58385         2.96867         6.18453
     2007.58659        -3.19918         6.10361
     2007.58933         9.21897         6.42622
     2007.59206         2.30012         6.25466
     2007.59480        13.13627         6.38630
     2007.59754        -1.73958         6.29674
     2007.60028        -2.57142         6.17698
     2007.60302         5.65373         6.13814
     2007.60575        -1.02012         6.29674
     2007.60849        -3.56097         6.18022
     2007.61123        17.08618         6.19424
     2007.61397        -4.72067         6.12303
     2008.17797        -7.06453         6.10577
     2008.18070       -11.87638         6.12087
     2008.18344       -10.36823         6.20827
     2008.18618        -8.70908         6.14030
     2008.18892       -11.28993         6.16943
     2008.19165       -11.20878         6.23416
     2008.19439       -12.17963         6.14137
     2008.19713        -4.83048         6.34422
     2008.19987        -6.77332         6.49419
     2008.20261        -6.75317         6.17590
     2008.20534        -6.87702         6.21043
     2008.20808        -5.56487         6.37119
     2008.21082       -10.37972         6.34637
     2008.21356        -9.10157         6.47045
     2008.21629        -6.25842         6.29998
     2008.21903        -9.82027         6.26977
     2008.22177       -11.41312         6.26437
     2008.22451        -7.84096         7.23866
     2008.22725        -9.37981         6.79630
     2008.22998        -0.82666         6.61935
     2008.23272        -5.69251         6.81788
     2008.23546        -0.59336         7.34764
     2008.23820       -10.97321         6.35069
     2008.24094         1.85394         6.63230
     2008.24367        -3.43391         6.71861
     2008.24641       -10.16475         6.35501
     2008.24915        -4.45260         6.24819
     2008.25189        -5.02945         6.28380
     2008.25462        -5.70430         6.35609
     2008.25736        -4.73115         6.92253
     2008.26010        -0.66000         6.26114
     2008.26284        -1.21085         6.26006
     2008.26558        -6.60770         6.77148
     2008.26831        -5.80355         6.19640
     2008.27105        -0.08539         6.41327
     2008.27379       -10.45124         6.72832
     2008.27653        -8.07609         6.20180
     2008.27927        -9.80794         6.29674
     2008.28200        -8.06979         6.52548
     2008.28474        -6.75464         6.64956
     2008.28748         6.90751         6.43916
     2008.29022        -2.02834         6.41866
     2008.29295        -2.06919         6.46506
     2008.29569        -0.65303         6.64956
     2008.29843        -3.50388         6.72185
     2008.30117        -6.39973         6.35393
     2008.30391        -2.47358         6.74666
     2008.30664        -5.29843         6.24603
     2008.30938        -5.81828         6.54922
     2008.31212        -7.43313         6.85348
     2008.31484        -7.09498         6.41543
     2008.31760        -7.16283         6.34530
     2008.32033        -7.56567         6.33882
     2008.32307       -13.29252         6.69703
     2008.32581        -7.38337         6.78227
     2008.32855        -3.19822         7.30664
     2008.33128       -13.08907         6.36256
     2008.33402       -10.62092         6.17806
     2008.33676        -9.52477         6.25574
