# ================= DQRFIT RESULTS ================
# INPUT FILE: series/FLEM.rad
# OUTPUT: LDETRENDED
# FILTER FUNCTION: f(t)
# f(t)=+line(t)
# line(t)=+P 1+P 2*t
# heav(t)=(t<0?0:1)
# TOTAL OBSERVATIONS MTOT=  630
# INITIAL TIME INTERVAL= 2018.6252 - 2005.9767 = 12.6485
# TOTAL OBSERVATIONS AFTER PREFILTER M=  630
# TIME-SPAN=    0.0000 -    0.0000 =  0.0000
# OBSERVATIONS: USED M=   630 REJECTED MTOT-M=     0 %USED=  100.0000
# N=  2 PARAMETERS
# MAXSIG= 175.00000
# MAXRES=  18.62303
# SCALE FACTOR FOR LENGTHS: SCL=  10.00000
# SCALE FACTOR FOR SIGMAS: SCLSIG=   1.00000
# CHI^2=    650.827 DOF=   628 CHI^2/DOF=   1.03635
# RMS=      5.834 SDEV=      5.839 MEAN=    0.04048
#  P #       PARAMETER +-    SIGMA %error PARAMETER NAME
# P 1 =     -2273.22197 +-  111.725   4.91 YZERO                              
# P 2 =         1.13091 +-    0.056   4.91 SLOPE                              
#       T            LDETRENDED       SIG_OBS
     2005.97673       -19.80654         6.02867
     2005.97947       -19.32264         5.90854
     2005.98221       -15.26173         6.06634
     2005.98495        -5.69783         5.94010
     2005.98768        -0.52892         5.92178
     2005.99042       -14.64502         6.00118
     2005.99316        -7.96012         5.98082
     2005.99590        -1.60621         5.99508
     2005.99864        18.15569         6.44198
     2006.01233        -2.34879         5.91465
     2006.01506        -7.59589         5.93501
     2006.01780        -1.42398         7.28592
     2006.02054         1.25692         7.31035
     2006.02328        -1.19318         6.06226
     2006.02601         0.09373         6.03376
     2006.02875         1.65963         7.39688
     2006.03149         7.48454         6.84919
     2006.03651        -1.25114         7.59539
     2006.04244         4.20215         5.94723
     2006.04518         2.60205         7.26454
     2006.05339        -0.75423         5.88920
     2006.05613         0.72567         5.72530
     2006.05887         0.71157         5.72428
     2006.06161         0.12848         5.73345
     2006.06434         8.35338         5.84746
     2006.06708         2.11528         5.62859
     2006.06982         0.57919         5.65201
     2006.07256        -3.47091         5.63572
     2006.07530        -2.97100         5.68356
     2006.07803        -7.06210         5.74363
     2006.08077        -6.63720         5.75381
     2006.08351       -11.54929         6.15796
     2006.09172        -2.37158         5.71410
     2006.09446        -3.17268         5.85764
     2006.09720        -3.23777         5.76806
     2006.09994        -2.86887         5.69476
     2006.10267        -5.00597         5.69680
     2006.10514        -4.83975         6.38090
     2006.10815         0.18584         5.82303
     2006.11089        -0.61726         5.95639
     2006.11363        -5.81635         5.77111
     2006.11636        -7.55645         5.77213
     2006.11910        -2.48854         5.72836
     2006.12184         2.96136         5.81998
     2006.12458         2.01926         5.72428
     2006.12731        -2.29183         5.74566
     2006.13005         2.78807         5.73854
     2006.13279         2.97997         5.74872
     2006.13553         6.21188         5.75890
     2006.13827        10.38678         5.73955
     2006.14100         5.90169         5.74566
     2006.14374         5.15259         5.72327
     2006.14648         8.28149         5.73141
     2006.14922         3.18840         5.75686
     2006.15196         2.04630         5.76500
     2006.15469        -3.09780         5.77009
     2006.15743       -11.45489         5.88208
     2006.16017         5.27001         5.84441
     2006.16291         1.25292         5.96555
     2006.16564        -2.58118         5.80369
     2006.16838        -1.63528         5.94723
     2006.17112         2.10863         5.73548
     2006.17386         3.27753         5.77315
     2006.17660        -1.56457         5.74770
     2006.17933         5.59234         5.76500
     2006.18207         1.53724         5.75788
     2006.18481         2.00315         5.76297
     2006.18755         7.30805         5.76195
     2006.19029         7.73695         5.83016
     2006.19302         8.80486         5.84848
     2006.19576        -2.95624         5.97981
     2006.19850         0.81566         6.00424
     2006.20124         6.63157         5.93603
     2006.20397        -5.00453         6.09280
     2006.20671        -6.96762         6.00220
     2006.20945        -4.55872         5.84136
     2006.21219        -1.52182         5.91058
     2006.21493        -4.99591         5.88411
     2006.21766         0.52399         5.97675
     2006.22040        -3.61511         5.90854
     2006.22314        -2.93520         5.94723
     2006.22588        -4.05030         6.16916
     2006.22862        -1.65739         6.12742
     2006.23135        -9.44549         5.98591
     2006.23409         5.53941         5.95843
     2006.23683         2.01732         5.83525
     2006.23957         1.41822         5.75177
     2006.24230        -0.00188         5.76399
     2006.24504         2.67703         5.81692
     2006.24778        -0.39907         5.76806
     2006.25052        -0.63016         5.76500
     2006.25326         0.39874         5.73752
     2006.25599        -1.27436         5.80267
     2006.25873        -1.99445         5.83423
     2006.26147         2.21445         5.94519
     2006.26421         1.42035         6.03376
     2006.26695         4.71726         5.92483
     2006.26968         1.99316         5.81692
     2006.27242         0.73307         5.77315
     2006.27516         4.44997         5.99915
     2006.27790       -10.16013         6.07448
     2006.28063         1.39178         5.80369
     2006.28337         6.18068         5.80471
     2006.28611         5.70258         5.92789
     2006.28885        -8.59451         5.84543
     2006.29159        -3.54861         5.97064
     2006.29432         0.94730         5.80165
     2006.29706         2.93120         5.74057
     2006.29980         6.81810         5.87495
     2006.30254        -0.65799         5.80369
     2006.30528        -5.47809         5.82303
     2006.30801         3.99781         5.77518
     2006.31075         0.64572         5.79147
     2006.31349         3.26562         5.96759
     2006.31623         0.22153         5.83728
     2006.32170        -5.79667         5.84950
     2006.32444         1.94524         5.80878
     2006.32718         2.06514         5.89124
     2006.32992         1.27704         5.84034
     2006.76523        -5.03326         6.05107
     2006.76797        -1.53536         6.03274
     2006.77071         0.14555         5.97064
     2006.77345         1.04045         5.93094
     2006.77619         1.04936         5.86070
     2006.77892         2.85126         5.87902
     2006.78166         4.65116         5.84034
     2006.78440         4.30807         5.86884
     2006.78714         7.41297         5.99915
     2006.78987         1.57987         6.01747
     2006.79261        10.01878         5.94926
     2006.79535        -2.13232         5.91669
     2006.79809         2.41459         5.96861
     2006.80083         2.24749         6.13251
     2006.80356         1.97739         5.86070
     2006.80630         0.09530         5.92992
     2006.80904         4.09120         5.88717
     2006.81178         9.67410         5.91058
     2006.81452        -2.75999         6.15796
     2006.81725         1.95391         6.05514
     2006.81999         0.82582         5.85663
     2006.82273         0.24172         5.87597
     2006.82547         6.61462         5.86273
     2006.82820         2.19153         5.83219
     2006.83094         5.14343         5.92178
     2006.83368         1.95133         5.95944
     2006.83642        -0.79376         5.97981
     2006.83916        -8.29386         5.93705
     2006.84189        -6.15595         6.01951
     2006.84463        -7.78705         6.02358
     2006.84737        -5.36315         5.98591
     2006.85011        -3.48624         6.08568
     2006.85285        -7.33834         6.43587
     2006.85558         1.54756         6.18443
     2006.85832         4.48147         6.03681
     2006.86106        -2.20563         6.25060
     2006.86380        -2.75072         6.22006
     2006.86653        -6.52782         6.23024
     2006.86927        -1.34092         5.96454
     2006.87201         3.78899         5.81285
     2006.87475         1.76289         5.93705
     2006.87749         7.46179         5.93807
     2006.88022         5.14770         5.79860
     2006.88296        -1.08540         5.83219
     2006.88570        -4.64249         5.89938
     2006.88844        -0.95959         6.12945
     2006.89118        11.05031         6.06939
     2006.89391       -14.38878         6.02154
     2006.89665         1.15912         5.89327
     2006.89939         4.00102         5.78027
     2006.90213         5.66093         5.87597
     2006.90486         4.78183         5.93603
     2006.90760         4.11374         5.83830
     2006.91034         0.89064         5.80267
     2006.91308         4.48954         5.85154
     2006.91582         1.19745         5.80980
     2006.91855        -0.52665         5.90549
     2006.92129         1.60425         5.86884
     2006.92403        -1.51784         5.91872
     2006.92677         0.61006         5.86579
     2007.48529        -1.34458         5.83728
     2008.17797        -2.27293         5.76704
     2008.18070        -4.79902         5.72836
     2008.18344        -4.64312         5.85764
     2008.18618        -2.22021         5.74566
     2008.18892        -5.92031         6.05107
     2009.56332        -0.55963         6.02562
     2009.56606         0.76227         5.91058
     2009.56879         0.43318         5.79758
     2009.57153        -2.04592         5.79249
     2009.57427        -0.36201         6.06837
     2009.57701         2.15089         5.96046
     2009.57974         3.82679         5.89531
     2009.58248        -1.40430         5.87800
     2009.58522        -3.35640         6.01340
     2009.58796         6.98550         6.00627
     2009.59070        -1.66259         5.91465
     2009.59343        -1.70369         6.12131
     2009.59617        13.47522         5.90753
     2009.59891        11.31712         5.78842
     2009.60165        -0.06698         5.81285
     2009.60439         0.88293         5.80064
     2009.60712         4.11483         5.84543
     2009.60986         9.68073         5.77009
     2009.61260         3.22564         5.78638
     2009.61534         1.60954         5.85459
     2009.61807        10.15045         5.97064
     2009.62081         8.07335         5.89226
     2009.62355         0.46225         5.80165
     2009.62629         5.80716         5.78435
     2009.62903         5.42606         5.77518
     2009.63176         0.83796         5.81794
     2009.63450         0.68487         5.78740
     2009.63724         2.17677         5.92381
     2009.63998         5.03668         5.87902
     2009.64272        -0.44042         5.90956
     2009.64545         6.03048         5.85968
     2009.64819         3.11639         6.03580
     2009.65093         2.25929         5.83219
     2009.65367        -0.10681         5.83932
     2009.65640        -2.45090         5.71105
     2009.65914        -2.19800         5.86884
     2009.66188         4.07091         5.80064
     2009.66462        -1.08919         5.86273
     2009.66703         9.48708         6.71583
     2010.32992        -5.21458         5.80674
     2010.33265        -0.65668         5.74464
     2010.33539         0.28523         5.85459
     2010.33813        -3.85087         5.89735
     2010.34087        -0.64997         5.69883
     2010.34361        -3.38406         5.66728
     2010.34634        -1.33816         5.73854
     2010.34908         0.33475         5.66524
     2010.35182         1.85865         5.68967
     2010.35456        -0.62845         5.72428
     2010.35729       -10.62654         5.75279
     2010.36003        -5.74364         5.80776
     2011.85764        -1.50229         5.77722
     2011.86037         3.00861         5.74261
     2011.86311         8.10452         5.74770
     2011.86585         6.34242         5.73650
     2011.86859         6.13633         5.66931
     2011.87133         1.59523         5.76908
     2011.87406        -4.81787         5.76500
     2011.87680        -3.96196         5.78129
     2011.87954        -4.84006         5.79249
     2011.88228         2.32884         5.75075
     2011.88502        -1.11825         5.68255
     2012.03560         2.46245         5.63368
     2012.03833        -2.01664         5.75584
     2012.04107         4.54026         5.61841
     2012.04381         3.00117         5.63164
     2012.04655         8.67507         5.69680
     2012.04929         5.08497         5.72021
     2012.05202         3.13588         5.73039
     2012.05476        -9.34322         5.73243
     2012.05750         3.57768         5.64793
     2012.06024       -10.62141         5.91567
     2012.06298         0.06249         5.83830
     2012.07393         1.57811         6.44707
     2012.09035        -1.59447         6.40432
     2012.09309         0.56843         6.42162
     2012.09583         0.31934         6.61403
     2012.09857         2.56824         6.83188
     2012.10678        -4.52405         7.65851
     2013.08419        -0.55341         5.60110
     2013.08693        -2.57551         5.60009
     2013.08967        -4.24060         5.61637
     2013.09241        -2.17170         5.58991
     2013.09515         2.64620         5.57769
     2013.09788         3.15811         5.81387
     2013.10062        -0.94099         6.06430
     2013.10336        -5.09808         5.67949
     2013.10610        -1.76818         5.59398
     2013.10883         1.30572         5.56649
     2013.11157        -7.52937         5.73955
     2013.11431        -2.73147         5.58991
     2013.11705        -7.09557         5.70596
     2013.11979        -2.72766         5.79962
     2013.12252        -8.01376         5.62859
     2013.12526        -7.84685         5.60009
     2013.12800        -4.07295         5.63063
     2013.13074         1.26195         5.64488
     2013.13347        -0.81514         5.59805
     2013.13621         2.02476         5.63470
     2013.13895         1.42366         5.62554
     2013.14169         0.77157         5.67847
     2013.14443        -1.49753         5.86273
     2013.14716        -4.78362         5.90753
     2013.14990        -6.21772         5.58482
     2013.15264        -1.27082         5.66117
     2013.15538       -11.31791         5.63063
     2013.15812        -4.16001         5.64488
     2013.16085        -7.44711         5.66524
     2013.16359       -10.75620         5.62350
     2013.16633        -4.51530         5.62655
     2013.16907        -3.09139         5.66320
     2013.17180         1.43351         5.67746
     2013.17454        -7.19659         5.65913
     2013.17728         4.23432         5.86884
     2013.18002        -6.60178         5.75584
     2013.18276        -1.08988         5.61128
     2013.18549        -2.44497         5.65811
     2013.18823        -6.63307         5.66015
     2013.19097        -4.13016         5.63470
     2013.19371        -5.16626         5.60314
     2013.19645        -8.57736         5.65608
     2013.19918        -4.56645         5.69782
     2013.20192        -1.55055         5.65099
     2013.20466         0.70635         5.64488
     2013.20740        -7.50974         5.69578
     2013.21013        -1.85484         5.61536
     2013.21287        -8.22193         5.63877
     2013.21561       -12.04403         5.68662
     2013.21835        -3.66013         5.64183
     2013.22109        -3.07522         5.60212
     2013.22382        -1.39432         5.62961
     2013.22656        -5.89042         5.64590
     2013.22930        -6.16651         5.61128
     2013.23204        -2.51461         5.59907
     2013.23478        -3.86470         5.59703
     2013.23751        -7.65780         5.78842
     2013.24025        -6.32990         5.77213
     2013.24299        -4.14299         5.74872
     2013.24573         0.39791         5.76297
     2013.24846         1.99781         5.74261
     2013.25120        -0.74328         5.72836
     2013.25394        -5.98338         5.80064
     2013.25668        -1.17847         5.97064
     2013.25942        -2.38057         5.84543
     2013.26215         0.86733         5.72021
     2013.26489        -5.78176         5.82507
     2013.26763        -0.71286         5.76093
     2013.27037       -10.67196         5.78027
     2013.27311        -7.19305         5.89226
     2013.27584         4.99885         5.92076
     2013.27858         1.89976         5.84950
     2013.28132         1.60466         5.75890
     2013.28406         2.74556         5.68865
     2013.28679         4.02247         5.76399
     2013.28953        -3.61563         5.73141
     2013.29227        -5.25173         5.69680
     2013.29501        -3.76582         5.72530
     2013.29775        -6.88992         5.72632
     2013.30048        -9.93401         5.73854
     2013.30322        -8.38611         5.71614
     2013.30596        -2.33021         5.75381
     2013.30870        -9.15030         5.78740
     2013.31144        -6.00640         5.73955
     2013.31417        -1.10450         5.69985
     2013.31691        -4.47659         5.71919
     2013.31965        -8.00369         5.68967
     2013.32239       -11.47778         5.77518
     2013.32512        -5.07388         5.70596
     2013.32786        -4.10998         5.77518
     2013.33060        -7.81407         5.70698
     2013.33334       -10.58817         5.68255
     2013.33608       -10.26627         5.69883
     2013.33881        -6.17136         5.71512
     2013.34155         1.64954         5.73650
     2013.34429        -8.32355         5.78333
     2013.34703        -1.92965         5.68560
     2013.34977       -10.85575         5.67949
     2013.35250       -10.42484         5.70901
     2013.35524        -4.90194         5.98490
     2013.35798        -7.57704         5.72836
     2013.36072        -3.84613         5.72327
     2013.36345        -5.93123         5.72021
     2013.36619       -10.23432         5.71512
     2013.36893        -7.99542         5.83423
     2013.37167        -7.41952         5.74464
     2013.37441        -8.19461         5.70189
     2013.37714       -10.17671         5.74566
     2013.37988        -4.77081         5.74566
     2013.38238        -8.99963         6.35647
     2014.71048         2.76642         6.02969
     2014.71321        10.75732         5.97777
     2014.71595         6.79922         5.91771
     2014.71869         7.72713         5.79554
     2014.72143         3.90603         5.80064
     2014.72417         5.43293         5.80064
     2014.72690        13.73584         5.88004
     2014.72964         1.57074         5.95028
     2014.73238        -9.60735         6.09891
     2014.73512         2.93055         5.90447
     2014.73786         3.69145         5.87495
     2014.74059         1.38936         5.85561
     2014.74333         5.61926         5.92483
     2014.74607         6.03816         5.96454
     2014.74881         5.70807         5.85154
     2014.75154         3.98497         5.94825
     2014.75428         4.89588         5.80573
     2014.75702         1.32278         5.79249
     2014.75976         5.27468         5.79249
     2014.76250         4.63759         5.80573
     2014.76523         2.93649         5.76399
     2014.76797         6.65539         5.80165
