# ================= DQRFIT RESULTS ================
# INPUT FILE: series/FND2.rad
# OUTPUT: LDETRENDED
# FILTER FUNCTION: f(t)
# f(t)=+line(t)
# line(t)=+P 1+P 2*t
# heav(t)=(t<0?0:1)
# TOTAL OBSERVATIONS MTOT=  208
# INITIAL TIME INTERVAL= 2010.9979 - 2010.3765 =  0.6215
# TOTAL OBSERVATIONS AFTER PREFILTER M=  205
# TIME-SPAN= 2010.9979 - 2010.3765 =  0.6215
# OBSERVATIONS: USED M=   205 REJECTED MTOT-M=     3 %USED=   98.5577
# N=  2 PARAMETERS
# MAXSIG= 175.00000
# MAXRES=  29.13292
# SCALE FACTOR FOR LENGTHS: SCL=  10.00000
# SCALE FACTOR FOR SIGMAS: SCLSIG=   1.00000
# CHI^2=    203.150 DOF=   203 CHI^2/DOF=   1.00074
# RMS=      9.968 SDEV=      9.911 MEAN=   -1.27129
#  P #       PARAMETER +-    SIGMA %error PARAMETER NAME
# P 1 =    -18074.92212 +- 6804.300  37.64 YZERO                              
# P 2 =         9.02287 +-    3.384  37.51 SLOPE                              
#       T            LDETRENDED       SIG_OBS
     2010.37645       -47.08137        17.59444
     2010.37919        -4.31449         7.82602
     2010.38193       -11.24246         7.86871
     2010.38467         0.32896         8.40558
     2010.38741         1.49295         8.21072
     2010.39014        -0.14828         7.64230
     2010.39288        -3.87042         7.93368
     2010.39562         3.05364         7.67310
     2010.39836        -8.62159         7.77030
     2010.40110         8.30393         8.08245
     2010.40383        -0.72827         8.02175
     2010.40657       -14.94951         7.76664
     2010.40931        -7.72037         7.73090
     2010.41205        -9.61578         7.82558
     2010.41478         9.70484         7.71205
     2010.41752        -3.68097        16.25338
     2010.42026       -20.76043        22.14150
     2010.42300        -0.13266        25.86335
     2010.42574         6.40297        21.27660
     2010.42847        -5.38648        17.72442
     2010.43121         3.98128        17.28802
     2010.43395       -17.92600        14.70188
     2010.43669       -14.39045        16.20177
     2010.43943       -17.75065        26.40349
     2010.44216         1.94532        26.09195
     2010.44490        -6.01140        27.85575
     2010.44764       -11.62793        20.81916
     2010.45038        -2.60689        19.64465
     2010.45311         3.37618        12.50738
     2010.45585       -13.29299         8.81396
     2010.45859        -9.57888        14.09003
     2010.46133       -30.71498        29.97809
     2010.46407         3.29619        27.56612
     2010.46680        -7.92243        23.11122
     2010.46954        -7.83000        25.65838
     2010.47228       -11.28944        25.73338
     2010.47502        -8.42108        24.02549
     2010.47775       -34.37597        21.22721
     2010.48049        -6.22627        21.45971
     2010.48323         7.69569         8.32997
     2010.48597        -4.66402         8.02825
     2010.48871         8.33229         9.91348
     2010.49418       -16.11876         8.61136
     2010.49692        -2.22243         7.88749
     2010.49966       -11.51341         8.01467
     2010.50240        -1.10302         7.86076
     2010.50513        -6.39644         8.00829
     2010.50787        -7.70943         8.12946
     2010.51061         5.42964         7.95597
     2010.51335         7.62037         7.90565
     2010.51608        -0.05817         7.89505
     2010.51882         3.20908         7.75380
     2010.52156        -3.54666         8.27738
     2010.52430         2.19522         7.74130
     2010.52704        -0.63907         7.67526
     2010.52977         5.32803         7.82764
     2010.53251        -4.99769         8.22041
     2010.53525         4.75254         8.25520
     2010.53799         4.52950         7.71380
     2010.54073         1.88457         8.65251
     2010.54346        -3.18369         8.97780
     2010.54620         2.78318         7.83863
     2010.54894         0.09955         8.53579
     2010.55168        -3.40362         8.38670
     2010.55441         7.89804         8.54397
     2010.55715         7.06506         7.99531
     2010.55989        -0.61908         8.15015
     2010.56263         3.93718         8.19460
     2010.56537        13.47666         7.89708
     2010.56810        -2.83841         8.02621
     2010.57084         2.70439         8.15694
     2010.57358        -2.31173         8.45455
     2010.57632        -2.86817         8.44033
     2010.57906        -7.93142         7.86931
     2010.58179        11.68766         7.96531
     2010.58453       -11.87923         8.13291
     2010.58727         1.53557         8.25501
     2010.59001         9.31856         8.46460
     2010.59274         2.89479         7.96162
     2010.59548         8.43941         7.91678
     2010.59822         2.88613         8.42806
     2010.60096         7.95603         8.15603
     2010.60370         4.76117         7.94394
     2010.60643         2.39621         7.98764
     2010.60917         5.88206         8.09919
     2010.61191         5.38720         7.77700
     2010.61465         7.67006         8.18123
     2010.61739        20.53701         7.62344
     2010.62012         3.92666         8.20006
     2010.62286        -2.74814         8.89190
     2010.62560         4.16524         8.05029
     2010.62834         6.51204         8.92422
     2010.63107         9.38783         8.40404
     2010.63381         8.93815         7.95960
     2010.63655         5.43050         8.20067
     2010.63929         0.35931         8.43716
     2010.64203         4.78903         8.87587
     2010.64476         0.14441         7.96818
     2010.64750         8.52027         7.96048
     2010.65024        10.95005         8.15749
     2010.65298         5.05223         8.75878
     2010.65572         2.36998         8.06733
     2010.65845        10.68513         7.80125
     2010.66119        10.88749         7.76816
     2010.66393        14.01870         8.12760
     2010.66667         3.70647        26.87904
     2010.66940        -8.64744        17.25800
     2010.67214         1.50269        15.79161
     2010.67488         6.54149        18.97810
     2010.67762         8.69464        21.16688
     2010.68036       -13.89680        20.08173
     2010.68309        -7.74347        20.39365
     2010.68583       -18.01611        23.15870
     2010.68857       -19.16619        23.24432
     2010.69131         3.49031        19.43502
     2010.69405        -5.20721        18.79739
     2010.69678        -7.84093        20.02193
     2010.69952         9.38846        23.56934
     2010.70226        -0.08864        28.85421
     2010.70500        -5.52009        19.30753
     2010.70773        -9.34146         8.59131
     2010.71321         5.29359         8.07239
     2010.71595         8.17811         8.49802
     2010.71869        -0.31376        13.13418
     2010.72142        -0.53580         8.85914
     2010.72416        -5.41610         8.20409
     2010.72690        -7.18323         7.94944
     2010.72964        -2.64497         8.27645
     2010.73238        -2.44880         7.89641
     2010.73511        10.17891         7.89051
     2010.73785        -8.54436         7.73412
     2010.74059         0.44929         7.91943
     2010.74333         5.13655         8.83821
     2010.77892       -22.87468        23.62924
     2010.78166        -7.62360         8.61661
     2010.78439         0.61036         8.37152
     2010.78713         0.78561         8.39616
     2010.78987        10.79247         8.07553
     2010.79261         4.40232         8.49607
     2010.79535        -3.59753         8.38232
     2010.79808        -0.29139         8.26062
     2010.80082         1.70927         8.69295
     2010.80356        -9.38717         8.35865
     2010.80630        -2.46798         8.22995
     2010.80903         5.55091         7.89702
     2010.81177         3.26585         8.33221
     2010.81451        -4.15540         8.25171
     2010.81725        -9.45625         7.87412
     2010.81999         3.27395         7.98813
     2010.82272        10.94851         8.03977
     2010.82546         7.43776         8.12477
     2010.82820         9.21846         8.21518
     2010.83094       -12.14534         8.74756
     2010.83368        -9.93503         8.82770
     2010.83641        -0.09065         7.91909
     2010.83915        -1.10433         8.44065
     2010.84189         0.05769         7.80315
     2010.84463         7.34914         8.48977
     2010.84736        -4.11348         7.85807
     2010.85010        -2.10720         8.19079
     2010.85284         2.42252         8.08065
     2010.85558        -0.68062         8.38266
     2010.85832        -4.76385         7.93062
     2010.86105       -16.10325         7.69057
     2010.86379        -9.89021         7.61870
     2010.86653       -11.14917         7.78970
     2010.86927         0.76507         7.94078
     2010.87201       -20.78875         8.29148
     2010.87474       -11.51484         7.66920
     2010.87748        -5.07167         7.83686
     2010.88296        -3.23928         8.03669
     2010.88569        -0.73861         7.77786
     2010.88843         2.88453         8.06718
     2010.89117        17.28367        10.44646
     2010.91581         3.29449         8.20651
     2010.91855         2.97153         7.74444
     2010.92129        -6.48734         8.18460
     2010.92402        13.47121         7.83743
     2010.92676         6.32153         7.94455
     2010.92950         3.83717         7.71409
     2010.93224         7.64746         7.84303
     2010.93498         1.10673         7.85403
     2010.93771        -1.29392         7.94070
     2010.94045       -16.84577         8.24754
     2010.94319        -5.29526         7.79973
     2010.94593       -13.92391         7.76082
     2010.94867       -22.84562         8.06216
     2010.95140       -10.97490         7.95450
     2010.95414       -19.59270         8.05531
     2010.95688       -10.00126         7.98689
     2010.95962         5.77954         8.17621
     2010.96235        -0.64167         8.49348
     2010.96509        -0.09952         7.86858
     2010.96783        -0.42137         8.23165
     2010.97057        -4.03522         7.84300
     2010.97331        -1.56942         8.06318
     2010.97604        -4.18514         7.83123
     2010.97878        -9.58671         7.91250
     2010.98152       -12.14483         8.47409
     2010.98426        -3.04452         8.46945
     2010.98700        13.94898         8.42204
     2010.98973        29.13292         8.25216
     2010.99247        -7.47754         8.59150
     2010.99521        24.78353         8.60813
     2010.99795        28.73915         7.82214
