# ================= DQRFIT RESULTS ================
# INPUT FILE: series/FRFX.rad
# OUTPUT: LDETRENDED
# FILTER FUNCTION: f(t)
# f(t)=+line(t)+annual(t)
# line(t)=+P 1+P 2*t
# annual(t)=+P 3*sin(2*pi*t+P 4)
# heav(t)=(t<0?0:1)
# TOTAL OBSERVATIONS MTOT= 1413
# INITIAL TIME INTERVAL= 2016.8920 - 2012.6899 =  4.2021
# TOTAL OBSERVATIONS AFTER PREFILTER M= 1412
# TIME-SPAN= 2016.8920 - 2012.6899 =  4.2021
# OBSERVATIONS: USED M=  1412 REJECTED MTOT-M=     1 %USED=   99.9292
# N=  4 PARAMETERS
# MAXSIG= 175.00000
# MAXRES=  31.03883
# SCALE FACTOR FOR LENGTHS: SCL=  10.00000
# SCALE FACTOR FOR SIGMAS: SCLSIG=   1.00000
# CHI^2=   1017.233 DOF=  1408 CHI^2/DOF=   0.72247
# RMS=      4.750 SDEV=      4.751 MEAN=    0.08512
#  P #       PARAMETER +-    SIGMA %error PARAMETER NAME
# P 1 =      3144.77652 +-  205.473   6.53 YZERO                              
# P 2 =        -1.56021 +-    0.102   6.54 SLOPE                              
# P 3 =         6.50742 +-    0.170   2.62 ANNUAL AMPLITUDE                   
# P 4 =        -2.96910 +-    0.036   1.23 ANNUAL PHASE                       
#       T            LDETRENDED       SIG_OBS
     2012.68993        14.50008         4.63834
     2012.69267         8.96335         4.73354
     2012.69541         5.59362         4.64939
     2012.69815         8.10590         4.62814
     2012.70089         5.74917         4.62814
     2012.70362         5.38244         4.62219
     2012.70636         8.50371         4.55589
     2012.70910         6.35098         4.57714
     2012.71184         9.19225         4.54569
     2012.71457        11.11052         4.55844
     2012.71731        12.09380         4.52274
     2012.72005        11.39807         4.51509
     2012.72279         9.03434         4.52954
     2012.72553         9.42761         4.54654
     2012.72826        10.62688         4.58139
     2012.73100         8.74815         4.62899
     2012.73374         8.65443         4.64684
     2012.73574         7.56654         6.56100
     2012.78939        14.93025         8.74205
     2012.79123        11.61713         4.88569
     2012.79397        10.11440         4.61624
     2012.79671         7.30967         4.60519
     2012.79945         4.96995         4.68424
     2012.80219        10.35322         4.67659
     2012.80492         7.32149         4.67574
     2012.80766         6.52476         4.65194
     2012.81040         1.03703         4.64344
     2012.81314        -0.38370         4.59754
     2012.81587        -0.79742         4.64514
     2012.81861         4.20185         4.74544
     2012.82135         8.64112         4.72334
     2012.82409         8.82139         4.80154
     2012.82683         7.59466         4.68849
     2012.82956         1.98993         4.64089
     2012.83230         2.81420         4.62814
     2012.83504         3.17848         4.67659
     2012.83778         4.34275         4.68424
     2012.84052         7.21402         4.68254
     2012.84325         0.97629         4.65959
     2012.84599         5.61856         4.83724
     2012.84873         3.00383         4.68679
     2012.85147         5.09011         4.68169
     2012.85420         2.46238         4.63494
     2012.85694         1.84165         4.65279
     2012.85968         1.56292         4.64769
     2012.86242         0.41019         4.63069
     2012.86516         6.29446         4.64429
     2012.86789         1.63774         4.82024
     2012.87063         0.66601         4.64174
     2012.87337        -3.22272         4.67319
     2012.87611         7.55755         4.62899
     2012.87885         9.35682         4.58734
     2012.88158         0.35609         4.58224
     2012.88432         5.53037         4.58139
     2012.88706         3.77264         4.73014
     2012.88980         5.55491         4.71059
     2012.89225         3.71374         5.22908
     2012.89527        -0.76155         4.59499
     2012.89801         0.86172         4.57459
     2012.90075         0.55400         4.57629
     2012.90349        -1.02873         4.62729
     2012.90622         7.58454         4.59414
     2012.90896         5.76881         4.68084
     2012.91170         4.25408         4.66894
     2012.91444         0.65035         4.58054
     2012.91718         9.22863         4.57629
     2012.91991         6.58490         4.54399
     2012.92265         0.89317         4.55504
     2012.92539         0.90144         4.58904
     2012.92813        -1.30029         4.56609
     2012.93086        -2.45902         4.67659
     2012.93360         3.54726         4.66469
     2012.93634         4.58553         4.51254
     2012.93908        -2.29420         4.56694
     2012.94182         0.37607         4.54229
     2012.94455        10.22834         4.56864
     2012.94729         3.86961         4.62389
     2012.95003         2.37288         4.62389
     2012.95277         5.14616         4.50829
     2012.95551         8.94443         4.49895
     2012.95824         9.48570         4.54484
     2012.96098        10.13097         4.61029
     2012.96372         8.97324         4.63919
     2012.96646         8.07051         4.50235
     2012.96919         4.64879         4.59244
     2012.97193         0.61206         4.62814
     2012.97467         6.63133         4.52529
     2012.97741         3.53160         4.51169
     2012.98015        -3.17313         4.50914
     2012.98288        -7.96286         4.50744
     2012.98562         2.33442         4.50999
     2012.98836         1.45969         4.50744
     2012.99110        -4.18004         4.49810
     2012.99384        -0.37177         4.51254
     2012.99657        -4.40950         4.50575
     2012.99931         1.98677         4.51679
     2013.00205         1.50805         4.53124
     2013.00473        -0.47577         4.58224
     2013.00741        -4.70259         4.68339
     2013.01026        -0.40614         4.56949
     2013.01300        -0.44287         4.54654
     2013.01574        -0.11660         4.55164
     2013.01848        -1.50132         4.59159
     2013.02121        -1.05705         4.57034
     2013.02395        -8.19678         4.64344
     2013.02669        -7.37051         4.63749
     2013.02943        -7.48624         4.56099
     2013.03216        -4.52897         4.59159
     2013.03490        -6.25469         4.58734
     2013.03764        -6.71542         4.55589
     2013.04038       -11.17415         4.52529
     2013.04312       -11.50988         4.62644
     2013.04585        -6.37361         4.65194
     2013.04854        -9.19343         4.77859
     2013.05133        -7.77506         4.57884
     2013.05407        -5.24279         4.54824
     2013.05681        -2.89752         4.55674
     2013.05954        -3.73925         4.59584
     2013.06228        -6.97598         4.71824
     2013.06502        -2.74071         4.71569
     2013.06776        -5.16144         4.66469
     2013.07049        -0.17516         4.58989
     2013.07323        -1.43189         4.55504
     2013.07557        -6.20624         5.46707
     2013.09622        -5.50503        11.31409
     2013.09787        -3.32645         4.77944
     2013.10061        -1.09618         4.81089
     2013.10335        -5.24890         4.57289
     2013.10609        -4.33463         4.56864
     2013.10882        -5.35136         4.57969
     2013.11156       -11.73009         4.66299
     2013.11430        -8.38182         4.56184
     2013.11704        -8.08655         4.60094
     2013.11978        -5.56527         4.70974
     2013.12251       -12.40300         4.58479
     2013.12525       -11.73573         4.59159
     2013.12799        -8.11446         4.63834
     2013.13073        -3.98819         4.58394
     2013.13347        -2.95792         4.57969
     2013.13620        -0.27364         4.57374
     2013.13894        -1.26237         4.57884
     2013.14168         0.30190         4.62814
     2013.14442         0.76517         4.68934
     2013.14715         3.43144         4.71059
     2013.14989        -7.49129         4.56354
     2013.15263        -5.09201         4.56864
     2013.15537       -15.08374         4.54314
     2013.15811       -11.65747         4.58139
     2013.16084       -10.69620         4.57459
     2013.16358       -12.48393         4.57629
     2013.16632        -6.10766         4.55929
     2013.16906        -6.93438         4.56184
     2013.17180        -6.77611         4.54909
     2013.17453        -6.82884         4.55164
     2013.17727        -6.31857         4.67064
     2013.18001        -9.74430         4.68679
     2013.18383        -2.79934        10.62135
     2013.18548        -8.90276         4.55334
     2013.18822        -9.05248         4.57884
     2013.19096       -10.64021         4.54484
     2013.19370        -2.98394         4.56779
     2013.19644        -9.95867         4.57034
     2013.19917        -7.13740         4.61029
     2013.20191        -4.18613         4.60434
     2013.20465        -1.23985         4.57884
     2013.20739        -1.80958         4.55674
     2013.21013        -3.06631         4.57374
     2013.21286        -7.58004         4.51849
     2013.21560        -2.32277         4.55504
     2013.21834        -4.34550         4.54654
     2013.22108        -4.40122         4.50914
     2013.22381        -6.42895         4.50999
     2013.22655        -9.72068         4.53974
     2013.22929        -7.58841         4.52784
     2013.23203        -6.84814         4.51594
     2013.23477        -8.04487         4.51934
     2013.23750        -6.67759         4.64089
     2013.24024        -9.79532         4.65194
     2013.24298        -5.05705         4.63749
     2013.24572         0.91222         4.61029
     2013.24846        -1.18151         4.59754
     2013.25119        -4.14324         4.62644
     2013.25393        -3.51796         4.63069
     2013.25667        -3.21469         4.80664
     2013.25941         0.61258         4.65109
     2013.29330        -2.98055         8.85849
     2013.29500        -9.37689         4.62134
     2013.29774       -10.91062         4.62559
     2013.30047        -7.69535         4.60859
     2013.30321       -10.24508         4.63239
     2013.30595       -11.75280         4.63239
     2013.30869       -13.09353         4.62899
     2013.31143       -13.09826         4.59414
     2013.31416        -6.81199         4.62219
     2013.31690        -8.04772         4.58989
     2013.31964        -7.04545         4.63154
     2013.32238        -2.20217         4.61029
     2013.32512        -4.85390         4.62814
     2013.32785        -5.40463         4.61539
     2013.33059       -11.74836         4.58139
     2013.33333       -13.17309         4.62219
     2013.33607       -12.04282         4.61284
     2013.33880        -6.72054         4.74459
     2013.34154         0.96473         4.64089
     2013.34388        -6.64162         5.69657
     2013.34702        -5.84573         4.63494
     2013.34976       -13.20046         4.60689
     2013.35249       -15.78219         4.57969
     2013.35523        -9.27891         4.70549
     2013.35797       -10.15664         4.64599
     2013.36071        -4.65037         4.65194
     2013.36344        -1.53810         4.69359
     2013.36618        -5.28883         4.60349
     2013.36892        -1.62956         4.62219
     2013.37166        -4.38328         4.62899
     2013.37440        -9.14501         4.62474
     2013.37713        -7.46474         4.63324
     2013.37987        -8.77847         4.61454
     2013.38261        -7.65820         4.58394
     2013.38535        -7.54893         4.67064
     2013.38809        -5.04665         4.58309
     2013.39082        -8.75638         4.57884
     2013.39356        -6.41911         4.59924
     2013.39630        -2.10984         4.60519
     2013.39904        -4.57157         4.59414
     2013.40177        -6.41930         4.60519
     2013.40451        -6.88503         4.59244
     2013.40725        -3.53275         4.61709
     2013.40999        -0.35548         4.60179
     2013.41273        -4.55621         4.62304
     2013.41546        -8.44994         4.77264
     2013.41820        -9.32367         4.56949
     2013.42094        -1.23340         4.62134
     2013.42368        -6.31512         4.62729
     2013.42642        -2.93385         4.62219
     2013.42915         1.72642         4.67064
     2013.43189        -0.59731         4.62814
     2013.43463        -4.30504         4.59329
     2013.43737        -4.70677         4.61369
     2013.44010        -1.85549         4.61624
     2013.44284        -0.15222         4.67404
     2013.44558        -4.80195         4.74289
     2013.44820       -11.24486         4.82959
     2013.45462        -2.91085         6.91714
     2013.45653        -4.54186         4.60689
     2013.45927        -4.37659         4.66894
     2013.46201        -2.03132         4.65194
     2013.46475        -3.13805         4.60179
     2013.46748        -4.95378         4.61114
     2013.47022        -6.18851         4.59584
     2013.47296        -4.12823         4.54994
     2013.47570        -6.26196         4.56269
     2013.47843        -0.23569         4.64089
     2013.48117        -3.42042         4.70039
     2013.48391        -1.81315         4.63834
     2013.48665        -4.14888         4.56524
     2013.48939        -5.26260         4.57969
     2013.49212        -4.88133         4.76074
     2013.49486         0.46094         4.60519
     2013.49760         4.12921         4.61879
     2013.50034        -2.81652         4.58139
     2013.50308        -2.33125         4.52444
     2013.50581        -0.71997         4.56099
     2013.50855        -0.74670         4.52444
     2013.51129        -0.17343         4.54144
     2013.51403        -3.45716         4.53464
     2013.51676         1.01011         4.52784
     2013.51950         1.09238         4.54654
     2013.52224         6.34965         4.56184
     2013.52498        -1.33507         4.67404
     2013.52772        -0.28080         4.58224
     2013.53045        -5.44453         4.53464
     2013.53319        -4.51426         4.54314
     2013.53593         2.64501         4.57544
     2013.53867         4.61628         4.67064
     2013.54141         2.79756         4.64939
     2013.54414        -0.67917         4.56099
     2013.54688        -5.14690         4.53124
     2013.54962         3.58537         4.54824
     2013.55236         0.33364         4.54824
     2013.55509        -2.00809         4.56779
     2013.55783         1.41719         4.55674
     2013.56057        -1.56054         4.63919
     2013.56331         3.76073         4.65874
     2013.56605         0.17500         4.61454
     2013.56878         1.79827         4.56354
     2013.57152         0.36554         4.56014
     2013.57426         6.48582         4.54824
     2013.57700         2.70409         4.56609
     2013.57974         0.93536         4.61624
     2013.58247         4.77063         4.55844
     2013.58521         2.65290         4.58819
     2013.58795         0.09117         4.56609
     2013.59069         4.23545         4.55844
     2013.59342         3.27572         4.59329
     2013.59616         5.37999         4.57969
     2013.59890         5.38926         4.60774
     2013.60164         3.99853         4.58309
     2013.60438         2.19080         4.58054
     2013.60689         4.95872         4.91034
     2013.60985        11.57135         4.62644
     2013.61218         2.19498         5.29708
     2013.61641        11.29858        12.14282
     2013.61807         6.54516         4.70294
     2013.62080         0.00943         4.58989
     2013.62354         5.29971         4.69274
     2013.62628         7.81498         4.65534
     2013.62902         5.08025         4.54144
     2013.63175         2.69352         4.57629
     2013.63449         6.08479         4.66894
     2013.63723         6.25506         4.56014
     2013.63997        12.80633         4.60264
     2013.64271         8.09461         4.62814
     2013.64544         6.71588         4.59669
     2013.64818         5.94115         4.60519
     2013.65092        12.22242         4.59159
     2013.65366        10.29169         4.63749
     2013.65639         6.69096         4.62899
     2013.65913         4.73424         4.72844
     2013.66187         1.76851         4.76329
     2013.66461         4.27178         4.60179
     2013.66735        10.33105         4.65704
     2013.67008         5.93932         4.58564
     2013.67282         5.84559         4.75989
     2013.67556         7.50587         4.76924
     2013.67830        10.47814         4.67064
     2013.68104         6.92241         4.61114
     2013.68377         5.32268         4.56694
     2013.68651         5.03795         4.55249
     2013.68925         9.99322         4.61539
     2013.69199        10.99250         4.62474
     2013.69472        13.19477         4.56949
     2013.69746         7.04504         4.57629
     2013.70020         8.75631         4.58054
     2013.70294        13.10558         4.54909
     2013.70568         9.13285         4.60264
     2013.70841         4.15513         4.68254
     2013.71115         6.31440         4.56014
     2013.71389         4.93467         4.59584
     2013.71663         7.49894         4.65279
     2013.71937         8.02621         4.58989
     2013.72210        12.79448         4.61114
     2013.72484        17.89276         4.65364
     2013.72758         6.68103         4.75564
     2013.73032         7.81330         4.55249
     2013.73305         9.24357         4.54314
     2013.73579         1.68084         4.98173
     2013.73853         6.26311         4.57204
     2013.74127         8.95339         4.59839
     2013.74401        15.47266         4.64769
     2013.74674         7.93493         4.70804
     2013.74948         2.46920         4.64939
     2013.75222         2.98347         4.56184
     2013.75496        -2.96326         4.64174
     2013.75770        -3.80699         4.53974
     2013.76043        -2.68471         4.56779
     2013.76317         3.00556         4.58309
     2013.76591        11.84083         4.81429
     2013.76865         4.49110         4.58224
     2013.77138        -1.35563         4.57119
     2013.77412         5.61764         4.66044
     2013.77686         1.90592         4.58734
     2013.77960         0.23019         4.59584
     2013.78234        -4.00254         4.58309
     2013.78507        -4.47527         4.57289
     2013.78781        -5.28700         4.56354
     2013.79055         1.00427         4.63494
     2013.79329        -1.37345         4.57034
     2013.79603         0.29082         4.55419
     2013.79876        -0.01591         4.55759
     2013.80150         5.27336         4.62729
     2013.80424         3.89563         4.63579
     2013.80698         4.14490         4.59499
     2013.80971         6.29418         4.55844
     2013.81245         7.24445         4.54824
     2013.81519         1.59572         4.54144
     2013.81793        -1.53701         4.55674
     2013.82067         0.98126         4.57289
     2013.82340         5.84053         4.58224
     2013.82614         6.66981         4.63494
     2013.82888         4.15808         4.57034
     2013.83162         3.61835         4.58224
     2013.83436         1.15762         4.68169
     2013.83709         3.72789         4.68424
     2013.83983         6.83116         4.61879
     2013.84257         2.71144         4.56524
     2013.84531         2.20071         4.65704
     2013.84804         1.23998         4.56524
     2013.85078        -0.95675         4.62559
     2013.85352         6.49652         4.54824
     2013.85626        -0.37021         4.56524
     2013.85900         1.83307         4.51339
