# ================= DQRFIT RESULTS ================
# INPUT FILE: series/FRID.rad
# OUTPUT: LDETRENDED
# FILTER FUNCTION: f(t)
# f(t)=+line(t)+annual(t)+jumps(t)
# line(t)=+P 1+P 2*t
# annual(t)=+P 3*sin(2*pi*t+P 4)
# jumps(t)=+P 5*heav(t-2012.3313  )
# heav(t)=(t<0?0:1)
# TOTAL OBSERVATIONS MTOT= 2274
# INITIAL TIME INTERVAL= 2016.1530 - 2007.0281 =  9.1250
# TOTAL OBSERVATIONS AFTER PREFILTER M= 2243
# TIME-SPAN= 2016.1478 - 2007.0281 =  9.1197
# OBSERVATIONS: USED M=  2243 REJECTED MTOT-M=    31 %USED=   98.6368
# N=  5 PARAMETERS
# MAXSIG= 175.00000
# MAXRES=  38.33932
# SCALE FACTOR FOR LENGTHS: SCL=  10.00000
# SCALE FACTOR FOR SIGMAS: SCLSIG=   1.00000
# CHI^2=   3490.382 DOF=  2238 CHI^2/DOF=   1.55960
# RMS=     13.758 SDEV=     13.365 MEAN=   -3.27759
#  P #       PARAMETER +-    SIGMA %error PARAMETER NAME
# P 1 =    -36249.25363 +-  348.888   0.96 YZERO                              
# P 2 =         7.38096 +-    0.174   2.35 SLOPE                              
# P 3 =         7.96703 +-    0.193   2.42 ANNUAL AMPLITUDE                   
# P 4 =        -0.81347 +-    0.027   3.28 ANNUAL PHASE                       
# P 5 =     21377.70296 +-    1.149   0.01 OFFSET 2012.3313                   
#       T            LDETRENDED       SIG_OBS
     2007.02806        12.92411        42.01944
     2007.03080         5.25890        31.58643
     2007.03353         0.81070        25.39919
     2007.03627         5.39349        30.30673
     2007.03901         5.12528        29.52137
     2007.04175         6.94407        31.74179
     2007.04449         6.55986        30.73171
     2007.04722        12.50366        37.90242
     2007.04996        16.74945        44.54032
     2007.05270        14.17424        39.78299
     2007.05544        12.54503        36.32192
     2007.05817         9.62883        33.59450
     2007.06091        14.15062        37.72880
     2007.06365        13.01741        35.67824
     2007.06639         8.46220        30.51916
     2007.06913         8.38199        28.99895
     2007.07186        10.31879        30.89475
     2007.07460         7.20958        27.03527
     2007.07734         3.90337        22.83484
     2007.08008         5.92716        24.83813
     2007.08282         6.61195        25.06854
     2007.18138        19.46547        26.99267
     2007.18412         2.65026         6.42971
     2007.18685         9.30905        14.48324
     2007.18959        16.33584        22.34686
     2007.19233         7.13963        11.40653
     2007.19507         3.63943         6.06945
     2007.19780         2.04522         3.87147
     2007.20054         0.79801         2.08479
     2007.20328         8.43580        10.93926
     2007.20602        14.54559        17.62803
     2007.20876        14.03139        17.01087
     2007.21149         3.17618         3.61571
     2007.21423        13.52197        15.55003
     2007.21697         8.12376         8.74532
     2007.21971        10.38855        11.00157
     2007.22245         7.71535         7.71588
     2007.22518        18.01814        19.94643
     2007.22792         9.22693         8.99487
     2007.23066         5.31272         3.99452
     2007.23340         6.22451         4.84140
     2007.23613         3.71331         1.60640
     2007.23887         0.12110         2.91044
     2007.24161         2.35389         0.54622
     2007.24435        12.04768        10.61191
     2007.24709         8.92747         6.66351
     2007.24982         5.57127         2.47530
     2007.25256         2.05806         1.87869
     2007.25530         1.93185         2.27195
     2007.25804         7.71864         4.37273
     2007.26078         6.81943         3.02264
     2007.26351         9.48723         5.95639
     2007.26625        15.75902        13.34972
     2007.26899        14.90181        12.01103
     2007.27173         7.14360         2.63864
     2007.27446        15.56439        12.14326
     2007.27720        18.26019        15.32625
     2007.27994        12.66398         8.42738
     2007.28268        15.12077        11.39817
     2007.28542        11.48756         6.79671
     2007.31553        10.76528         4.42690
     2007.31827        16.70507        11.61346
     2007.32101        12.75686         6.72746
     2007.32375        11.82065         5.43910
     2007.32648         7.39844         0.12515
     2007.32922        10.75124         3.98697
     2007.33196         6.98803         0.50600
     2007.33470         3.36082         4.92667
     2007.33744         8.22061         0.86066
     2007.34017         7.47040         0.07732
     2007.34291         0.59220         8.32026
     2007.34565         6.39499         1.41586
     2007.34839        13.49778         7.03696
     2007.35112         4.44057         3.81902
     2007.35386         8.37836         0.93329
     2007.35660         3.58216         5.09494
     2007.35934         7.16595         0.56275
     2007.36208         4.48474         3.80472
     2007.36481         6.36553         1.52106
     2007.36755        10.20332         3.13869
     2007.37029         7.28812         0.34576
     2007.37303         3.47391         5.03290
     2007.37577        -0.33530         9.70481
     2007.37850         4.15649         4.01101
     2007.38124        13.04428         6.69430
     2007.38398        10.08908         3.30270
     2007.38672         2.85987         5.29326
     2007.38945         3.61966         4.29604
     2007.39219         4.74845         2.95059
     2007.39493         4.02224         3.70702
     2007.39767         5.26404         2.12384
     2007.40041         6.32383         0.74875
     2007.40314         5.57962         1.49845
     2007.40588         2.55841         4.92929
     2007.40856        -2.49437        11.31872
     2007.41136         1.22300         6.34286
     2007.41410         9.15179         3.19795
     2007.41683         6.92658         0.70052
     2007.41957         5.47537         0.90486
     2007.42231         8.22416         2.63319
     2007.42505        20.75496        18.01147
     2007.42778        13.90175         9.43996
     2007.43052         9.65054         4.61256
     2007.43326         9.73033         4.93043
     2007.43600         7.74612         2.84123
     2007.43868         9.72634         5.35238
     2007.44147         6.31971         1.48164
     2007.44398         5.56618         1.06180
     2007.44695         0.71529         4.77618
     2007.44969        -2.64192         8.46191
     2007.45243         7.59288         3.75419
     2007.45516         5.88067         1.95473
     2007.45790        10.05146         7.12448
     2007.46064         5.88925         2.40046
     2007.46338         6.20104         3.01602
     2007.46611         5.71584         2.68066
     2007.46885        10.54563         8.53899
     2007.47159         8.37342         6.30264
     2007.47433         6.10021         3.84520
     2007.47707         9.95700         8.82836
     2007.47980         0.49280         2.21559
     2007.48254        -2.68741         5.73196
     2007.48528         3.11438         1.39441
     2007.48802         2.81417         1.30474
     2007.49093        13.58770        15.34188
     2007.49384         4.97123         5.07459
     2007.49623         5.24755         4.96655
     2007.49897        12.63934        13.95915
     2007.50171         1.98313         1.72907
     2007.50462         6.01166         7.32095
     2007.50718         7.08672         8.31124
     2007.50992         2.87551         3.70952
     2007.51266         0.81730         1.55158
     2007.51540        12.68109        16.25738
     2007.51813         3.75989         5.63857
     2007.52087         3.48668         5.61312
     2007.52342         6.89184        10.64979
     2007.52635         9.85026        14.01778
     2007.52908        20.92705        27.89867
     2007.53182         6.08085        10.19298
     2007.53456         6.65564        11.39840
     2007.53730        11.31043        17.13701
     2007.54004        11.93422        18.28158
     2007.54277        12.52001        19.08051
     2007.54551        17.88881        26.22874
     2007.54825         8.56160        15.33781
     2007.55099         6.16639        12.62994
     2007.55373         8.53718        15.68890
     2007.55646        20.30997        30.75024
     2007.55920        14.97677        24.18241
     2007.56194         7.81156        15.80922
     2007.56468        11.69135        20.73373
     2007.56741         7.61514        16.62309
     2007.57015        17.70793        28.95641
     2007.57289        18.94073        30.57191
     2007.57563         7.31452        17.01775
     2007.57837         4.85731        14.28874
     2007.58110        11.18310        22.15204
     2007.58384        16.69789        29.67406
     2007.58658        13.73569        26.24164
     2007.58932        12.36348        24.70330
     2007.59206        11.51127        23.86039
     2007.59479        12.57706        26.01709
     2007.59753        15.44885        29.87306
     2007.60027        15.11265        29.28099
     2007.60301        17.13744        31.85002
     2007.60574        15.42223        30.35919
     2007.60848        13.41202        27.98623
     2007.61122        18.48681        34.88621
     2007.61396        16.85561        33.12641
     2007.61670        13.80340        33.01453
     2007.61943        20.98719        42.03246
     2007.62217        19.96598        39.65377
     2007.62491        15.76777        35.13316
     2007.62765        18.86057        40.00858
     2007.63039        23.87936        45.67126
     2007.63312        18.37315        39.23401
     2007.63586        17.25494        37.48864
     2007.63860        11.23273        30.19047
     2007.64134        15.92453        35.89330
     2007.64407        18.13132        40.61307
     2007.64681        13.71011        35.88145
     2007.64955        21.59990        46.26311
     2007.65229        17.76369        41.27934
     2007.65503        14.19449        36.46464
     2007.65776        14.64828        37.13480
     2007.66050        12.60707        35.17717
     2007.66324        18.85386        44.26032
     2007.66598        16.46165        40.98153
     2007.66872        19.70145        45.85644
     2007.67145        11.98024        37.45277
     2007.67419        14.03403        39.21602
     2007.67693        22.62182        49.81390
     2007.67967        21.98361        50.59625
     2007.68240        19.39641        46.13803
     2007.68514        12.66520        39.69904
     2007.68788        22.84899        51.94032
     2007.69062        17.28278        44.22553
     2007.69336        22.65257        51.77915
     2007.69609        15.56737        43.73993
     2007.69883        14.78016        42.44341
     2007.70157        16.58595        45.16425
     2007.70431        20.58274        51.31818
     2007.70705        16.51053        47.05982
     2007.70978        21.86033        53.40241
     2007.71252        12.80912        41.32481
     2007.71526        24.77291        55.31670
     2007.71800        22.37470        53.08789
     2007.72073        14.66249        44.01708
     2007.72347        19.49429        50.66179
     2007.72621        21.48608        52.04379
     2007.72895        11.11387        40.42920
     2007.73169        16.70366        47.79736
     2007.73442        17.21845        47.94179
     2007.73716        11.60125        42.76047
     2007.73990        19.66304        51.50646
     2007.74264        21.80383        54.09637
     2007.74538        18.28762        49.70441
     2007.74811        30.53342        66.25456
     2007.75085        29.89921        68.54612
     2007.75359        23.20400        57.94309
     2007.75633        18.28879        50.98660
     2007.75906        19.72658        52.15871
     2007.76180        20.08938        53.67332
     2007.76454        19.01917        53.01700
     2007.76728        19.28896        56.25788
     2007.77002        25.88975        65.44083
     2007.77275        19.84354        56.67381
     2007.77549        14.15034        46.64804
     2007.77823        15.87913        49.34287
     2007.78097        13.59992        46.01409
     2007.78371        16.58371        50.26593
     2007.78644        22.42350        57.99766
     2007.78918        18.81330        54.23663
     2007.79192        13.07809        48.50483
     2007.79466        22.31588        58.63911
     2007.79739        21.24767        58.00547
     2007.80013        31.34046        70.45541
     2007.80264        23.36094        63.09614
     2007.80561        12.98805        46.67981
     2007.80835        13.45884        47.72247
     2007.81108        17.78863        54.53722
     2007.81382        13.05942        47.44092
     2007.81656        11.41322        47.45608
     2007.81930         7.58901        40.90090
     2007.82203        13.65880        48.64232
     2007.82477        13.58259        49.31158
     2007.82751         6.30438        39.30141
     2007.83025        10.86618        46.29055
     2007.83299        16.00497        50.54893
     2007.83572         8.23876        40.84257
     2007.83846        16.23155        50.77368
     2007.84120        13.28734        49.23343
     2007.84394         5.06814        37.24692
     2007.84668         1.87393        34.25721
     2007.84941        16.49472        51.42959
     2007.85215        17.74551        54.71988
     2007.85489        16.07630        54.76139
     2007.85763         2.72010        35.65918
     2007.86036         9.89289        43.29471
     2007.86310        16.48968        51.55342
     2007.86584        11.03847        45.22785
     2007.86858        10.89226        43.60156
     2007.87132        13.54506        47.52448
     2007.87405        16.13285        50.03058
     2007.87679        21.44264        57.10224
     2007.87953         9.12443        41.67909
     2007.88227        11.07122        43.50091
     2007.88501        16.74302        49.99342
     2007.88774         3.00281        33.79949
     2007.89048         5.67760        36.74198
     2007.89305         4.74866        51.65337
     2007.89596        14.89718        49.29968
     2007.89869        12.06798        44.22813
     2007.90132         8.91161        42.23996
     2007.90948        13.98941        49.32906
     2007.91238        11.18294        43.03763
     2007.91512        13.93173        45.48385
     2007.91786        17.53052        49.45990
     2007.92060         9.37131        40.22801
     2007.92334        16.30210        49.17165
     2007.92607        14.88990        46.83356
     2007.92881         4.29469        33.89305
     2007.93155         6.30348        35.53600
     2007.93429         5.90127        34.69268
     2007.93697         6.36649        36.24010
     2007.93965         8.85270        45.57513
     2007.94136        14.66707        99.61879
     2007.95448         8.61924        79.59371
     2007.95619        10.24861        38.91548
     2007.95887        20.69582        52.57475
     2007.96167        18.52519        63.59258
     2007.96440        15.80998        44.85860
     2007.96714        12.25678        49.79747
     2007.96988         3.71757        28.73400
     2007.97262         0.98636        25.78847
     2007.97535        -0.50085        23.16769
     2007.97809        18.91695        47.09073
     2007.98083        10.60174        35.76779
     2007.98357        13.61453        38.88307
     2007.98631        12.01632        37.73763
     2007.98904         9.09611        34.60074
     2007.99178        11.90791        37.03737
     2007.99452        13.62370        38.57204
     2007.99726         6.53549        28.30697
     2008.00000        -4.30572        15.52875
     2008.00273         4.73007        25.79549
     2008.00547         6.32287        27.28195
     2008.00821        13.48266        34.76810
     2008.01095        10.62245        32.45196
     2008.01368        11.37124        31.83413
     2008.01642         7.80803        27.14099
     2008.01916         7.22783        26.56623
     2008.02190        17.43162        39.15838
     2008.02464        13.74641        33.10655
     2008.02743        15.12078        36.03829
     2008.03011        10.30699        29.01704
     2008.03285         2.74679        19.09104
     2008.03559         6.80158        23.95925
     2008.03833        -1.67463        12.81247
     2008.04106         1.67916        16.69152
     2008.04380         2.38995        17.73885
     2008.04654         9.05075        25.15324
     2008.04928         2.21954        16.07245
     2008.05201         3.79733        17.39123
     2008.05475        -0.35788        11.98271
     2008.05749         0.50391        12.65342
     2008.06023         5.46471        18.26600
     2008.06297         7.82450        20.75563
     2008.06570         7.82229        20.04258
     2008.06844         8.44108        20.53046
     2008.07118        11.89287        24.84291
     2008.07392        20.22867        35.73450
     2008.07666        18.85146        33.57369
     2008.07939        12.68125        25.10044
     2008.08213        11.86504        23.34811
     2008.08487         8.78083        18.23723
     2008.08761         7.78563        16.90956
     2008.09034        13.52742        23.21405
     2008.09308         8.05521        16.33839
     2008.09582        13.64500        23.43238
     2008.09856        10.67279        19.51789
     2008.10130         7.24559        14.71324
     2008.10404         6.07431        12.35746
     2008.10677        17.40617        25.51833
     2008.10951         9.01396        15.47647
     2008.11225        11.07375        18.12004
     2008.11498         7.87855        13.22693
     2008.11772         7.29034        11.53202
     2008.12046         6.21813         9.98223
     2008.12320         6.88792        10.73785
     2008.12594        12.46671        16.72972
     2008.12867         4.45751         6.73102
     2008.13141         5.89730         7.98148
     2008.13415        11.45509        14.08070
     2008.13689        12.70288        16.24743
     2008.13963        12.33267        14.52435
     2008.14236        11.50347        13.09078
     2008.14510         9.55326        10.37609
     2008.14784         9.56605         9.92956
     2008.15058         3.91784         2.85783
     2008.15331         2.52863         0.83938
     2008.15605         4.31543         2.77606
     2008.15879         4.94022         2.99679
     2008.16351        -7.59462        20.32969
     2008.19532         1.83757         8.89496
     2008.19712         8.68031         2.31502
     2008.19986        11.14510         4.83804
     2008.20260         3.46389         4.51144
     2008.20533        -1.81132        11.25643
     2008.20807         2.47647         6.58446
     2008.21081         4.94427         3.83922
     2008.21355         5.21906         3.77888
     2008.21629        10.88185         2.69887
     2008.21902         6.20664         3.25736
     2008.22176        -4.47756        16.25272
     2008.22450         6.23323         3.81540
     2008.22724         3.93302         6.89557
     2008.22997         0.98781        10.85128
     2008.23271         4.33360         7.07980
     2008.23545         4.18440         7.50766
     2008.23819         4.58819         7.18901
     2008.24093        10.55998         0.29575
     2008.24366         7.78077         3.86310
     2008.24640         6.94256         5.17539
     2008.24914         1.13836        12.08385
     2008.25188         4.14115         8.94140
     2008.25462         5.17894         7.85205
     2008.25735         4.01773         9.73012
     2008.26009         8.70452         4.14818
