# ================= DQRFIT RESULTS ================
# INPUT FILE: series/FWBD.rad
# OUTPUT: LDETRENDED
# FILTER FUNCTION: f(t)
# f(t)=+line(t)+annual(t)
# line(t)=+P 1+P 2*t
# annual(t)=+P 3*sin(2*pi*t+P 4)
# heav(t)=(t<0?0:1)
# TOTAL OBSERVATIONS MTOT= 3745
# INITIAL TIME INTERVAL= 2022.7488 - 2011.8718 = 10.8770
# TOTAL OBSERVATIONS AFTER PREFILTER M= 3737
# TIME-SPAN= 2022.7488 - 2011.8718 = 10.8770
# OBSERVATIONS: USED M=  3737 REJECTED MTOT-M=     8 %USED=   99.7864
# N=  4 PARAMETERS
# MAXSIG= 175.00000
# MAXRES=  36.76714
# SCALE FACTOR FOR LENGTHS: SCL=  10.00000
# SCALE FACTOR FOR SIGMAS: SCLSIG=   1.00000
# CHI^2=   3637.678 DOF=  3733 CHI^2/DOF=   0.97447
# RMS=      5.735 SDEV=      5.736 MEAN=    0.00563
#  P #       PARAMETER +-    SIGMA %error PARAMETER NAME
# P 1 =      1439.46461 +-   60.501   4.20 YZERO                              
# P 2 =        -0.71363 +-    0.030   4.20 SLOPE                              
# P 3 =         4.90364 +-    0.130   2.66 ANNUAL AMPLITUDE                   
# P 4 =        -2.79145 +-    0.035   1.27 ANNUAL PHASE                       
#       T            LDETRENDED       SIG_OBS
     2011.87177        -2.84245         6.83404
     2011.87405        -6.60982         5.56259
     2011.87953        -2.30291         5.65933
     2011.88227        -3.80796         5.91796
     2011.88501        -1.65201         5.58332
     2011.88774        -8.94905         5.56160
     2011.89048        -8.43410         5.59418
     2011.89322        -4.85515         5.62379
     2011.89869         5.58176         5.73830
     2011.90143       -11.41128         5.60109
     2011.90417        -7.97433         5.57246
     2011.90691        -1.42038         5.58628
     2011.90965        -5.64242         5.56851
     2011.91238        -2.68147         5.73929
     2011.91786        -7.63056         5.81333
     2011.92060       -10.68561         5.65538
     2011.92334        -9.77165         5.65933
     2011.92607       -13.29770         5.68401
     2011.92881       -12.67475         5.67611
     2011.93138       -11.46091         6.15982
     2012.02863         6.91849        18.98191
     2012.03285        -2.95250         5.79951
     2012.03559        -3.65755         5.72942
     2012.03833        -0.72459         5.44808
     2012.04106         1.43636         6.03741
     2012.04380         2.11131         5.69586
     2012.04654         7.99927         5.46091
     2012.05201         4.51218         6.17561
     2012.05475         8.60313         6.51618
     2012.05749         0.03308         6.14402
     2012.06023         1.52804         5.52113
     2012.06297        -2.98801         5.46980
     2012.06570        -2.53405         5.58924
     2012.07118        -2.07815         5.40958
     2012.07392        -6.19519         5.39971
     2012.07666        -4.15924         5.42439
     2012.07939         2.46471         5.45499
     2012.08213        -0.14433         5.38688
     2012.08458        -2.47058         6.05419
     2012.09034        -5.81347         5.39774
     2012.09308        -4.69452         5.43624
     2012.09582        -4.71256         5.53001
     2012.09856        -3.33661         5.43722
     2012.10130        -4.19866         5.53199
     2012.10392        -5.49578         5.59418
     2012.10951        -2.34079         5.52113
     2012.11225         0.96016         5.57542
     2012.11498         0.21211         5.46486
     2012.11772         4.49807         5.49546
     2012.12046         7.18702         5.56456
     2012.12320        -3.35602         5.48461
     2012.12867        -3.47512         5.58233
     2012.13141         0.13784         5.53890
     2012.13415        -1.09721         5.52607
     2012.13689        -3.02126         5.51323
     2012.13963        -3.69530         5.65242
     2012.14236        -0.49635         5.67315
     2012.14784        -8.25044         5.47079
     2012.15058        -2.57749         5.50731
     2012.15331        -3.47153         5.43426
     2012.15600        -3.84162         5.59714
     2012.15833        -3.95395         7.00284
     2012.16153         3.70233         5.47868
     2012.16700        -7.94176         5.59714
     2012.16974        -8.03181         5.39576
     2012.17248        -8.74486         5.43821
     2012.17522        -3.98890         5.43426
     2012.17796        -1.98295         5.52212
     2012.18069        -5.29899         5.47473
     2012.18617       -11.39509         5.40070
     2012.18891        -5.78813         5.41254
     2012.19164         2.60082         6.39278
     2012.19438        -0.02523         5.54581
     2012.19712         3.85873         5.49546
     2012.19986        -1.35732         5.46881
     2012.20533         0.33659         5.71066
     2012.20807         5.44954         5.44907
     2012.21081         4.28750         5.43130
     2012.21343        -1.83363         5.70079
     2012.21902        -6.41164         5.75805
     2012.22450        -6.87973         5.65440
     2012.22724        -5.23078         5.52113
     2012.22997        -3.14583         6.02260
     2012.23271         1.23413         5.79062
     2012.23545        -2.99692         5.59813
     2012.23813         1.72300         5.98213
     2012.24366         2.95694         5.50435
     2012.24640         0.89990         5.53890
     2012.24914         3.20285         5.42932
     2012.25188        -4.39920         5.33851
     2012.25462       -10.98724         5.37799
     2012.25735         2.10271         5.44117
     2012.26283        -8.15538         5.43722
     2012.26557        -9.23243         5.38095
     2012.26819       -12.74955         8.97122
     2012.27110        -6.86448         5.64452
     2012.27378        -4.74856         5.44413
     2012.27652         1.14639         5.43426
     2012.28199         0.85730         5.45795
     2012.28473        -0.85975         5.43031
     2012.28747         4.77120         5.50534
     2012.29021        -4.46484         5.40563
     2012.29295        -3.97389         5.43920
     2012.29568        -7.68493         5.44018
     2012.30116        -4.21803         5.47473
     2012.30390        -6.33107         5.50731
     2012.30663       -11.44712         5.49843
     2012.30937        -1.79216         5.54581
     2012.31211         9.02879         5.90513
     2012.31485        -2.36126         5.58233
     2012.32032        -6.66435         5.56358
     2012.32306        -8.03540         5.42143
     2012.32580        -7.48144         5.42143
     2012.32854        -6.82149         5.72251
     2012.33128        -1.88653         5.65933
     2012.33401        -1.02758         5.62675
     2012.33995        -3.35635         6.38587
     2012.34268        -5.32039         6.37896
     2012.34548        -7.54140         6.51618
     2012.35135        -2.36921         9.24663
     2012.35318        -2.35390         5.67710
     2012.35837       -17.05820         9.26638
     2012.36145        -4.91900         7.75900
     2012.36413       -10.05509         5.99397
     2012.36687        -7.46213         5.41550
     2012.36961        -6.06218         5.42439
     2012.37234        -0.52923         5.57246
     2012.37782        -7.92732         5.58727
     2012.38056        -8.16337         5.54482
     2012.38329        -8.64241         5.49843
     2012.38603        -5.52446         5.47967
     2012.38877         0.83250         5.76693
     2012.39151        -0.92255         5.63268
     2012.39698        -3.48264         5.55173
     2012.39972        -6.10069         5.44907
     2012.40246        -8.07574         5.43525
     2012.40520       -11.38878         5.48954
     2012.40794        -1.13883         5.44315
     2012.41067        -2.36487         5.48757
     2012.41615        -6.88497         5.44907
     2012.41889        -7.06401         5.72744
     2012.42162        -9.61206         6.42042
     2012.42442        -2.82806         5.66229
     2012.42710        -5.45115         5.51619
     2012.42989        -6.11516         5.54186
     2012.43531        -7.10029         5.52409
     2012.43805        -4.97534         5.41649
     2012.44079       -13.00638         5.46486
     2012.44353       -12.91743         5.41156
     2012.44626       -10.89447         5.45598
     2012.44900        -7.63952         5.67315
     2012.45448        -3.31361         6.59712
     2012.45722        -4.48966         5.51619
     2012.45995        11.15930         5.67710
     2012.46269         3.99025         6.22201
     2012.46543        -5.17680         5.46388
     2012.46817        -3.89984         5.55074
     2012.47364         1.70406         5.60306
     2012.47638         3.51702         5.59220
     2012.47912        -3.53003         5.48855
     2012.49384        -2.01253        11.21699
     2012.49555        -2.55431         5.56654
     2012.49828        -0.99035         5.59517
     2012.50102        -1.79740         5.40465
     2012.50376        -1.33344         5.50139
     2012.50650         4.12851         5.46388
     2012.51197        -2.04058         5.72053
     2012.51471        -2.36563         5.56456
     2012.51745         3.70833         5.49349
     2012.52019         0.74328         5.48954
     2012.52292         7.56123         6.61193
     2012.52566        -0.15481         5.57049
     2012.53114         2.72709         5.53298
     2012.53388        -8.96895         5.55371
     2012.53639         6.67284         6.65931
     2012.53947         6.64504         6.28617
     2012.54209        -0.66909         5.95942
     2012.54483         4.52886         5.52903
     2012.55030         1.45977         5.46585
     2012.55304         3.10472         5.44512
     2012.55578        -1.84232         5.51916
     2012.55852         4.36363         5.56259
     2012.56125         2.99059         5.45993
     2012.56399         1.34554         5.45894
     2012.56947        -0.88955         5.47770
     2012.57221         3.60240         5.43327
     2012.57494         4.03336         5.44611
     2012.57768        -5.63569         5.53890
     2012.58042         5.92226         5.45894
     2012.58316       -14.26078         5.57740
     2012.58863         2.22712         5.52113
     2012.59137        -0.32592         6.81331
     2012.59411         2.43903         5.41452
     2012.59685         2.86099         5.84590
     2012.59964        -1.21702         5.66723
     2012.60238        -1.24207         6.06999
     2012.60780         4.28280         5.48954
     2012.61054        10.86376         5.44413
     2012.61327        -1.86929         5.38589
     2012.61601         4.13466         5.43624
     2012.61875        15.48262         5.50139
     2012.62149        15.92457         5.46289
     2012.62696         7.03848         6.75605
     2012.62970         3.74143         5.42044
     2012.63244         5.12339         5.46190
     2012.63518         4.46334         5.43722
     2012.63752         2.32901         6.39476
     2012.63963        16.23951        11.65034
     2012.64613         2.03215         5.46388
     2012.64887         8.59811         5.38392
     2012.65138        12.11690         5.99299
     2012.65434         8.05302         5.71757
     2012.65708         5.96297         7.28813
     2012.65982         6.56792        10.48551
     2012.66529         8.65783         5.39971
     2012.66803         4.34579         5.41353
     2012.67077         6.48274         5.38490
     2012.67351         6.87869         5.35233
     2012.67613         0.54957         5.73732
     2012.67898         7.54660         8.89916
     2012.68446         2.96251         5.50928
     2012.68720         4.83046         5.39280
     2012.68993         2.99842         5.50237
     2012.69273         0.82341         6.99889
     2012.69541         1.84532         5.68993
     2012.69815        -3.96472         5.52804
     2012.70265        -2.68151         9.62866
     2012.70636         8.82714         5.47375
     2012.70910         6.83309         5.46388
     2012.71184         4.87605         5.53692
     2012.71457         4.30300         5.42241
     2012.71731         4.08895         5.74817
     2012.72279         7.01286         5.40958
     2012.72553         7.25382         5.43031
     2012.72826         4.52077         5.49941
     2012.73100        -1.10428         5.61392
     2012.73374         6.99368         5.53396
     2012.73648         8.75063         5.45104
     2012.74195         6.61154         5.50139
     2012.74469         5.32049         5.43031
     2012.74669        12.07192         8.28614
     2012.75017         4.59940         5.43624
     2012.75290        11.71135         5.71856
     2012.75564         1.24331         5.42340
     2012.76112         4.65822         5.40070
     2012.76386         5.87217         5.39971
     2012.76659         7.23512         5.48855
     2012.76933         4.22708         5.49645
     2012.77207         2.71903         5.47572
     2012.77481         0.66398         5.45499
     2012.79397         1.38066         5.72251
     2012.79671         0.35261         5.51323
     2012.79945         4.59657         5.70968
     2012.80219        15.92752         5.70474
     2012.80492         5.12448         5.48658
     2012.80766         5.95443         6.02063
     2012.81040         1.13838         5.48559
     2012.81314        -1.25466         5.48757
     2012.81587        -1.63771         5.56062
     2012.81861        -3.88175         5.66920
     2012.82135        -2.63780         5.58036
     2012.82409        -4.08985         5.66525
     2012.82683         0.55511         5.60306
     2012.82956        -3.86594         5.52113
     2012.83230        -3.10699         5.50928
     2012.83504        -0.95003         5.64551
     2012.83778        -0.92108         5.54186
     2012.84052        -0.48112         5.56160
     2012.84257        -4.37566         7.62672
     2012.85968         3.76855         5.52508
     2012.86242        -0.28049         5.54877
     2012.86516         1.31446         5.55272
     2012.86789        -4.55659         5.74225
     2012.87063        -7.01363         5.49152
     2012.87337        -6.40668         5.47572
     2012.87611        -1.76772         5.51718
     2012.87885         4.98323         5.44512
     2012.88158         6.82318         5.54285
     2012.88432        -1.63286         5.49546
     2012.88706         1.96409         5.54976
     2012.88980         2.89604         5.66328
     2012.89253        -2.71100         5.45993
     2012.89527        -4.66305         5.45104
     2012.89801        -1.16609         5.42834
     2012.90075        -0.07414         5.47177
     2012.90349        -3.48419         6.45497
     2012.90622        -2.06823         5.35825
     2012.90896         0.62472         5.48362
     2012.91170         1.44168         5.43722
     2012.91444         0.21663         5.46190
     2012.91718         3.10758         5.42735
     2012.91991        13.38754         5.50139
     2012.92265         4.11849         5.39181
     2012.92539         1.52244         5.41649
     2012.92813        -4.88560         5.40366
     2012.93086        -8.23565         5.58826
     2012.93360        -2.15369         5.50139
     2012.93634         0.46426         5.40662
     2012.93908        -4.51579         5.43031
     2012.94182         0.06017         5.39181
     2012.94455         2.45612         5.39774
     2012.94729         4.89807         5.45697
     2012.95003         2.70403         5.44018
     2012.95277         7.80198         5.39181
     2012.95551        12.01994         5.38688
     2012.95824         1.55089         5.46585
     2012.96098         1.89384         5.59122
     2012.96372         6.74080         5.45795
     2012.96646         3.88175         5.46289
     2012.96919         3.59871         5.45499
     2012.97193         4.43066         5.50139
     2012.97467         1.67161         5.40662
     2012.97741         3.17157         5.39477
     2012.98015         1.76052         5.34937
     2012.98288        -0.35053         5.35233
     2012.98562       -12.27557         5.44216
     2012.98836       -16.55162         5.68993
     2012.99110       -11.22266         5.48263
     2012.99384        -8.48471         5.51126
     2012.99657       -11.38876         5.60701
     2012.99931       -15.05880         5.50534
     2013.00205       -14.03185         5.47276
     2013.00479       -18.51389         5.49448
     2013.00752       -23.42594         5.47770
     2013.01026       -15.30599         5.68895
     2013.01300       -19.18403         5.49349
     2013.01574       -12.97708         5.53890
     2013.01848       -16.40213         5.47079
     2013.02669        -9.10826         5.74521
     2013.02943        -3.26131         5.54285
     2013.03216        -5.37636         5.50830
     2013.03490       -12.07940         5.51521
     2013.03764       -17.47845         5.50830
     2013.04038       -16.27450         5.56950
     2013.04312       -15.96554         5.58233
     2013.04585       -12.47159         5.83011
     2013.04859       -17.34063         5.68993
     2013.05133       -13.15668         5.57049
     2013.05407       -17.05073         5.58826
     2013.05681        -8.67077         5.58826
     2013.05954       -12.80082         5.62379
     2013.06228        -9.45786         5.76101
     2013.06502       -11.09691         5.69783
     2013.06776        -7.14996         5.61590
     2013.07049        -3.85800         5.62379
     2013.07323        -3.22805         5.43920
     2013.07597        -0.98210         5.47375
     2013.07871        -4.66514         5.57246
     2013.08145        -1.74019         5.47572
     2013.08418        -3.04223         5.38885
     2013.08692        -6.94728         5.44709
     2013.08966       -11.15533         5.44907
     2013.09240        -5.94337         5.46585
     2013.09514         2.25558         5.51916
     2013.09787        -2.47646         5.74521
     2013.10061        -0.54051         5.85183
     2013.10335        -5.37356         5.45104
     2013.10609        -3.75460         5.38589
     2013.10882        -7.46365         5.52508
     2013.11156        -4.46370         5.63465
     2013.11430        -1.83274         5.49152
     2013.11704       -10.34479         5.50632
     2013.11978        -7.16183         5.57937
     2013.12251        -9.88288         5.39083
     2013.12525       -12.49693         5.95844
     2013.12799        -9.62197         5.48757
     2013.13073        -2.30602         5.57147
     2013.13347        -4.51707         5.48461
     2013.13620        -3.52311         5.51916
     2013.13894         0.29484         5.50435
     2013.14168        -2.63720         5.54087
     2013.14442        -1.68525         5.64847
     2013.14715         1.28070         5.71560
     2013.14989        -3.79134         5.52705
     2013.15263        -8.57139         5.49349
     2013.15537       -12.96743         5.47079
     2013.15811        -9.26248         5.48066
     2013.16084       -11.17453         5.50336
     2013.16358        -6.90757         5.55864
     2013.16632        -8.69662         5.50830
     2013.16906         0.56633         5.58628
     2013.17180        -5.39471         5.46091
     2013.17453        -5.90376         5.47276
     2013.17727        -0.92980         5.68401
     2013.18001        -9.59585         5.68598
     2013.18275        -1.69090         5.50928
     2013.18548         0.62506         5.51027
     2013.18822        -9.90499         5.49250
     2013.19096        -2.61504         5.50040
     2013.19370        -6.69208         5.51027
     2013.19644        -7.83413         5.61096
     2013.19917        -6.98417         5.60109
