# ================= DQRFIT RESULTS ================
# INPUT FILE: series/GHCL.rad
# OUTPUT: LDETRENDED
# FILTER FUNCTION: f(t)
# f(t)=+line(t)+annual(t)
# line(t)=+P 1+P 2*t
# annual(t)=+P 3*sin(2*pi*t+P 4)
# heav(t)=(t<0?0:1)
# TOTAL OBSERVATIONS MTOT= 1049
# INITIAL TIME INTERVAL= 2022.7488 - 2019.7728 =  2.9760
# TOTAL OBSERVATIONS AFTER PREFILTER M= 1041
# TIME-SPAN= 2022.7488 - 2019.7728 =  2.9760
# OBSERVATIONS: USED M=  1041 REJECTED MTOT-M=     8 %USED=   99.2374
# N=  4 PARAMETERS
# MAXSIG= 175.00000
# MAXRES=  23.29390
# SCALE FACTOR FOR LENGTHS: SCL=  10.00000
# SCALE FACTOR FOR SIGMAS: SCLSIG=   1.00000
# CHI^2=   1082.120 DOF=  1037 CHI^2/DOF=   1.04351
# RMS=      5.878 SDEV=      5.879 MEAN=    0.12239
#  P #       PARAMETER +-    SIGMA %error PARAMETER NAME
# P 1 =     -3269.56430 +-  427.524  13.08 YZERO                              
# P 2 =         1.62790 +-    0.212  12.99 SLOPE                              
# P 3 =         4.75209 +-    0.258   5.42 ANNUAL AMPLITUDE                   
# P 4 =        -2.90691 +-    0.075   2.56 ANNUAL PHASE                       
#       T            LDETRENDED       SIG_OBS
     2019.77275        10.58701         5.72257
     2019.77549         6.30255         5.66128
     2019.77823        15.01009         5.62451
     2019.78097        11.12963         5.67967
     2019.78371        13.91518         5.56730
     2019.78644        13.11872         5.76241
     2019.78918       -10.08474         5.87580
     2019.79192         7.35981         5.70214
     2019.79466        11.78635         5.84516
     2019.79739         9.74489         5.88193
     2019.80013         9.63744         5.57139
     2019.80287         5.80298         5.63574
     2019.80561        -2.85948         5.90032
     2019.80835         9.02307         5.52746
     2019.81108         9.11761         5.63677
     2019.81382        12.13015         5.79510
     2019.81656        13.89769         5.54483
     2019.81930         4.08124         5.54279
     2019.82203         3.62978         5.53768
     2019.82477         9.97332         5.59182
     2019.82751         7.23087         5.58875
     2019.83025        12.97541         5.65413
     2019.83299         2.61195         5.66435
     2019.83572         4.09150         5.61021
     2019.83846         9.49804         5.56117
     2019.84120        10.07558         5.53257
     2019.84394         3.63312         5.71849
     2019.84668         0.89667         5.55811
     2019.84941         4.83721         5.52338
     2019.85215         5.73175         5.66639
     2019.85489         6.26130         5.77569
     2019.85763        -4.61416         5.56117
     2019.86036         2.23438         5.62553
     2019.86310         0.15793         5.55198
     2019.86584        -0.85353         5.74505
     2019.86858         8.16701         5.74811
     2019.87132         5.81656         5.78182
     2019.87405         4.68410         5.52133
     2019.87679         7.26964         5.87580
     2019.87953        -0.09982         5.67967
     2019.88227        15.27973         5.61838
     2019.88501        10.55427         5.56219
     2019.88774        11.88681         5.65311
     2019.89048        11.74136         5.53972
     2019.89322         7.36490         5.83596
     2019.89596         2.05744         5.63881
     2019.89869        10.13899         5.55607
     2019.90143         8.86153         5.49886
     2019.90417        12.86007         5.63881
     2019.90691        16.25362         5.51010
     2019.90965         8.98616         5.50397
     2019.91238        15.00170         5.52440
     2019.91512        23.06224         5.59182
     2019.91786        10.90979         5.50499
     2019.92060        13.65233         5.45289
     2019.92334         9.33887         5.53870
     2019.92607         8.77042         5.51520
     2019.92881        12.95596         5.63983
     2019.93155        -1.04750         5.56628
     2019.93429         3.92305         5.55096
     2019.93702         4.54759         5.48762
     2019.93976        -2.82187         5.64800
     2019.94250        -2.96833         5.54585
     2019.94524        -9.26878         5.63983
     2019.94798        -2.39424         5.59693
     2019.95071         1.30030         5.79306
     2019.95345         2.77585         5.55198
     2019.95619         2.83539         5.52031
     2019.95893        -0.89107         5.64187
     2019.96167         7.17648         5.55504
     2019.96440        -1.68298         5.74300
     2019.96714        -9.60444         5.63370
     2019.96988        -8.87989         5.57956
     2019.97262        -4.18835         5.58569
     2019.97535        -3.31681         5.52644
     2019.97809        -4.03327         5.55913
     2019.98083        -1.06872         5.51623
     2019.98357        -4.35618         5.55504
     2019.98631        -5.53464         5.55402
     2019.98904        -4.05409         5.62859
     2019.99178        -2.89255         5.50703
     2019.99452        -4.05701         5.62962
     2019.99726        -2.39346         5.72257
     2020.00000         3.47708         5.66741
     2020.00273        -2.41038         5.58875
     2020.00547         4.17517         5.93301
     2020.00821        -5.05229         5.75424
     2020.01095         0.38625         5.71134
     2020.01368       -12.15521         5.64800
     2020.01642       -14.17866         5.66945
     2020.01916       -11.08812         5.81962
     2020.02190         0.49542         5.64290
     2020.02464        -6.14903         5.71542
     2020.02737         2.14251         5.52848
     2020.03011        -6.18495         5.53257
     2020.03285         6.84460         5.54687
     2020.03559         5.06614         5.47741
     2020.03833        19.22968         5.53155
     2020.04106         0.73522         5.70010
     2020.04380         1.63877         5.59591
     2020.04654       -10.44969         5.38751
     2020.04928       -12.43315         5.51010
     2020.05201       -10.44560         5.49171
     2020.05475        -3.43906         5.52542
     2020.05749        -7.08252         5.38036
     2020.06023        -8.52897         5.45493
     2020.06297        -9.63043         5.47843
     2020.06570       -11.61089         5.48558
     2020.06844        -9.10934         5.59591
     2020.07118        -1.49180         5.48149
     2020.07392        -1.16526         5.61225
     2020.07666        -9.12672         5.49477
     2020.07939        -7.79817         5.44268
     2020.08213        -4.92663         5.51520
     2020.08487       -12.48809         5.52133
     2020.08761         1.92946         5.49069
     2020.09034        -4.57800         5.45902
     2020.09308         2.23454         5.44165
     2020.09582        -3.92391         5.48047
     2020.09856        -6.37937         5.50908
     2020.10130       -13.39983         5.49580
     2020.10403         2.16472         5.59488
     2020.10677        -5.92274         5.57139
     2020.10951        -3.74820         5.41510
     2020.11225         0.61834         5.44370
     2020.11498        -5.65211         5.43042
     2020.11772        -4.50457         5.65311
     2020.12046        -3.51703         5.60918
     2020.12320       -10.81248         5.49988
     2020.12594        -4.05594         5.44676
     2020.12867        -8.45240         5.44778
     2020.13141        -2.98585         5.51725
     2020.13415        -2.37231         5.42940
     2020.13689         2.38523         5.53666
     2020.13963         1.07177         5.58365
     2020.14236        -2.65768         5.49784
     2020.14510         5.76386         5.60714
     2020.14784        -0.96060         5.45085
     2020.15058        -5.68305         5.47945
     2020.15331        -6.56351         5.47639
     2020.15605         0.15603         5.48660
     2020.15879        -2.44442         5.43757
     2020.16153        -4.01888         5.59386
     2020.16427         0.07066         5.42838
     2020.16700        -3.70879         5.46924
     2020.16974        -3.95625         5.59386
     2020.17248        -1.27971         5.73483
     2020.17522        -1.48717         5.44676
     2020.17796        -3.55962         5.44881
     2020.18069        -7.19508         5.41101
     2020.18343        -0.78554         5.43961
     2020.18617        -1.38499         5.42020
     2020.18891        -1.25945         5.55709
     2020.19164       -11.49391         5.61429
     2020.19438        -3.95036         5.52031
     2020.19712        -5.23582         5.49784
     2020.19986        -0.16628         5.53155
     2020.20260        -1.97273         5.64902
     2020.20533        -4.50919         5.54176
     2020.20807         0.49735         5.56526
     2020.21081        -6.76111         5.59386
     2020.21355        -3.12256         6.03822
     2020.21629        -1.40802         5.81758
     2020.21901        -3.31145         5.66639
     2020.22179       -12.20998         5.73892
     2020.22450        -7.76239         5.58569
     2020.22724        -8.95685         5.52338
     2020.22997        -4.12230         5.52746
     2020.23271         0.64324         5.57650
     2020.23545        -5.01422         5.49477
     2020.23819       -15.01668         5.51418
     2020.24093        -9.08013         5.56117
     2020.24366        -6.54859         5.62451
     2020.24640        -2.80605         5.61123
     2020.24914        -9.65050         5.58978
     2020.25188        -5.30596         5.52133
     2020.25462        -9.54442         5.52951
     2020.25735         0.02313         5.56935
     2020.26009         6.62467         5.51010
     2020.26283         3.62021         5.52338
     2020.26557         0.04676         5.53870
     2020.26830        -3.58970         5.59999
     2020.27104         1.05184         5.55504
     2020.27378        -3.71862         5.51725
     2020.27652        -0.54807         5.55811
     2020.27929         0.40842         5.77263
     2020.28199         0.35601         5.94424
     2020.28473        -7.07044         5.61736
     2020.28747        -6.68590         5.66435
     2020.29021        -1.96236         5.60714
     2020.29295        -1.48381         5.52848
     2020.29568         0.67373         5.64800
     2020.29842        -0.62473         5.52746
     2020.30116         0.18082         5.54279
     2020.30390         2.01636         5.54687
     2020.30663        -2.41510         5.58160
     2020.30937        -7.87356         5.64085
     2020.31211        -2.20601         5.62655
     2020.31485       -12.59747         5.70419
     2020.31759        -4.47493         5.47537
     2020.32032        -4.76238         5.72972
     2020.32306         0.91216         5.55504
     2020.32580        -1.80630         5.58263
     2020.32854        -4.68175         5.56015
     2020.33128       -11.10121         5.52746
     2020.33401        -8.16567         5.47741
     2020.33675         0.34687         5.51929
     2020.33949        -4.26858         5.51010
     2020.34223        -4.80504         5.67354
     2020.34496        -8.71750         5.68478
     2020.34770        -9.93195         5.48558
     2020.35044        -2.73141         5.62859
     2020.35318        -0.98787         5.62553
     2020.35592        -1.02332         5.59182
     2020.35865        -0.98678         5.55300
     2020.36139        -7.39524         5.49682
     2020.36413        -9.77469         5.58058
     2020.36687        -2.45915         5.58671
     2020.36961        -3.72761         5.49069
     2020.37234        -1.91007         5.47639
     2020.37508        -8.60452         5.57547
     2020.37782        -2.02798         5.50601
     2020.38056        -5.25244         5.49273
     2020.38329        -2.19089         5.48865
     2020.38603         1.95965         5.52542
     2020.38877         5.50719         5.57241
     2020.39151        -1.64226         5.47230
     2020.39425        -2.49872         5.48660
     2020.39698        -3.45918         5.57854
     2020.39972        -1.79263         5.52031
     2020.40246        -4.05909         5.55504
     2020.40520         2.14645         5.55504
     2020.40794        -2.96201         5.60306
     2020.41067        -2.80646         5.68478
     2020.41341        -0.14192         5.51112
     2020.41615         0.72462         5.46311
     2020.41889         1.59117         5.52440
     2020.42162        -3.00929         5.66843
     2020.42436        -0.23475         5.86150
     2020.42710        -4.51420         5.76752
     2020.42984        -7.53766         5.54483
     2020.43258         1.77088         5.61429
     2020.43531        -3.79258         5.59897
     2020.43805       -14.85203         5.74913
     2020.44079        -8.50149         5.57854
     2020.44353         2.06605         5.66537
     2020.44626        -9.29240         5.54687
     2020.44900        -5.85386         5.54074
     2020.45174        -1.82532         5.52133
     2020.45448       -12.42377         5.56015
     2020.45722        -9.37923         5.47843
     2020.45995         0.94331         5.45596
     2020.46269        -8.79714         5.53155
     2020.46543         0.13040         5.56322
     2020.46817        -2.21106         5.62144
     2020.47091        -2.05152         5.51418
     2020.47364        -3.48397         5.50090
     2020.47638         2.66057         5.55402
     2020.47912        -1.84789         5.62144
     2020.48186        -2.75334         5.57547
     2020.48459        -6.81680         5.77161
     2020.48733         4.11474         5.79408
     2020.49007        -4.28271         5.68273
     2020.49281         2.42183         5.56322
     2020.49555        -0.36363         5.70214
     2020.49828        -2.03408         5.54789
     2020.50102        -6.03854         5.47945
     2020.50376        -1.92300         5.56935
     2020.50650        -7.21446         5.54585
     2020.50924        -4.86991         5.47945
     2020.51197        -1.63537         5.55913
     2020.51471        -5.84183         5.50090
     2020.51745         0.11772         5.49580
     2020.52019         4.36426         6.00962
     2020.52292         0.32180         5.59999
     2020.52566        -1.85165         5.76650
     2020.52840        -4.27811         5.64800
     2020.53114         2.12343         5.55709
     2020.53388        -1.38803         5.62553
     2020.53661        -0.03948         5.70623
     2020.53935        -4.21394         5.75118
     2020.54209         0.46660         5.67456
     2020.54483         3.00215         5.63983
     2020.54757        -0.48031         5.63268
     2020.55030         2.27623         5.69295
     2020.55304         0.38878         5.71236
     2020.55578         4.66232         5.67661
     2020.55852         5.59586         5.56219
     2020.56125         6.44841         5.58671
     2020.56399         6.47295         5.61021
     2020.56673        -2.12851         5.62451
     2020.56947        -0.12597         5.64085
     2020.57221         3.95558         5.87580
     2020.57494        -1.63288         5.71849
     2020.57768         5.01966         5.71236
     2020.58042         0.83221         5.65822
     2020.58316        -4.47525         5.64290
     2020.58590        -1.45171         5.67150
     2020.58863         4.27584         5.58569
     2020.59137         2.45738         5.66945
     2020.59411         7.40092         5.63268
     2020.59685        -0.29753         6.07296
     2020.59958        -1.75799         5.83188
     2020.60232         2.62455         5.61531
     2020.60506         3.05909         5.62962
     2020.60780         6.59964         5.75526
     2020.61054         5.42018         5.66230
     2020.61327         7.19072         5.74811
     2020.61601         7.86927         5.65822
     2020.61875         4.91481         5.63574
     2020.62149        -2.29865         5.71440
     2020.62423         1.78790         5.83086
     2020.62696         2.17544         6.07193
     2020.62970        -0.71802         5.69806
     2020.63244         7.46052         5.64290
     2020.63518         0.20507         5.76650
     2020.63791        -7.07039         6.09032
     2020.64065        -3.25585         5.67150
     2020.64339        -1.44930         5.73381
     2020.64613         3.39724         5.73688
     2020.64887         5.50678         5.59591
     2020.65160         1.07733         5.59284
     2020.65434        -0.64613         5.63574
     2020.65708        -1.16359         5.76139
     2020.65982         1.23196         5.77059
     2020.66256         4.24650         5.62962
     2020.66529        11.97704         5.81758
     2020.66803        -0.72242         5.64902
     2020.67077        -6.78487         5.97080
     2020.67351         3.36467         5.69091
     2020.67624         5.88921         5.66230
     2020.67898        -1.40324         5.76956
     2020.68172        -1.17470         5.68784
     2020.68446         4.04384         5.91156
     2020.68720         4.04839         5.79612
     2020.68993         3.56593         5.68069
     2020.69267         6.59247         5.70827
     2020.69541         4.59702         5.87069
     2020.69815         6.71056         5.69193
     2020.70089         5.90510         5.58160
     2020.70362         8.70964         5.74709
     2020.70636         7.00019         6.18737
     2020.70910        -7.87827         6.29463
     2020.71184         6.53427         5.81655
     2020.71457        -2.04018         5.95548
     2020.71731        -2.97364         5.80634
     2020.72008        -7.16015         5.90338
     2020.72279         4.18245         5.69704
     2020.72553         8.35199         5.76548
     2020.72826        -2.88647         6.22312
     2020.73100        -4.00393         5.84209
     2020.73374        -4.41538         5.82881
     2020.73648         1.08016         5.80736
     2020.73921        -3.39030         5.70112
     2020.74195         4.08725         5.56832
     2020.74469         6.39279         5.66843
     2020.74743         2.90933         5.66333
     2020.75017         4.93488         5.71951
     2020.75290         2.44742         5.69499
     2020.75564        -0.56304         5.52338
     2020.75838         5.93651         5.67456
     2020.76112         0.82605         5.58978
     2020.76386        -1.63441         5.61327
     2020.76659         6.54713         5.59386
     2020.76933         9.74668         5.70929
     2020.77207         2.36922         5.58569
     2020.87611         1.91186         5.82677
     2020.87885         6.37940         5.87989
     2020.88158         7.99994         5.82677
     2020.88432         3.46949         5.61123
     2020.88706         2.75703         6.04742
     2020.88980         8.98057         5.68784
     2020.89253         6.30212         5.67252
     2020.89527        12.87766         6.20065
     2020.89801        14.66720         5.84516
     2020.90075         0.89474         5.75731
     2020.90349         8.04029         5.63268
     2020.90622         9.10183         5.61123
     2020.90896         3.38737         5.91666
     2020.91170         9.24392         6.07704
     2020.91444        10.20946         5.93199
     2020.91718         7.34400         5.72666
     2020.91991         5.12755         5.61225
     2020.92265         4.82509         5.65413
     2020.92539         2.41763         5.63779
     2020.92813        -3.97883         5.67048
     2020.93086        -3.80728         5.61123
     2020.93360         1.10326         5.66026
     2020.93634        -4.69220         5.62553
     2020.93908        -0.59965         5.63881
     2020.94182       -11.14111         5.62349
     2020.94455       -12.04057         5.66333
