# ================= DQRFIT RESULTS ================
# INPUT FILE: series/GHER.rad
# OUTPUT: LDETRENDED
# FILTER FUNCTION: f(t)
# f(t)=+line(t)
# line(t)=+P 1+P 2*t
# heav(t)=(t<0?0:1)
# TOTAL OBSERVATIONS MTOT=   79
# INITIAL TIME INTERVAL= 2015.3320 - 2015.1102 =  0.2218
# TOTAL OBSERVATIONS AFTER PREFILTER M=   79
# TIME-SPAN= 2015.3320 - 2015.1102 =  0.2218
# OBSERVATIONS: USED M=    79 REJECTED MTOT-M=     0 %USED=  100.0000
# N=  2 PARAMETERS
# MAXSIG= 175.00000
# MAXRES=  28.11741
# SCALE FACTOR FOR LENGTHS: SCL=  10.00000
# SCALE FACTOR FOR SIGMAS: SCLSIG=   1.00000
# CHI^2=    182.209 DOF=    77 CHI^2/DOF=   2.36635
# RMS=     12.095 SDEV=     12.170 MEAN=   -0.25036
#  P #       PARAMETER +-    SIGMA %error PARAMETER NAME
# P 1 =     42728.12283 +- ********  99.62 YZERO                              
# P 2 =       -21.28914 +-   21.122  99.22 SLOPE                              
#       T            LDETRENDED       SIG_OBS
     2015.11020         9.13081        13.27673
     2015.11294        -8.45992        12.41928
     2015.11567       -10.08463        12.29092
     2015.11841        -2.81746        12.21749
     2015.12115        -2.90601        13.19847
     2015.12389        16.54772        12.17861
     2015.12663         4.96681        11.32266
     2015.12936         1.45919        12.05475
     2015.13210         1.88365        11.28328
     2015.13758         5.55325        12.33208
     2015.14031        11.64022        11.91352
     2015.14305        -1.59316        12.93499
     2015.14579         0.59142        11.87409
     2015.14853       -14.14557        12.32364
     2015.15127        -4.51782        11.41690
     2015.15400         2.52900        11.66027
     2015.15674        -3.02973        12.03528
     2015.15948       -10.14908        12.19268
     2015.16222        13.28291        12.67947
     2015.16496         7.71614        12.81431
     2015.16769        28.11741        12.00465
     2015.17043        23.18034        11.99079
     2015.17317        -7.76856        12.01045
     2015.17591       -12.63344        11.24306
     2015.17864       -14.38413        12.50043
     2015.18138       -12.33820        12.56610
     2015.18412       -12.62289        11.75116
     2015.18686         3.65832        11.85195
     2015.18960         3.63390        11.87834
     2015.19233        -1.08760        12.48377
     2015.19507       -14.11201        12.38573
     2015.19781        -0.15819        12.18334
     2015.20055        10.28091        12.42404
     2015.20329        11.65688        12.75469
     2015.20602        16.77542        12.78013
     2015.20876        23.79063        11.63501
     2015.21150         5.82283        11.36427
     2015.21424        -3.73850        11.76490
     2015.21697         2.74721        12.36050
     2015.22245         3.46776        12.68630
     2015.22519       -13.30997        12.81596
     2015.22793       -27.92618        12.71377
     2015.23066        -4.05028        13.45722
     2015.23340        -9.89752        14.05247
     2015.23614       -12.45368        12.40144
     2015.23888       -11.48185        12.87683
     2015.24162        -9.94137        13.26720
     2015.24435       -12.26704        12.87370
     2015.24709         6.40928        11.96410
     2015.24983        15.54339        13.65816
     2015.25257        15.32743        11.59335
     2015.25530         3.29814        12.36262
     2015.25804       -10.45370        12.67018
     2015.26078       -16.51767        13.59971
     2015.26352        -2.63275        12.27030
     2015.26626       -12.01948        12.92477
     2015.26899       -13.68888        11.49523
     2015.27173       -22.79753        11.95831
     2015.27721       -12.02749        12.21496
     2015.27995        -7.23577        13.47483
     2015.28268        -9.48313        11.79714
     2015.28542       -15.40591        12.51313
     2015.28816       -12.52826        12.96577
     2015.29090         3.39097        12.52607
     2015.29363        20.62989        12.25617
     2015.29637       -11.64311        11.78414
     2015.29911        14.48782        11.59705
     2015.30185         2.70047        11.43802
     2015.30459        22.09349        12.92399
     2015.30732        26.50389        11.93908
     2015.31006        19.67799        11.28224
     2015.31280        11.68036        11.39094
     2015.31554        -6.38949        12.51581
     2015.31828         3.34963        12.61357
     2015.32101        -9.87428        12.48442
     2015.32375         6.17884        11.90301
     2015.32649        -4.11906        11.96078
     2015.32923         4.18918        12.57297
     2015.33196         1.01907        13.08820
