# ================= DQRFIT RESULTS ================
# INPUT FILE: series/GLNW.rad
# OUTPUT: LDETRENDED
# FILTER FUNCTION: f(t)
# f(t)=+line(t)+annual(t)
# line(t)=+P 1+P 2*t
# annual(t)=+P 3*sin(2*pi*t+P 4)
# heav(t)=(t<0?0:1)
# TOTAL OBSERVATIONS MTOT= 1329
# INITIAL TIME INTERVAL= 2011.7586 - 2007.8945 =  3.8641
# TOTAL OBSERVATIONS AFTER PREFILTER M= 1308
# TIME-SPAN= 2011.7586 - 2007.8945 =  3.8641
# OBSERVATIONS: USED M=  1308 REJECTED MTOT-M=    21 %USED=   98.4199
# N=  4 PARAMETERS
# MAXSIG= 175.00000
# MAXRES=  41.20564
# SCALE FACTOR FOR LENGTHS: SCL=  10.00000
# SCALE FACTOR FOR SIGMAS: SCLSIG=   1.00000
# CHI^2=   2004.403 DOF=  1304 CHI^2/DOF=   1.53712
# RMS=      8.132 SDEV=      8.135 MEAN=   -0.02760
#  P #       PARAMETER +-    SIGMA %error PARAMETER NAME
# P 1 =      4920.59606 +-  398.381   8.10 YZERO                              
# P 2 =        -2.44245 +-    0.198   8.11 SLOPE                              
# P 3 =         5.08444 +-    0.294   5.79 ANNUAL AMPLITUDE                   
# P 4 =        -3.04435 +-    0.082   2.68 ANNUAL PHASE                       
#       T            LDETRENDED       SIG_OBS
     2007.89448       -13.90245        33.32599
     2007.89642         2.24127         9.74860
     2007.89852        -0.35259         8.21991
     2007.91332        10.41856        13.45809
     2007.92151       -23.32343        13.87591
     2007.92340        -8.32283         7.95832
     2007.92614         3.40285         7.59133
     2007.92887       -31.12846         8.40341
     2007.93161         0.78623         7.48347
     2007.93435        -3.27208         7.42892
     2007.93709         0.87260         7.52562
     2007.93982        -3.31671         7.37189
     2007.94256        -1.34502         7.40660
     2007.94530         3.26966         7.48347
     2007.94804         0.73535         7.70292
     2007.95078         2.00004         7.53182
     2007.95345        -6.19243         7.54670
     2007.95619        -5.31374         7.44008
     2007.95893       -11.36905         7.46115
     2007.96214        18.77680        18.32557
     2007.96440        13.80732         8.03890
     2007.96695        -5.92847         8.47531
     2007.97081       -10.67004        14.05568
     2007.97182         6.87943        18.58965
     2007.98155         2.93020        10.81855
     2007.98357        -4.47587         7.73143
     2007.98616        11.23046         8.04138
     2007.98962         2.44691        12.58403
     2007.99178        -0.12281         7.81202
     2007.99452       -24.32512         7.60497
     2007.99726       -24.97043         7.73515
     2008.00045       -26.08863         8.95140
     2008.00268        -9.82520         7.38428
     2008.00667       -35.48845        23.44349
     2008.00916       -43.45335        13.75317
     2008.01095         1.72300         8.46788
     2008.01368         2.03369         7.22559
     2008.01642        -1.75362         7.16484
     2008.02013       -17.32957        12.97085
     2008.02190       -12.40825         8.48275
     2008.02736         3.77410        11.51408
     2008.03120       -33.50353        15.02025
     2008.03285        -9.57950         7.22435
     2008.03559        -4.42881         7.18096
     2008.03833         0.19687         7.45867
     2008.04106        -7.21944         7.23675
     2008.04380        -9.27075         7.54670
     2008.04654        -8.17807         7.21319
     2008.04928       -11.60738         7.26650
     2008.05201        -6.78469         7.15368
     2008.05475        -1.96501         7.16360
     2008.05749        -9.65432        10.36106
     2008.06023        -6.91363         7.83929
     2008.06297        -0.11694         6.97763
     2008.16275        13.08777        24.74033
     2008.16427       -21.93552         7.31486
     2008.16659        -8.25386         9.50807
     2008.19542        -0.49742        13.97881
     2008.19712       -10.78328        17.22587
     2008.19960        -3.38423         8.34018
     2008.20265        -1.04777         7.34957
     2008.20533        -1.56722         7.13384
     2008.20807        11.10547         7.63101
     2008.21047       -34.41668         9.76471
     2008.21389         3.74868        12.20589
     2008.21629        -2.19547         7.39296
     2008.22002       -37.63034        32.09858
     2008.22113        -9.90663        10.59166
     2008.22725       -22.09970        13.38123
     2008.23374       -11.27483        19.35089
     2008.23537         4.50215        17.30149
     2008.23902       -52.39893        15.58188
     2008.24053        -4.30726         8.61045
     2008.25289        11.30792        14.37927
     2008.25528         2.78376         9.77711
     2008.25735         3.44084         7.26278
     2008.25901        20.55688        15.96126
     2008.26648        -2.61187        12.86795
     2008.26830        -1.44542         8.74187
     2008.27104        -0.54173         9.05182
     2008.27378         7.79896         8.30546
     2008.27616         7.37078        13.63167
     2008.28294        18.54933        13.90566
     2008.28473         8.33071         7.37685
     2008.28747         7.80539         7.68060
     2008.29021         3.49308         7.33469
     2008.29295        12.85077         9.37541
     2008.29568         8.79446         9.83414
     2008.29842         4.92214         7.12888
     2008.30116         1.63683         7.09665
     2008.30390         1.75452         7.19707
     2008.30663        -3.92580         7.67688
     2008.30937        -4.67011         7.74879
     2008.31211        -2.31142         7.95460
     2008.31462        -3.80429         7.84673
     2008.32126         6.62794        13.50025
     2008.32306        -3.84167         7.46859
     2008.32580         5.50401         9.39525
     2008.32854         2.51170         7.42272
     2008.33096        -2.53438         8.46044
     2008.33493        -1.79770        12.99441
     2008.33675        -1.48424         7.35577
     2008.33949        -4.99755         8.14429
     2008.34120        -7.80737        14.46854
     2008.34521         5.31841         8.51995
     2008.34770         4.35451        11.92941
     2008.35029        -7.16618        16.78573
     2008.35408        -2.14292        12.13026
     2008.35500        -4.67566        12.55056
     2008.35962        24.80063        13.89575
     2008.36139         5.43894        11.50292
     2008.36413        -7.18437        11.21281
     2008.36687        -1.82768         7.56530
     2008.36961        -6.62499         7.43140
     2008.37234        -9.95231         7.13632
     2008.37508        -0.40662        11.92445
     2008.37781         0.93806         8.11453
     2008.38137        13.64374        12.77744
     2008.38329        -2.90756         8.80758
     2008.38603        15.91913         7.22187
     2008.38877        -0.08218         9.58246
     2008.39151         8.37750        10.73300
     2008.39425        -0.04481         6.99375
     2008.39698        -2.05012         7.06070
     2008.39972         3.81856         7.17228
     2008.40212         3.89641         8.25215
     2008.40601         3.24092        11.36034
     2008.40794         4.74562         7.66820
     2008.41067         0.55431         7.40040
     2008.41298        -5.17905         8.86585
     2008.41891         3.68644         7.52810
     2008.42162        -0.29394         7.26898
     2008.42447         4.31000         9.57254
     2008.42710        -7.76957         7.29378
     2008.42984         2.12912         7.49587
     2008.43256         1.30776         7.50827
     2008.44104       -14.51952         8.51871
     2008.44338        -2.84080         9.50187
     2008.44571       -10.07610         9.62709
     2008.45503         1.21265         9.34442
     2008.45722        -2.28501         7.46115
     2008.45995        -8.41132         7.07061
     2008.46269        -2.98963         7.35453
     2008.46543        -5.82595         7.12145
     2008.46718        -5.57268        15.24094
     2008.47464        14.93254        15.04629
     2008.47638         3.96480         7.21443
     2008.47912         0.41449         7.26774
     2008.48186         1.73217         7.53306
     2008.48459       -11.63114         7.53182
     2008.48733        -1.34245         7.31486
     2008.49007        -6.21976         7.23179
     2008.49281        -4.25208         7.48471
     2008.49555       -11.85239         7.51322
     2008.49828         0.65230         7.62853
     2008.50102         2.56298         7.46983
     2008.50376        -6.38433         7.84921
     2008.50650        -4.41664         7.42768
     2008.50924        11.50605         7.44504
     2008.51197       -15.56627         7.35205
     2008.51471         2.93642         7.14500
     2008.51745         4.77511         7.45619
     2008.52019         1.29779         7.48099
     2008.52292        -8.12952         7.74879
     2008.52566         1.17217         7.59381
     2008.52840        -0.84015         7.26650
     2008.53114         6.64254         7.33221
     2008.53388         6.10423         7.62233
     2008.53661        -3.30908         7.42396
     2008.53935         5.72260         7.57026
     2008.54209        -8.01071         7.33841
     2008.54483         6.20298         7.58141
     2008.54757        -2.06234         7.59877
     2008.55030         7.35335         7.26154
     2008.55304         5.07104         7.38924
     2008.55578        -5.06127         7.46859
     2008.55852        -0.55559         7.43140
     2008.56125         0.29010         7.17600
     2008.56399         3.36979         7.26774
     2008.56673        -2.10453         7.55290
     2008.56947        12.90216         7.38305
     2008.57221         9.12285         7.49339
     2008.57494        11.24753         7.79342
     2008.57768        10.72622         7.99179
     2008.58042         9.07791         7.33717
     2008.58316        -9.16340         7.48347
     2008.58590         3.25928         7.43760
     2008.58863         1.07497         7.51942
     2008.59137         1.32266         8.84106
     2008.59411         0.53434         7.22187
     2008.59685         4.64903         7.40784
     2008.59958         0.23472         7.70292
     2008.60232        10.60841         7.88517
     2008.60506        15.23909         7.56034
     2008.60780        25.42578         7.37437
     2008.61054        12.64347         7.28634
     2008.61327         7.73515         7.43016
     2008.61601         9.58884         7.60125
     2008.61875         2.26253         7.38305
     2008.62149         0.32521         7.60001
     2008.62423         7.41690         7.32973
     2008.62696        10.87659         7.60249
     2008.62970         8.40728         7.84301
     2008.63244         6.42596         7.41900
     2008.63514         9.28357         8.53482
     2008.63813         6.67487         9.68289
     2008.64066         2.37605         8.02155
     2008.64339         5.27571         7.33965
     2008.64613        20.53440         7.53058
     2008.64887         2.79409         7.76119
     2008.65160        10.84477         7.46115
     2008.65434         0.99746         7.76615
     2008.65708        10.98715         7.73143
     2008.65982         7.28483         7.98807
     2008.66255        12.77151         7.97195
     2008.66529         9.98121         7.66696
     2008.66803         5.46689         7.71531
     2008.67077        -2.70442         8.62285
     2008.67351         9.53728         7.86781
     2008.67624        17.18596         8.12817
     2008.67898         7.83864         7.51322
     2008.68172         3.43433         7.38305
     2008.68446         3.71902         7.32353
     2008.68720         3.22370         7.36941
     2008.68993        12.16139         7.85045
     2008.69267        -2.64092         7.45247
     2008.69541        12.54477         7.32725
     2008.69815         5.70945         7.37065
     2008.70089        12.13114         7.35825
     2008.70362         5.19183         7.48967
     2008.70636        12.64551         7.34957
     2008.70910         6.25620         7.40660
     2008.71184         9.43889         7.55290
     2008.71457         4.78057         7.31362
     2008.71731         2.05626         7.33965
     2008.72005         6.56895         7.31610
     2008.72279         6.35864         7.51570
     2008.72553        10.01232         7.43512
     2008.72826         7.78401         7.34337
     2008.73100        10.03070         7.41032
     2008.73374        23.71238         7.64712
     2008.73648         0.17107         7.24171
     2008.73921         3.41876         7.36817
     2008.74469         8.13613         7.34213
     2008.74743         5.82282         7.38428
     2008.75017         7.32051         7.37189
     2008.75290         7.77119         7.37809
     2008.75564         4.48788         7.46115
     2008.75838        10.00957         7.51694
     2008.76112        26.43425         7.41528
     2008.76386         6.65094         7.68184
     2008.76659       -14.19637         8.01163
     2008.76933         3.09232         7.34709
     2008.77207         4.75800         7.25535
     2008.77481         7.39769         7.22063
     2008.77754         6.73838         7.25039
     2008.78028         0.05906         7.21567
     2008.78302         4.82175         7.44380
     2008.78576        -0.00656         7.29006
     2008.78850         3.71312         7.54174
     2008.79123        24.86281         7.40660
     2008.79397        -1.27050         7.46487
     2008.79671        27.25419         7.38181
     2008.79945         4.35987         7.21815
     2008.80219         2.36356         7.59009
     2008.80492         7.25425         7.27270
     2008.80766         8.29093         7.33469
     2008.81040        13.74862         7.32973
     2008.81314        14.93031         7.34337
     2008.81587         7.28700         7.85417
     2008.81861         1.30268         7.23055
     2008.82135         3.47837         7.16236
     2008.82409         4.21306         7.27890
     2008.82683         4.21974         7.23055
     2008.82956        11.23943         7.23799
     2008.83230        -6.28088         7.38181
     2008.83504         8.40180         7.22187
     2008.83778        13.44850         7.65580
     2008.84058         2.98833         7.41900
     2008.84325         9.39587         7.11773
     2008.84599        14.07655         7.24171
     2008.84879        -0.22362         7.49215
     2008.85147         3.88893         7.31858
     2008.85420         2.64761         7.45123
     2008.85694        10.43930         7.20699
     2008.85968        30.94599         7.44008
     2008.86242        11.35768         7.40164
     2008.86516       -26.42364         7.84301
     2008.86789        -9.55995         7.49835
     2008.87063         8.93174         7.42396
     2008.87337        -0.32958         7.09293
     2008.87599         7.31783         7.50703
     2008.87914        -1.19547         8.31786
     2008.88158        -5.21952         7.14376
     2008.88432        -1.13083         7.35825
     2008.88706         1.46886         7.27642
     2008.88980         4.55055         7.61489
     2008.89253         6.15323         7.34833
     2008.89527         3.60392         7.24543
     2008.89801         5.43261         7.28510
     2008.90075         2.57029         7.33097
     2008.90326        -0.14158         8.06742
     2008.90724        18.35214        15.49262
     2008.90896         9.51536         7.19583
     2008.91170        11.18304         7.47851
     2008.91444         3.35873         7.23675
     2008.91718         1.93842         7.29378
     2008.91991        12.88010         7.54918
     2008.92265         2.00579         7.39792
     2008.92539         4.19748         7.20699
     2008.92813         2.49116         7.41032
     2008.93086         9.40485         7.30618
     2008.93360         2.45354         7.34461
     2008.93634         0.32723         7.47603
     2008.93908        -5.14809         7.25658
     2008.94182        -2.88040         7.66448
     2008.94455        -0.31071         7.31734
     2008.94729        -2.97603         7.30990
     2008.95003         2.36466         7.51446
     2008.95277         4.25435         7.06318
     2008.95551         5.29903         7.02350
     2008.95824        -0.50128         6.97391
     2008.96098         5.23841         7.17476
     2008.96372         0.40510         7.09541
     2008.96646        12.81878         7.29130
     2008.96919        11.21447         7.10409
     2008.97193        -5.59784         7.14252
     2008.97395        -7.03692        10.43049
     2008.97758        -0.55505         7.66076
     2008.98015         8.67722         8.35629
     2008.98255         9.16309         8.56954
     2008.98540         8.87806         8.30298
     2008.98931       -30.79740        13.24113
     2008.99110        -4.97503         7.48843
     2008.99384        -3.56535         7.61861
     2008.99657       -24.63566         7.24295
     2008.99931       -24.50397         7.68432
     2009.00752        15.53409         7.21691
     2009.01300        28.99446         7.40288
     2009.01574         2.79315         7.45619
     2009.02121       -13.28448         7.42892
     2009.02395        -7.75879         7.40784
     2009.02669       -19.35410         7.20203
     2009.02943        -5.93641         7.47603
     2009.03216       -18.40373         7.22931
     2009.03490        -5.29104         7.04582
     2009.03764       -13.78235         7.11401
     2009.04038        -7.68467         7.13012
     2009.04312        -8.39998         7.06441
     2009.04585       -10.64229         7.14872
     2009.04859        -8.92061         7.09045
     2009.05133       -11.01492         7.02970
     2009.05407        -9.78823         7.20451
     2009.05681        -4.05454         7.04582
     2009.05960        -7.28472         7.26650
     2009.06228        -0.99117         7.16856
     2009.06502        -4.98948         7.09665
     2009.06776        -8.72580         7.14872
     2009.07049        -4.58811         7.04954
     2009.07323        -8.23042         7.06937
     2009.07597        -1.81773         7.13632
     2009.07871        -5.51205         7.33965
     2009.08145        -8.71536         7.06937
     2009.08418        -7.80067         7.45123
     2009.08692        -9.07299         7.28014
     2009.08966        -4.72730         7.10657
     2009.09240        -5.11961         7.14996
     2009.09514        -3.92493         7.10037
     2009.09787         0.42176         7.21691
     2009.10061        -0.14455         7.14996
     2009.10335        -1.43086         7.09417
     2009.10609         2.12282         7.10781
     2009.10839         4.82144         8.94768
     2009.11439       -14.10890         7.37313
     2009.11704        -4.01443         7.23303
     2009.11978         1.62126         7.11029
     2009.12251        -0.61405         7.14748
     2009.12525        -7.30937         7.07061
     2009.12799         2.79032         7.01854
     2009.13073         0.07801         7.21071
     2009.13347        -2.47631         7.17352
     2009.13620        -5.16962         7.13632
     2009.13894        -3.81193         7.14748
     2009.14168        -1.90325         7.13384
     2009.14442        -5.84956         7.12888
     2009.14989       -22.50218         7.53430
     2009.15263        -7.31650         7.20575
     2009.15537        -9.95981         7.28758
     2009.15811        -2.63312         7.37313
     2009.16084        -4.42844         7.34833
     2009.16358        -5.88375         8.22487
     2009.16632       -12.84206         7.73391
