# ================= DQRFIT RESULTS ================
# INPUT FILE: series/GLWD.rad
# OUTPUT: LDETRENDED
# FILTER FUNCTION: f(t)
# f(t)=+line(t)+annual(t)
# line(t)=+P 1+P 2*t
# annual(t)=+P 3*sin(2*pi*t+P 4)
# heav(t)=(t<0?0:1)
# TOTAL OBSERVATIONS MTOT= 2787
# INITIAL TIME INTERVAL= 2022.7488 - 2011.8247 = 10.9241
# TOTAL OBSERVATIONS AFTER PREFILTER M= 2745
# TIME-SPAN= 2022.7488 - 2011.8247 = 10.9241
# OBSERVATIONS: USED M=  2745 REJECTED MTOT-M=    42 %USED=   98.4930
# N=  4 PARAMETERS
# MAXSIG= 175.00000
# MAXRES=  38.54525
# SCALE FACTOR FOR LENGTHS: SCL=  10.00000
# SCALE FACTOR FOR SIGMAS: SCLSIG=   1.00000
# CHI^2=   3205.794 DOF=  2741 CHI^2/DOF=   1.16957
# RMS=      7.450 SDEV=      7.448 MEAN=   -0.20087
#  P #       PARAMETER +-    SIGMA %error PARAMETER NAME
# P 1 =      3511.26595 +-   92.931   2.65 YZERO                              
# P 2 =        -1.74271 +-    0.046   2.64 SLOPE                              
# P 3 =         5.23054 +-    0.194   3.70 ANNUAL AMPLITUDE                   
# P 4 =         3.12700 +-    0.052   1.67 ANNUAL PHASE                       
#       T            LDETRENDED       SIG_OBS
     2011.82472         3.14431         7.69680
     2011.82745         3.16308         6.87597
     2011.83028        -1.95800         7.33559
     2011.83293         2.69962         7.02197
     2011.83567        -2.38261         7.17013
     2011.83841         6.21016         7.29233
     2011.84114        14.55694         6.94194
     2011.84388        10.16871         7.13660
     2011.84662         4.27848         7.11930
     2011.84936        -1.28875         7.05874
     2011.85209        -0.07198         7.28693
     2011.85483         0.22579         7.30207
     2011.85757         0.79256         7.34965
     2011.86031        10.99634         7.15499
     2011.86305         5.49311         7.74763
     2011.86579         3.00189         7.46212
     2011.86820       -15.89391         8.46356
     2011.87425       -10.14337         8.25592
     2011.87673       -12.69404         7.35398
     2011.87947        -7.47327         7.22528
     2011.88221        -0.79149         7.17013
     2011.88495         2.61528         7.04792
     2011.88769        -6.33395         7.13552
     2011.89042        -2.51218         7.04684
     2011.89316        -9.61241         7.18743
     2011.89590        -8.40464         7.09442
     2011.89864       -18.87487         7.16039
     2011.90138        -5.94810         7.07496
     2011.90411        -5.89732         7.15499
     2011.90685        -8.28355         7.04684
     2011.90959        -5.10778         6.93869
     2011.91233         1.54899         7.16472
     2011.91506         0.27376         6.93545
     2011.91780         1.96753         7.29450
     2011.92054       -10.11270         6.88895
     2011.92328        -7.20493         6.97330
     2011.92602       -12.16215         7.01223
     2011.92875         0.12962         7.03603
     2011.93149         3.87639         7.16039
     2011.93423        -1.15884         6.96357
     2011.93697        -3.23407         6.92247
     2011.93971        -5.34230         6.94410
     2011.94244         0.45747         6.99060
     2011.94518         7.02724         7.05765
     2011.94792         4.68602         6.99277
     2011.95066         1.26679         6.84028
     2011.95339        -4.05544         7.09442
     2011.95613         0.09133         7.13660
     2011.95887         0.89510         6.88354
     2011.96161         2.16887         6.93761
     2011.96444         2.23580         7.28693
     2011.96708        -9.08558         6.89976
     2011.96982         8.62319         6.84461
     2011.97256        -4.49404         6.82189
     2011.97530         4.26973         6.83595
     2011.97804         7.24750         6.88786
     2011.98077         2.35427         6.90517
     2011.98351        -1.26396         6.88678
     2011.98625         9.25881         6.85109
     2011.98899        -8.53841         7.07604
     2011.99172         0.61636         7.28368
     2011.99446        -2.35787         6.88895
     2011.99720         4.56290         6.88462
     2012.00268         3.80244         6.76782
     2012.00541         6.63221         6.95383
     2012.00815        -4.59002         6.97114
     2012.01089        -2.23724         6.96140
     2012.01363         5.78653         6.82189
     2012.01618         6.38397         7.53674
     2012.03376        -6.66438        12.47580
     2012.03553        -3.78830         6.84136
     2012.03827        -4.11353         6.74835
     2012.04101        -1.40076         6.77431
     2012.04374        -4.94999         6.71807
     2012.04579       -14.93842         9.96356
     2012.06582       -15.60352         7.43292
     2012.06838       -10.42305         6.75160
     2012.07112        -2.96428         6.61966
     2012.07386         4.88849         6.72024
     2012.07660        -7.26773         6.67698
     2012.07934         7.78104         6.79053
     2012.08207         9.22581         6.70293
     2012.08481        -6.83142         6.78404
     2012.08755        -0.72265         6.72024
     2012.09029        -5.06988         6.63264
     2012.09303         0.08689         6.65535
     2012.09576        -1.75633         6.67157
     2012.09850        -3.03256         6.69969
     2012.10124        -3.76079         6.91598
     2012.10332        -5.80516         9.57315
     2012.25730        -6.20283         6.90625
     2012.26003        -8.22806         6.89543
     2012.26277        -6.68829         6.90517
     2012.26551        -8.48252         6.83595
     2012.26825        -7.82274         6.83704
     2012.27099        -8.36097         6.91057
     2012.27372       -10.89420         6.96573
     2012.27646        -7.70443         6.98087
     2012.27920        -7.13866         7.21771
     2012.28194         0.00511         6.92139
     2012.28467        -2.85812         6.86840
     2012.28741        -4.83935         6.88029
     2012.29015       -11.96257         6.88895
     2012.29289        -7.77180         6.89219
     2012.29563        -1.79203         7.07604
     2012.29817        -3.20960         7.73465
     2012.33122        -0.82300         7.22744
     2012.33396        -0.22823         7.23718
     2012.33669        -8.44646         6.91166
     2012.33943        -5.81869         7.03819
     2012.34217       -17.93692         7.00683
     2012.34491       -17.57815         6.91706
     2012.34765       -15.02638         7.15499
     2012.35038       -11.93661         6.91706
     2012.35312       -11.73383         6.98411
     2012.35586        -7.62906         6.88138
     2012.35860        -8.17129         6.85866
     2012.36133        -6.11752         6.79161
     2012.36408       -11.37374         7.99204
     2012.36681        -6.04698         6.90949
     2012.36955        -7.96321         6.96249
     2012.37229       -12.42544         7.05333
     2012.37502        -6.79166         6.96465
     2012.37776        -8.96289         6.95492
     2012.38050        -9.24612         6.95924
     2012.38324        -1.22235         6.87813
     2012.38598        -0.92958         7.02845
     2012.38871        -3.87681         7.06414
     2012.39145         3.35796         7.07171
     2012.39419       -10.58027         6.81108
     2012.39693        -7.37049         7.01331
     2012.39966        -5.34372         6.86083
     2012.40240       -12.22195         7.18094
     2012.40514        -7.11818         7.02737
     2012.40788       -12.75241         6.97330
     2012.41062        -1.31164         6.94518
     2012.41335       -13.76587         7.06306
     2012.41609         1.49690         7.15390
     2012.41883         2.22268         7.17229
     2012.42157        -2.78655         7.03062
     2012.42431        -4.77278         6.78404
     2012.42704        -8.50201         6.86732
     2012.42978        -1.95324         6.80675
     2012.43252        -2.80247         6.96681
     2012.43526        -5.19470         6.84461
     2012.43799       -11.36293         6.96681
     2012.44073       -18.21415         6.83595
     2012.44347        -9.37438         6.93869
     2012.44621       -16.19161         6.98844
     2012.44895         4.03516         7.10956
     2012.45168        -5.48207         7.09875
     2012.45442        -9.77030         6.91706
     2012.45716        -8.30853         7.13444
     2012.45990        -1.89275         7.27827
     2012.46263         4.48702         7.04576
     2012.46537        -4.34321         7.14309
     2012.46811        -4.17744         6.98736
     2012.47085        -3.89767         6.84785
     2012.47359         0.07610         7.21879
     2012.47632        -8.56613         7.87741
     2012.47906         1.79364         6.96465
     2012.48180         0.63842         6.97330
     2012.48454         3.61419         6.94410
     2012.48728       -12.61404         6.81216
     2012.49001        -2.23927         6.95275
     2012.49275         6.88950         6.79918
     2012.49549       -10.24173         7.07388
     2012.49827       -19.32787         6.98195
     2012.50096        -4.93519         6.87813
     2012.50370        15.00559         7.07171
     2012.50644        -2.68964         6.82189
     2012.50918        -7.03187         7.17986
     2012.51192        -0.84310         7.16364
     2012.51465        -6.36633         6.84569
     2012.51739        -4.85356         7.01007
     2012.52013        -0.50779         6.96897
     2012.52287         4.23098         6.81973
     2012.52561        -1.75324         7.06739
     2012.52834         4.02753         6.84677
     2012.53108         1.14130         6.85542
     2012.53382         4.49907         6.83163
     2012.53656        -0.27216         7.06198
     2012.53929         5.32461         6.89111
     2012.54203        10.46738         6.88246
     2012.54477        12.06515         7.54107
     2012.54751         2.00093         6.86083
     2012.55025         9.95070         6.87921
     2012.55298        -3.37453         6.86083
     2012.55572         1.54124         7.09875
     2012.55846         4.20701         6.82946
     2012.56120         2.83678         7.27719
     2012.56394        -1.53545         6.96681
     2012.56667        -0.00767         6.93004
     2012.56941         6.79710         6.88138
     2012.57215        -8.03313         6.99709
     2012.57489         1.71364         6.93545
     2012.57762         3.72241         6.83163
     2012.58036         2.85418         7.71627
     2012.58276         0.59436         7.72925
     2012.61682        10.21672        12.88784
     2012.61869         7.65098         7.13011
     2012.62143        10.89275         7.06090
     2012.62417         6.22452         7.36479
     2012.62691         5.89829         7.14525
     2012.62964         8.01006         7.03819
     2012.63238         9.44784         7.19933
     2012.63512        -0.57139         7.73573
     2012.63786         4.39838         7.07604
     2012.64060        13.59515         7.08577
     2012.64333         8.30392         7.02197
     2012.64607         6.43569         6.92788
     2012.64881         8.30646         6.90733
     2012.65155        12.19923         6.94518
     2012.65428         7.85801         7.08902
     2012.65702        -0.78022         7.05008
     2012.65976        19.19455         7.08577
     2012.66250         4.77432         6.86083
     2012.66412       -10.82086        22.02732
     2012.67719         7.93192        16.85683
     2012.67893        12.60995         6.77864
     2012.68166        15.62272         6.84352
     2012.68440         5.09049         6.88138
     2012.68645        13.31207        10.12253
     2012.69033        17.66283         8.87776
     2012.69261        18.88680         7.69896
     2012.69535         6.50558         6.86083
     2012.69809         2.41935         6.93220
     2012.70083         2.66212         6.96249
     2012.70357         3.18889         6.83487
     2012.70630         6.69166         6.94194
     2012.70904         4.52243         6.74511
     2012.71178         7.45320         6.77107
     2012.71452        12.48097         6.84136
     2012.71726        15.09375         6.75917
     2012.71999        12.22652         6.78729
     2012.72273        12.88029         6.79161
     2012.72547         4.89106         6.76241
     2012.72821         4.04383         6.86191
     2012.73094         6.01360         6.92680
     2012.73368        16.06137         6.99060
     2012.73642         3.09314         6.91923
     2012.73916         9.98492         7.09334
     2012.74190        13.93969         7.16580
     2012.74441         4.22707         7.50214
     2012.75285        12.67277         7.05008
     2012.75559         8.44654         6.78188
     2012.75832         6.77131         6.77972
     2012.76106         9.98009         6.81000
     2012.76380        10.23686         6.83055
     2012.76654         9.77163         6.93112
     2012.76927        14.24240         7.03170
     2012.77201        14.43917         6.91815
     2012.77475        11.08994         6.88246
     2012.77749         9.78871         6.91274
     2012.78023        16.57148         7.16796
     2012.78296        14.00926         7.10956
     2012.78570        12.21303         7.08902
     2012.78844        16.40380         7.08577
     2012.79118         2.49357         7.52809
     2012.79391        13.32834         7.11389
     2012.79665         7.77811         6.98520
     2012.79939         2.23188         7.36695
     2012.80213        -2.11434         7.76385
     2012.80487        13.46443         8.01692
     2012.80760         7.49420         8.14128
     2012.81034         9.19497         7.97798
     2012.81308         7.52674         7.07496
     2012.81582         2.28351         7.03603
     2012.81856        -3.33772         7.20149
     2012.82129         1.13705         7.25448
     2012.82403        -5.32617         7.50863
     2012.82677        -9.33540         7.23069
     2012.82951         7.01537         7.34100
     2012.83209        11.85887         7.52052
     2012.83772         6.28068         7.09010
     2012.84023        14.06906         7.79521
     2012.84320        -1.61678         7.23177
     2012.84593        -8.46000         7.35398
     2012.84867        -4.73123         7.31613
     2012.85141       -13.64346         7.42860
     2012.85415         3.26531         6.98303
     2012.85689         1.35208         7.18959
     2012.85962         2.61385         7.17013
     2012.86237        -8.11237         7.04792
     2012.86510        -9.67061         8.33487
     2012.86784         1.44017         7.22204
     2012.87057         4.66294         6.99168
     2012.87297         0.40211         8.24835
     2012.87605        10.24548         7.23393
     2012.87879         7.80525         6.90192
     2012.88153         6.92202         6.81649
     2012.88426         9.03079         7.08577
     2012.88700         4.94156         7.11497
     2012.88974        -0.70466         7.10091
     2012.89248        -4.91889         6.87380
     2012.89522         1.26288         6.81973
     2012.89795        -4.16735         6.89111
     2012.90069        -1.48858         7.00034
     2012.90343        -2.00481         7.01007
     2012.90617         1.50596         6.76350
     2012.90890         1.60373         6.94518
     2012.91164        -0.11649         9.41525
     2012.91438        -1.23472         9.66940
     2012.91712         4.56905         9.19571
     2012.91986        -1.85518         9.66723
     2012.92259        -8.81841        10.14524
     2012.92533         5.86636         9.44986
     2012.92810       -10.52681        10.29773
     2012.93081       -12.15709         9.15678
     2012.93355        -6.66732         8.78476
     2012.93628         7.23145         7.64057
     2012.93902         0.72722         7.75087
     2012.94176         4.37399         8.39110
     2012.94453        13.39382        10.31395
     2012.94727         1.74959        10.67732
     2012.94997         6.77530        11.10883
     2012.95271         8.23408         7.94338
     2012.95533        10.79965         8.06558
     2012.96366         7.78116         6.96681
     2012.96640         8.89293         6.84028
     2012.96914         7.65470         8.31865
     2012.97188        -0.29053         7.40156
     2012.97461         1.98525         6.93329
     2012.97735         3.85302         6.95492
     2012.98009       -10.29621         7.59839
     2012.98283        -2.42844         6.78621
     2012.98556         4.22133         6.86407
     2012.98830        -0.76690         6.73754
     2012.99104         5.97787         6.62615
     2012.99378         4.12664         6.74511
     2012.99652         2.93642         6.66833
     2012.99925        -3.35581         6.79269
     2013.00199         2.65796         6.71050
     2013.00473        -2.15127         6.63805
     2013.00747        -3.46550         6.55477
     2013.01021        -3.88273         6.69104
     2013.01294        -2.94296         6.76998
     2013.01568        -5.39119         6.76566
     2013.01842        -3.54141         6.87489
     2013.02116        -3.83564         6.73105
     2013.02389       -15.02887         6.84461
     2013.02663         2.15290         6.95816
     2013.02937        -1.48333         6.65751
     2013.03211        -6.08756         6.62290
     2013.03485       -10.57079         6.50178
     2013.03758       -13.49701         6.49529
     2013.04032       -14.39724         6.66724
     2013.04306        -8.01947         6.68671
     2013.04580       -12.62870         6.74511
     2013.04854        -7.29893         6.78404
     2013.05127        -6.49516         6.67914
     2013.05401        -9.86939         6.61858
     2013.05675        -1.68762         6.59803
     2013.05949        -2.06084         6.63372
     2013.06222       -10.04107         6.81000
     2013.06468        -7.60280         7.78981
     2013.07044         3.72024         6.87272
     2013.07318         4.33101         7.65895
     2013.07591         0.49078         6.79053
     2013.07865         5.81355         6.88895
     2013.08413       -13.51990         6.74078
     2013.08686        -9.54613         6.84569
     2013.08960       -11.01236         6.78729
     2013.09234        -3.95859         6.80784
     2013.09508        -0.58382         6.97763
     2013.09782         0.44095         7.22204
     2013.10055        -0.98628         7.37669
     2013.10329        -6.18950         7.10740
     2013.10594       -10.78888         7.35938
     2013.11714       -17.38637         7.50106
     2013.11972       -10.39788         7.35073
     2013.12246        -9.87111         7.20041
     2013.12519       -14.20333         6.86515
     2013.12793        -7.63256         6.85866
     2013.13067         0.08821         6.99385
     2013.13341        -8.29202         6.95059
     2013.13615         2.94275         6.94843
     2013.13888        -3.97348         6.80027
     2013.14162         0.81629         6.96032
     2013.14436       -11.20594         7.04468
     2013.14710        -7.61216         7.09659
     2013.14984       -13.16038         6.94302
     2013.15257       -10.87362         7.01115
     2013.15531        -9.11485         6.90409
     2013.15805        -7.74408         6.85109
     2013.16079       -14.37131         7.01115
     2013.16352        -6.95754         6.98303
     2013.16626       -13.23176         7.04251
     2013.16900        -6.83699         7.13011
     2013.17174        -6.84522         6.76782
     2013.17448        -8.29445         6.98195
     2013.17721       -15.59868         7.54323
