# ================= DQRFIT RESULTS ================
# INPUT FILE: series/GOLM.rad
# OUTPUT: LDETRENDED
# FILTER FUNCTION: f(t)
# f(t)=+line(t)
# line(t)=+P 1+P 2*t
# heav(t)=(t<0?0:1)
# TOTAL OBSERVATIONS MTOT=  613
# INITIAL TIME INTERVAL= 2018.6937 - 2004.1369 = 14.5568
# TOTAL OBSERVATIONS AFTER PREFILTER M=  612
# TIME-SPAN=    0.0000 -    0.0000 =  0.0000
# OBSERVATIONS: USED M=   612 REJECTED MTOT-M=     1 %USED=   99.8369
# N=  2 PARAMETERS
# MAXSIG= 175.00000
# MAXRES=  20.40881
# SCALE FACTOR FOR LENGTHS: SCL=  10.00000
# SCALE FACTOR FOR SIGMAS: SCLSIG=   1.00000
# CHI^2=    872.252 DOF=   610 CHI^2/DOF=   1.42992
# RMS=      6.962 SDEV=      6.968 MEAN=    0.03288
#  P #       PARAMETER +-    SIGMA %error PARAMETER NAME
# P 1 =     -2326.28758 +-  119.144   5.12 YZERO                              
# P 2 =         1.15640 +-    0.059   5.13 SLOPE                              
#       T            LDETRENDED       SIG_OBS
     2004.13690         4.32865         7.09225
     2004.13964         3.54048         6.83396
     2004.14237         6.27432         6.90810
     2004.14511        -1.96285         6.89973
     2004.14785         6.85998         6.93082
     2004.15059         2.38082         6.92603
     2004.15332        -2.56935         6.92962
     2004.15606         1.61249         6.90092
     2004.15880        -1.23668         6.94397
     2004.16154         8.56215         6.90929
     2004.16428        -7.13301         6.95114
     2004.16701        -4.37718         6.94277
     2004.16975        -5.15734         7.18193
     2004.17249        -0.28751         7.14606
     2004.17523         7.84632         7.17595
     2004.17797         3.44716         6.99539
     2004.18070        -1.21501         6.91527
     2004.18344        -5.31217         6.90451
     2004.18618        -0.35634         7.09105
     2004.18892         2.73249         6.95234
     2004.19165         2.23033         6.87222
     2004.19439         5.73216         6.92364
     2004.19713         1.41600         6.96789
     2004.19987        -2.63717         6.93919
     2004.20261         1.48266         6.94277
     2004.20534        -3.39850         6.94636
     2004.20808         4.50833         7.30390
     2004.21082         0.58716         7.30869
     2004.21356         3.43800         7.31347
     2004.21629        -4.17317         7.25846
     2004.21903        -1.29933         7.20944
     2004.22177        -0.23950         7.16878
     2004.22451         4.23733         7.29314
     2004.22725         9.17117         7.30510
     2004.22998         7.86900         7.33978
     2004.23272        14.35784         7.38761
     2004.23546         7.58567         7.23814
     2004.23820        -0.69550         7.19389
     2004.24094        -3.10166         7.52632
     2004.24367         3.49517         7.16758
     2004.24641         5.49501         6.97028
     2004.24915         1.82884         7.13410
     2004.25189        16.19167         6.93680
     2004.25462        -2.60949         7.00256
     2004.25736         1.95834         6.96669
     2004.26010         1.10018         6.97267
     2004.40247        12.86454         7.02768
     2004.40521         8.28338         6.99300
     2004.40794         0.30321         6.81602
     2004.41068         4.07004         6.83994
     2004.41342         1.96988         6.92484
     2004.41616         4.65771         6.81841
     2004.41890         1.05155         6.83037
     2004.42163        -0.21462         6.90451
     2004.42437        -0.31779         6.93321
     2004.42711        -5.53795         6.91527
     2004.42985         8.50988         6.87222
     2004.43259         4.47971         6.97506
     2004.43532         6.19655         6.85189
     2004.43806         4.90838         6.88418
     2004.44080         7.69722         6.98104
     2004.44354         8.75405         6.94397
     2004.44627         3.34688         6.91408
     2004.44901        -4.78928         6.96789
     2004.45175         2.12655         7.07551
     2004.45449        -0.28261         7.04322
     2004.45723        -4.79578         7.07790
     2004.45996        -1.07795         7.19150
     2004.46270        -2.34411         7.15921
     2004.46544        -0.18128         7.02409
     2004.46818         2.28756         6.94397
     2004.47092        -0.07961         7.03365
     2004.47365         3.44422         6.96669
     2004.47639        -8.39294         7.01452
     2004.47913        -2.51411         7.17835
     2004.48187        -3.60927         7.24053
     2004.48460        -2.01944         6.99778
     2004.48734         4.74739         6.99300
     2004.49008         0.35423         6.92484
     2004.49282        -1.19494         7.16519
     2004.49556        -7.21110         7.08149
     2004.49829         6.30873         7.03485
     2004.50103        -5.35344         6.93201
     2004.50377        -3.43060         6.99300
     2004.50651         6.20923         6.97386
     2004.50924        -6.46293         7.00496
     2004.51198        -2.87110         6.91766
     2004.51472        -0.85727         7.25846
     2004.51746        -3.58143         6.98343
     2004.52020         0.08440         7.08029
     2004.52293         2.47224         6.84472
     2004.52567         2.38407         6.89255
     2004.52841         0.72690         6.84831
     2004.53115        -1.58626         6.84113
     2004.53389         0.14257         6.82798
     2004.53662        -5.23459         6.82917
     2004.53936         0.99224         7.24172
     2004.54210         2.55107         6.83754
     2004.54484        -3.81209         6.84472
     2004.54757       -10.91926         7.03844
     2004.55031        -0.48043         7.03963
     2004.55305         1.14441         6.93082
     2004.55579        -0.72676         6.99300
     2004.55853        -5.67792         6.86744
     2004.56126         1.29091         6.86744
     2004.56400       -11.13926         6.89853
     2004.56674         1.78658         6.90092
     2004.56948         1.24841         6.91049
     2004.57222        -1.50975         6.80526
     2004.57495        -4.77992         6.90092
     2004.57769        -2.12009         6.85787
     2004.58043         2.09975         6.81243
     2004.58317        -6.53242         6.85189
     2004.58590        -4.50458         6.90690
     2004.58864         3.64225         6.91766
     2004.59138         6.02708         6.92723
     2004.59412         6.08092         6.97267
     2004.59686         2.22975         6.95234
     2004.59959        -1.49541         6.80765
     2004.60233        -1.93558         6.81243
     2004.60507         1.81425         6.84831
     2004.74744        -4.30338         6.90331
     2004.75018        -3.67355         6.75623
     2004.75291         0.45329         6.73710
     2004.75565        -0.89388         6.72634
     2004.75839         0.37696         6.81004
     2004.76113        -1.64721         6.71079
     2004.76387         3.13162         6.76819
     2004.76660         3.93946         6.76580
     2004.76934         1.48029         6.93321
     2004.77208         5.13412         7.07072
     2004.77482         5.81496         6.97865
     2004.77755         8.55479         6.94158
     2004.78029        -1.57137         6.91886
     2004.78303        -3.63354         7.01452
     2004.78577         1.47929         6.76460
     2004.78851         4.28113         6.87940
     2004.79124         1.94796         6.80167
     2004.79398         8.53980         6.83515
     2004.79672         5.10963         6.93082
     2004.79946         5.95246         6.83396
     2004.80220         8.68230         6.86624
     2004.80493         6.52113         6.89375
     2004.80767         7.71597         6.89853
     2004.81041        11.35780         6.79091
     2004.81315         0.03563         6.77895
     2004.81588         7.20947         6.71438
     2004.81862         4.90130         7.11856
     2004.82410         3.90397         6.78493
     2004.82684         6.89280         6.78015
     2004.82957         7.14364         6.89614
     2004.83231        14.75447         6.75982
     2004.83505        -0.73869         6.95712
     2004.83779         5.05714         6.77536
     2004.84052         7.22297         6.96549
     2004.84326        20.40881         6.78613
     2004.84600         5.12264         6.82798
     2004.84874         7.74848         6.86385
     2004.85148        11.88531         6.93799
     2004.85421        10.09714         7.25966
     2004.85695        -2.03402         6.87222
     2004.85969        -4.94519         7.80255
     2004.87064       -10.57085         8.10389
     2004.87338        -3.69302         8.36936
     2004.87612        -2.01918         8.19118
     2004.87885       -10.13535         7.69254
     2004.88159        -8.62652         7.93169
     2004.88433        -1.06468         8.30717
     2004.88707         3.28815         7.89582
     2004.89254        -0.67618         8.17085
     2004.89511         4.15686         9.52449
     2004.89802         5.59649         9.34273
     2004.90072         8.51836         9.44796
     2004.95004        -0.00767         8.88713
     2004.96647         1.50834         9.15738
     2004.97742        -2.23833         9.23272
     2004.98016        -0.33249         8.95051
     2004.98289         5.10734         9.13586
     2004.98563        10.55117        10.21088
     2005.25120        -1.20693         6.84831
     2005.25394        18.56290         7.20824
     2005.25668        14.24873         7.32064
     2005.25942         5.06357         6.95593
     2005.26215        -1.08260         7.02409
     2005.26489        10.03724         7.03365
     2005.26763         7.26807         7.07551
     2005.27037         3.37090         7.04202
     2005.27311         2.77574         6.98463
     2005.27584         3.98557         6.94038
     2005.27858         5.50341         7.02409
     2005.28132         3.59324         7.03605
     2005.28406         0.81807         7.09344
     2005.28679         2.53191         7.04083
     2005.28953         3.55174         6.90212
     2005.29227         8.09358         6.90092
     2005.29501         4.46741         6.97506
     2005.29775         2.36724         6.84831
     2005.30048         7.08908         6.83754
     2005.30322         2.73091         6.85907
     2005.30596         3.67075         6.79928
     2005.30870        -2.14142         6.96430
     2005.31144         3.40741         6.92962
     2005.31417         3.02925         6.87103
     2005.31691        -2.72192         6.94038
     2005.31965        -2.86008         6.85548
     2005.32239         1.97075         7.14606
     2005.32512        -2.99142         6.94995
     2005.32786        -0.99358         6.91408
     2005.33060         1.68425         6.85070
     2005.33334        -0.00191         6.96908
     2005.33608         6.73892         7.02648
     2005.33881         1.34075         6.89375
     2005.34155         2.98959         6.89494
     2005.34429         2.71242         6.82678
     2005.34703         1.69925         6.81363
     2005.34977        -3.10591         6.82798
     2005.35250         1.95892         6.99778
     2005.35524         7.21676         7.06475
     2005.35798         1.02159         7.11258
     2005.36072        -7.16658         7.08268
     2005.36345        -7.06374         7.18791
     2005.36619         6.71909         7.04202
     2005.36893         9.92593         7.33739
     2005.37167         1.69476         7.13171
     2005.37441         4.65659         7.19269
     2005.37714        10.01743         7.18432
     2005.37988         0.73126         7.20824
     2005.38262        -0.45590         7.18074
     2005.38536         2.39893         7.20944
     2005.38810        -2.50224         7.05757
     2005.39083         1.68160         7.17595
     2005.39357        -4.38357         7.04800
     2005.39631        -3.21173         7.01333
     2005.39905        -2.17090         7.05518
     2005.40178        -0.08907         7.15563
     2005.40452        -2.03123         7.49882
     2005.40726         1.96460         7.14367
     2005.41000        -2.75556         7.05877
     2005.41274        -1.73373         7.03246
     2005.41547        -0.48490         6.89255
     2005.41821         3.83194         6.87103
     2005.42095         0.20477         6.89973
     2005.42369         0.23861         6.92723
     2005.42643         0.00144         6.95593
     2005.42916         7.66127         6.89016
     2005.43190         1.29411         6.93201
     2005.43464        -0.14406         6.95114
     2005.43738        -1.13122         7.02648
     2005.44011        -2.74739         7.07670
     2005.44285         1.03544         7.17954
     2005.44559        -6.03172         7.13649
     2005.44833        -5.47789         7.14247
     2005.66736         0.81683         6.91049
     2005.67009         0.35966         6.94158
     2005.67283         5.49050         6.89733
     2005.67557         3.25133         6.95473
     2005.67831        -6.14784         6.97626
     2005.68105        -1.43700         6.87342
     2005.68378        -0.80417         6.98702
     2005.68652         2.39766         6.89973
     2005.68926         1.36750         6.91049
     2005.69200        -1.86467         6.95593
     2005.69473        -0.09983         7.05518
     2005.69747        -1.57800         7.06116
     2005.69991         5.75319         8.08476
     2005.95757        -5.65877         6.86026
     2005.96031        -0.19894         6.78373
     2005.96304        -3.00911         6.78971
     2005.96578       -27.97427         7.25368
     2005.96852        -6.05044         7.11616
     2005.97126        -5.77760         6.92364
     2005.97400        -6.01477         7.04202
     2005.97673       -14.59994         7.11856
     2005.97947        -6.93810         7.00137
     2005.98221        -0.83627         7.02528
     2005.98495        -7.16643         6.97984
     2005.98768        -8.50360         6.97626
     2005.99042         2.16423         7.04202
     2005.99316        -5.52593         7.05996
     2005.99590         1.00690         7.09344
     2005.99864        -4.97926         7.08866
     2006.00411       -29.64860         7.32902
     2006.00685       -23.18176         7.26205
     2006.00959       -11.96993         6.93560
     2006.01233       -11.63309         7.03605
     2006.01506       -12.81426         6.94277
     2006.01780         4.97357         6.98463
     2006.02054        -6.09159         7.26205
     2006.02328       -11.17876         7.20226
     2006.02601        -8.52592         7.17356
     2006.02875        -2.35509         7.09584
     2006.03149        -3.87026         6.97028
     2006.03423        -9.12842         7.01213
     2006.03697        -4.19659         7.04322
     2006.03970        -1.19676         7.01930
     2006.04244       -10.39692         6.92603
     2006.04518        -2.61009         7.05159
     2006.04792        -2.73925         6.92245
     2006.06161        -7.27608         7.13291
     2006.06434        -1.77825         6.87222
     2006.06708        -8.96742         6.69285
     2006.06982       -12.48258         6.69166
     2006.07256       -17.47475         6.72873
     2006.07530        -8.83991         6.66535
     2006.08625       -10.99058         7.57057
     2006.09446       -18.57008         6.89494
     2006.09720       -12.39924         6.79091
     2006.09994       -14.52741         6.81004
     2006.10267       -14.05357         6.79450
     2006.10541       -17.81274         6.74666
     2006.30528        -5.32586         6.84950
     2006.30801        -7.39303         6.86744
     2006.31075       -11.11119         6.81482
     2006.31349        -5.72036         6.90810
     2006.31623        -4.20953         6.80287
     2006.32170       -13.29586         6.98582
     2006.32444        -5.80302         6.84591
     2006.32718        -5.35419         6.91288
     2006.32992        -7.07336         6.80047
     2006.33265        -7.77152         6.82319
     2006.33539        -4.48069         6.83037
     2006.33813        -4.25885         6.81841
     2006.34087        -9.26602         6.78971
     2006.34361        -2.78019         6.82080
     2006.34634        -6.63535         6.83874
     2006.34908        -5.93152         6.89853
     2006.35182        -6.44968         6.94517
     2006.35456        -9.51985         6.81961
     2006.35729        -7.31902         6.82319
     2006.36003        -1.47618         6.88298
     2006.36277        -9.11535         6.84352
     2006.36551       -10.38351         6.86026
     2006.36825        -8.88168         6.92245
     2006.37098        -8.29385         7.02887
     2006.37372        -5.07601         7.07670
     2006.37646        -3.22118         6.93082
     2006.37920       -18.83735         7.29314
     2006.38193        -6.18351         7.15563
     2006.38467        -4.79668         7.13051
     2006.38741        -5.09784         7.11975
     2006.39015        -7.46601         6.94995
     2006.39289        -4.55818         7.00256
     2006.39562        -6.18634         7.26086
     2006.39836         6.88249         7.21900
     2006.40110         3.73033         7.04083
     2006.40384        -3.39184         6.96310
     2006.40658        -6.75801         7.00376
     2006.40931        -6.75517         7.01452
     2006.41205        -9.98234         6.97745
     2006.41479        -8.20250         6.99061
     2006.41753        -6.88267         7.20585
     2006.42026        -4.10584         7.23335
     2006.42300        -1.79800         7.15682
     2006.42574        -6.95517         7.21781
     2006.42848        -4.28733         7.15443
     2006.43122        -7.24250         7.18672
     2006.43395        -7.70567         7.08029
     2006.43669        -2.15683         7.03844
     2006.43943        -1.25800         7.12812
     2006.44217        -3.75816         6.98702
     2006.44491        -2.12633         6.99419
     2006.44764        -2.76550         7.17476
     2006.45038        -5.52066         6.94277
     2006.45312        -3.76583         6.98224
     2006.45586        -6.22099         7.01930
     2006.45859         0.56884         7.01452
     2006.46133        -2.01833         7.28477
     2006.46407         7.99751         7.20704
     2006.46681        -0.86766         7.18074
     2006.94867         9.68712         6.96191
     2006.95141        18.97595         7.08029
     2006.95415        15.41378         7.23574
     2006.95688        19.78362         7.02409
     2006.95962        14.41545         6.99419
     2006.96236        12.81429         7.01213
     2006.96510        12.39912         7.12453
     2006.96784        12.66595         7.02648
     2006.97057         8.27179         7.04202
     2006.97331        -4.90638         7.01452
     2006.97605        12.62346         7.04083
     2006.97879         5.19329         7.10540
     2006.98152        17.68812         7.15563
     2006.98426        14.86896         7.22498
     2006.98700        16.40279         7.34217
     2006.98974         6.26163         7.20346
     2006.99248         0.87546         7.30032
     2006.99521         3.25829         8.14694
     2007.66051        -3.46006         7.18313
     2007.66325        -4.56422         7.24651
     2007.66599        -1.80139         7.32782
     2007.66872        -4.31055         7.22857
     2007.67146        -3.71272         7.98551
     2007.67420        -3.13989         7.25129
     2007.67694         5.11795         7.41033
     2007.67968         0.17378         7.16160
     2007.68241         2.42162         7.48327
