# ================= DQRFIT RESULTS ================
# INPUT FILE: series/GR8V.rad
# OUTPUT: LDETRENDED
# FILTER FUNCTION: f(t)
# f(t)=+line(t)+annual(t)
# line(t)=+P 1+P 2*t
# annual(t)=+P 3*sin(2*pi*t+P 4)
# heav(t)=(t<0?0:1)
# TOTAL OBSERVATIONS MTOT= 1916
# INITIAL TIME INTERVAL= 2008.3203 - 2003.0582 =  5.2621
# TOTAL OBSERVATIONS AFTER PREFILTER M= 1912
# TIME-SPAN= 2008.3203 - 2003.0582 =  5.2621
# OBSERVATIONS: USED M=  1912 REJECTED MTOT-M=     4 %USED=   99.7912
# N=  4 PARAMETERS
# MAXSIG= 175.00000
# MAXRES=  23.68222
# SCALE FACTOR FOR LENGTHS: SCL=  10.00000
# SCALE FACTOR FOR SIGMAS: SCLSIG=   1.00000
# CHI^2=   1652.407 DOF=  1908 CHI^2/DOF=   0.86604
# RMS=      5.703 SDEV=      5.705 MEAN=    0.04187
#  P #       PARAMETER +-    SIGMA %error PARAMETER NAME
# P 1 =      3244.25009 +-  171.773   5.29 YZERO                              
# P 2 =        -1.60692 +-    0.086   5.33 SLOPE                              
# P 3 =         1.42993 +-    0.187  13.05 ANNUAL AMPLITUDE                   
# P 4 =        -1.93411 +-    0.064   3.29 ANNUAL PHASE                       
#       T            LDETRENDED       SIG_OBS
     2003.05818         8.47378         5.93824
     2003.06092        11.49618         6.09459
     2003.06366         4.38157         6.10575
     2003.06640        -5.47103         6.04061
     2003.06914         4.51637         6.19137
     2003.07187         6.70277         6.15973
     2003.07461         9.27017         6.24349
     2003.07735        -8.10243         6.03968
     2003.08009        -1.74303         6.20533
     2003.08282        -1.55063         6.13460
     2003.08556         5.74177         6.19695
     2003.08830         4.61717         6.10575
     2003.09104        -1.17043         6.11971
     2003.09378         3.78997         6.11785
     2003.09651        13.61737         6.14949
     2003.09925         9.91477         6.21650
     2003.10199         9.82417         6.22673
     2003.10473        12.49457         6.03596
     2003.10747         6.86997         6.13553
     2003.11020         7.84037         6.29467
     2003.11294         2.88477         6.88096
     2003.11568         9.14217         6.33096
     2003.11842        13.35856         6.44915
     2003.12115         0.43496         6.17462
     2003.12389         0.03436         6.20533
     2003.12937         6.28216         6.25931
     2003.13211        -6.35544         6.21091
     2003.13484        -0.44704         6.06760
     2003.13758        -5.53964         5.79679
     2003.14032         3.47376         5.66930
     2003.14306        -0.38084         5.77073
     2003.14580         0.82756         5.74095
     2003.14853        -0.07004         5.66557
     2003.15127       -18.89364         5.80889
     2003.15401         5.50676         5.69442
     2003.15675         2.79316         6.02293
     2003.15948         0.54356         5.60695
     2003.16222         1.97296         5.79772
     2003.16496         4.96836         5.77073
     2003.16770         5.13476         5.72979
     2003.17044         2.74316         5.76050
     2003.17317         4.79655         5.68140
     2003.17591         0.82395         5.55762
     2003.17865       -11.55865         5.82378
     2003.18139        -2.56625         5.86286
     2003.18413        -4.56085         5.61718
     2003.18686         5.19455         5.69349
     2003.18960         1.25195         5.65162
     2003.19234        -7.27265         5.86659
     2003.19508        -4.11825         6.02479
     2003.19781        -2.25485         6.18207
     2003.20055         2.21855         6.25093
     2003.20329        -0.03205         5.84704
     2003.20603        -0.53265         5.94569
     2003.20877         6.05075         5.74468
     2003.21150        -2.04785         5.71117
     2003.21424         0.63155         5.80237
     2003.21698         2.19895         5.70745
     2003.21972        -0.32265         5.81913
     2003.22246        -5.99525         5.74840
     2003.22519         4.42915         5.76050
     2003.22793        -3.96046         5.90474
     2003.23067        -2.56006         5.68140
     2003.23341        -2.26866         6.04992
     2003.23614       -11.49726         5.78469
     2003.23888        -7.21986         5.79679
     2003.24162        -6.83746         5.68791
     2003.24436        -1.32306         5.62370
     2003.24710        -0.23066         5.84891
     2003.24983        -4.08726         5.82006
     2003.25257         2.71214         5.73165
     2003.25531        -6.04846         5.75491
     2003.25805       -10.45106         5.63579
     2003.26079         2.57634         5.77073
     2003.26352        -0.65026         5.71769
     2003.26626        -0.43586         5.68419
     2003.26900         0.15754         5.85263
     2003.27174        -3.77506         5.87682
     2003.27447         2.99934         5.81354
     2003.27721         2.94174         6.24162
     2003.27995       -11.76786         5.92149
     2003.28269         3.02353         5.78935
     2003.28543        -5.25807         5.72141
     2003.28816         3.49133         5.81168
     2003.29090        -3.14227         5.83774
     2003.29364         5.73913         5.76050
     2003.29638         4.25853         5.68884
     2003.29911         9.13393         5.82843
     2003.30185         3.56133         5.65999
     2003.30459        -0.15527         5.70001
     2003.30733         1.71413         5.58368
     2003.31007         4.43953         5.76515
     2003.31280        -1.41307         5.61811
     2003.31554         3.96433         5.82657
     2003.31828        -6.33627         5.66464
     2003.32102        23.80113         6.07318
     2003.32376         5.53553         5.61811
     2003.32649        -1.72807         5.75584
     2003.32923       -11.49667         5.78283
     2003.33197        -6.76627         5.99129
     2003.33471         3.25813         5.87124
     2003.33744        -5.46047         5.61160
     2003.34018         1.65692         5.64138
     2003.34292        -5.30368         5.63114
     2003.34566         0.61172         5.70745
     2003.34840         6.43012         5.94941
     2003.35113        -1.81148         5.75305
     2003.35387         1.99292         5.60322
     2003.35661         4.47832         5.71490
     2003.35935         0.70672         5.60974
     2003.36209         7.71112         5.64417
     2003.36482         1.38352         5.80331
     2003.36756         2.52692         5.80144
     2003.37030         4.59032         5.60974
     2003.37304        -6.03928         6.05364
     2003.37577         4.92112         5.69070
     2003.37851         2.81552         5.75212
     2003.38125        -1.64408         5.64045
     2003.38399        -0.16868         5.61718
     2003.38673        -1.33828         5.66092
     2003.38946        -0.45988         5.74188
     2003.39220         1.69352         5.71583
     2003.39494         3.69391         5.75398
     2003.39768        -0.14069         5.65068
     2003.40042        -0.17729         5.80796
     2003.40315        -3.79089         5.82843
     2003.40589        10.63051         5.98664
     2003.40863         4.18891         5.79958
     2003.41137         1.21431         5.57624
     2003.41410         5.10471         5.68419
     2003.41684         0.46911         5.91963
     2003.41958         5.19151         5.82006
     2003.42232         1.98291         5.75864
     2003.42506         3.18531         5.65441
     2003.42779         3.79771         5.78097
     2003.43053         1.39511         5.70652
     2003.43327        -3.59649         5.79493
     2003.43601        12.16991         5.93359
     2003.43875        -0.06369         5.57437
     2003.44148         7.23571         5.61346
     2003.44422        -2.94489         5.83681
     2003.44696         3.01251         5.67860
     2003.44970        -1.33110         5.62556
     2003.45243         0.02830         5.59485
     2003.45517         4.08470         5.67674
     2003.45791        -1.92090         5.76050
     2003.46065        -5.95650         5.66651
     2003.46339        10.43790         5.75864
     2003.46612         6.68530         5.65441
     2003.46886        -2.35530         5.77725
     2003.47160        -0.38090         5.67674
     2003.47434         2.23850         5.83588
     2003.47708         5.47990         5.70745
     2003.47981         1.01330         5.87682
     2003.48255        -3.52830         5.70094
     2003.48529        -2.61490         5.73909
     2003.48803         0.00250         5.71583
     2003.49076         0.20890         5.70466
     2003.49350        -2.01670         5.62463
     2003.49624        -9.80530         5.72420
     2003.49898         2.74310         5.66744
     2003.50172        -3.53850         5.79772
     2003.50445        -6.40611         5.78004
     2003.50719        -1.78171         5.69815
     2003.50993         2.44969         5.67395
     2003.51267        -4.07991         5.71583
     2003.51541        -2.47551         5.67488
     2003.51814         7.18689         5.70559
     2003.52088         6.28629         5.74095
     2003.52362         1.97669         5.82564
     2003.52636         2.65609         5.65906
     2003.52909         5.81249         5.74933
     2003.53183        -0.24411         5.68605
     2003.53457         2.14129         5.86286
     2003.53731        -6.80031         5.71583
     2003.54005         0.12909         5.94476
     2003.54278        -5.85951         5.64510
     2003.54552       -11.90511         5.72700
     2003.54826        -7.57871         6.01083
     2003.55100        -3.73331         5.85914
     2003.55374       -11.02191         5.69349
     2003.55647        -1.33051         5.67953
     2003.55921         1.78388         5.67767
     2003.56195         1.08228         5.83495
     2003.56469        -8.00232         5.76329
     2003.56742        -4.06392         5.82099
     2003.57016         1.02948         5.85077
     2003.57290        -4.91312         5.90567
     2003.57564        -5.25972         5.88799
     2003.57838         9.63668         5.95127
     2003.58111         2.02908         5.85263
     2003.58385        10.16548         5.89544
     2003.58659        15.54988         5.93452
     2003.58933         5.49128         5.92429
     2003.59206         8.03868         5.75212
     2003.59480        -0.67792         5.61625
     2003.59754        -3.87352         5.60788
     2003.60028         0.49488         5.70187
     2003.60302        -6.03772         5.64603
     2003.60575        -0.40632         5.55018
     2003.60849         1.19108         5.63207
     2003.61123         1.10748         5.57810
     2003.61397        -1.83213         5.55855
     2003.61671        -2.83473         5.64324
     2003.61944         1.35167         5.50737
     2003.62218        -3.74993         5.61904
     2003.62492         2.72747         5.52784
     2003.62766        -3.51213         5.58182
     2003.63039        -0.21873         5.64882
     2003.63313         0.49467         5.64975
     2003.63587         5.21807         5.64324
     2003.63861         8.68647         5.69722
     2003.64135         1.50887         5.55483
     2003.64408         8.91727         5.62556
     2003.64682         3.12767         5.77818
     2003.64956        -3.30093         5.63300
     2003.65230         5.91247         5.60508
     2003.65504        -2.76613         5.74933
     2003.65777        -4.60673         5.49899
     2003.66051         2.84267         5.60788
     2003.66325         1.67907         5.69628
     2003.66599        -4.80253         5.74561
     2003.66872         0.82286         5.74375
     2003.67146        -0.47874         5.67302
     2003.67420         2.75966         5.58461
     2003.67694         5.34706         5.71769
     2003.67968        10.90046         5.55204
     2003.68241         0.52086         5.64417
     2003.68515         2.82226         5.88892
     2003.68789        -5.14334         5.70280
     2003.69063        -1.38194         5.67395
     2003.69337         6.86546         5.68046
     2003.69610         1.84886         5.62556
     2003.69884        10.89826         5.78004
     2003.70158         0.12366         5.70187
     2003.70432        -0.09894         5.71676
     2003.70705        -0.08154         5.66651
     2003.70979        -3.80914         5.69163
     2003.71253        -1.36474         5.54832
     2003.71527         8.67566         5.57065
     2003.71801        -0.85794         5.63859
     2003.72074        14.94446         5.66092
     2003.72348        -2.04215         5.70652
     2003.72622        -0.09075         5.83029
     2003.72896         5.26565         5.75026
     2003.73170        -9.11495         5.74933
     2003.73443         4.20245         5.77446
     2003.73717         3.27185         5.60136
     2003.73991         4.38425         5.69442
     2003.74265         9.06965         5.85170
     2003.74538         6.71105         5.87403
     2003.74812         1.18045         5.82843
     2003.75086         6.31285         5.65906
     2003.75360         9.95625         5.77166
     2003.75634         0.24065         5.74561
     2003.75907         0.66905         5.72513
     2003.76181         8.53745         5.83215
     2003.76455         8.99685         5.93173
     2003.76729         2.14525         5.83309
     2003.77003         5.98165         5.75864
     2003.77276        13.33205         5.80424
     2003.77550         8.67045         5.75398
     2003.77824         4.39684         5.79493
     2003.78098        12.52324         5.75398
     2003.78371        11.68264         5.67023
     2003.78645        12.74004         5.62928
     2003.78919         9.62544         5.50830
     2003.79193         3.31084         5.48131
     2003.79467         9.25424         5.53808
     2003.79740         5.69964         5.52226
     2003.80014         7.14504         5.60602
     2003.80288        10.26144         5.57158
     2003.80562         4.02584         5.95872
     2003.80836         4.17324         5.74375
     2003.81109         5.08764         5.57996
     2003.81383         1.10604         5.55762
     2003.81657        -4.08756         5.52598
     2003.81931        10.70784         5.54739
     2003.82204         6.06424         5.62835
     2003.82478         3.27464         5.98198
     2003.82752         4.16204         6.44543
     2003.83026         9.08744         5.72700
     2003.83300         6.54584         5.52784
     2003.83573         0.36423         5.51295
     2003.83847        10.73563         5.57158
     2003.84121         2.55203         5.51109
     2003.84395         1.10343         5.54553
     2003.84669        -4.12517         5.62184
     2003.84942         7.77623         5.63673
     2003.85216         8.78563         5.85170
     2003.85490        19.71403         5.76050
     2003.85764         4.11743         5.66930
     2003.86037         3.80583         5.66371
     2003.86311         2.66223         5.59764
     2003.86585         7.14063         5.79028
     2003.86859         3.36003         5.77446
     2003.87133         6.33843         5.67860
     2003.87406         1.66783         5.59578
     2003.87680         3.56923         5.75864
     2003.87954        -2.01237         5.76887
     2003.88228         1.18303         5.63673
     2003.88502        12.64143         5.66930
     2003.88775         9.15283         5.95872
     2003.89049        -0.57778         5.71304
     2003.89323         0.82062         5.61904
     2003.89597         9.54302         5.67953
     2003.89870        -3.15858         5.73258
     2003.90144        -0.12918         5.57437
     2003.90418        -0.11478         5.58368
     2003.90692         7.43762         5.70931
     2003.90966        16.61902         5.70838
     2003.91239         8.67942         5.80796
     2003.91787         1.21222         5.85821
     2003.92061         2.14962         5.77353
     2003.92334         1.26402         5.73072
     2003.92608         7.90842         5.84704
     2003.92882        -3.20518         5.72141
     2003.93156        -7.26278         5.66185
     2003.93430         7.35562         5.68233
     2003.93703         1.75502         5.70466
     2003.93977        18.24142         5.93080
     2003.94251         4.93582         5.63114
     2003.94525         1.28521         5.60974
     2003.94799         9.05361         5.62556
     2003.95072         7.03101         5.89357
     2003.95346         2.16341         5.59764
     2003.95620        -9.77719         5.64324
     2003.95894         3.70621         5.67209
     2003.96167         7.38061         5.75491
     2003.96441        11.26201         6.04526
     2003.96715        -5.91059         5.83402
     2003.96989         8.35981         5.72327
     2003.97263         3.31421         5.57717
     2003.97536        11.06861         5.70001
     2003.97810        11.12701         5.81447
     2003.98084         2.39941         5.64324
     2003.98358         8.20981         5.60695
     2003.98632        -5.99979         5.50086
     2003.98905        -5.87439         5.49155
     2003.99179        -6.34899         5.63207
     2003.99453         2.76841         5.54832
     2003.99727         0.28781         5.52971
     2004.00274        -3.59340         5.67767
     2004.00548        -2.52900         5.64045
     2004.00822        -2.31160         5.64975
     2004.01096        -9.49720         5.63393
     2004.01369         3.67920         5.79493
     2004.01643         2.52460         5.83309
     2004.01917        -3.60300         5.74654
     2004.02191         8.95740         5.82657
     2004.02465        -1.95520         5.68512
     2004.02738        -1.50080         5.79679
     2004.03012        -3.39440         5.75398
     2004.03286        -8.67400         5.56786
     2004.03560       -12.65460         5.75957
     2004.03833        -1.74420         5.76143
     2004.04107        -4.22880         6.01549
     2004.04381        -2.95640         5.72327
     2004.04655         3.50100         5.70094
     2004.04929         4.47740         5.67395
     2004.05202        -7.66020         5.80331
     2004.05476        -6.79981         5.73909
     2004.05750        -4.10041         5.67767
     2004.06024        -8.25601         5.58833
     2004.06298        -9.20561         5.63579
     2004.06571        -7.25721         5.61997
     2004.06845         0.15219         5.68884
     2004.07119        -3.78541         5.71583
     2004.07393        -4.62301         5.80982
     2004.07666         5.40139         5.73072
     2004.07940         8.72479         5.74747
     2004.08214         2.04719         5.74654
     2004.08488         2.21359         5.60881
     2004.08762        -3.01701         6.05922
     2004.09035        -3.71561         5.86193
     2004.09309         4.32779         5.73816
     2004.09583         4.89919         5.63393
     2004.09857         0.39059         5.72327
     2004.10131         5.37899         5.80703
     2004.10404        -3.18261         5.64882
     2004.10678        -1.38521         5.67395
     2004.10952         1.79218         5.61718
     2004.11226         6.15058         5.59950
     2004.11499         1.33598         5.70466
     2004.11773        11.25538         5.81447
     2004.12047         7.74378         5.94011
     2004.12321        -1.88882         5.94848
     2004.12595        -2.83542         5.85635
     2004.12868        -3.33702         5.87869
     2004.13142         5.20538         6.08714
     2004.13416         9.07778         5.73351
     2004.13690        -2.32982         5.73909
