# ================= DQRFIT RESULTS ================
# INPUT FILE: series/GRNB.rad
# OUTPUT: LDETRENDED
# FILTER FUNCTION: f(t)
# f(t)=+line(t)+annual(t)
# line(t)=+P 1+P 2*t
# annual(t)=+P 3*sin(2*pi*t+P 4)
# heav(t)=(t<0?0:1)
# TOTAL OBSERVATIONS MTOT= 1901
# INITIAL TIME INTERVAL= 2019.9249 - 2014.6502 =  5.2747
# TOTAL OBSERVATIONS AFTER PREFILTER M= 1899
# TIME-SPAN= 2019.9249 - 2014.6502 =  5.2747
# OBSERVATIONS: USED M=  1899 REJECTED MTOT-M=     2 %USED=   99.8948
# N=  4 PARAMETERS
# MAXSIG= 175.00000
# MAXRES= 115.64268
# SCALE FACTOR FOR LENGTHS: SCL=  10.00000
# SCALE FACTOR FOR SIGMAS: SCLSIG=   1.00000
# CHI^2=   1613.346 DOF=  1895 CHI^2/DOF=   0.85137
# RMS=      9.350 SDEV=      9.285 MEAN=    1.12141
#  P #       PARAMETER +-    SIGMA %error PARAMETER NAME
# P 1 =     -6547.03520 +-  169.280   2.59 YZERO                              
# P 2 =         3.25165 +-    0.084   2.58 SLOPE                              
# P 3 =         6.04609 +-    0.167   2.76 ANNUAL AMPLITUDE                   
# P 4 =        -2.85113 +-    0.037   1.31 ANNUAL PHASE                       
#       T            LDETRENDED       SIG_OBS
     2014.65023        -5.48624         5.00010
     2014.65297         4.27385         5.13850
     2014.65571         2.19695         4.93458
     2014.65845         4.44605         4.90598
     2014.66119         5.97015         4.92720
     2014.66392         2.28024         4.92720
     2014.66666        11.72634         4.92351
     2014.66940         8.02944         4.95304
     2014.67214         6.40054         4.94658
     2014.67488        -0.97737         4.92074
     2014.67761         1.34773         4.94381
     2014.68035        -0.00617         4.93458
     2014.68309        -2.10507         5.01117
     2014.68583        -4.36498         4.90875
     2014.68856        -7.19388         4.94566
     2014.69130        -0.92578         4.96872
     2014.69404        -2.14968         4.97703
     2014.69678        -0.93559         4.90229
     2014.69952        -4.18849         4.95119
     2014.70225         0.17761         4.86077
     2014.70499         2.36471         4.83770
     2014.70773         3.25180         4.83401
     2014.71047         2.10490         4.84785
     2014.71321         3.97400         4.87461
     2014.71594         4.65410         5.07760
     2014.71868        -4.91181         4.88845
     2014.72142         2.59129         4.86723
     2014.72416         3.62539         4.94658
     2014.72689         1.12449         5.20678
     2014.72963         1.19158         4.97334
     2014.73237         1.25968         4.89583
     2014.73511        -0.08422         4.86261
     2014.73785        -4.26312         4.84877
     2014.74058         8.87797         4.97611
     2014.74332         1.54207         4.92720
     2014.74606        -1.92183         4.86815
     2014.74880        -3.34673         5.01209
     2014.75154         1.08836         5.02132
     2014.75427         6.04646         5.00932
     2014.75701         3.40856         4.92997
     2014.75975        -1.68634         4.99641
     2014.76249         0.29675         4.93735
     2014.76522        -4.35315         4.88476
     2014.76796        -5.49105         4.87369
     2014.77070        -3.89895         5.13112
     2014.77344         2.46214         5.14127
     2014.77618         4.16724         4.95673
     2014.77891        -2.28566         4.91521
     2014.78165         2.08144         4.93643
     2014.78439        10.52553         4.91059
     2014.78713         5.61263         4.89122
     2014.78987         2.10573         4.88015
     2014.79260        -0.61917         4.87461
     2014.79534         7.87992         4.97795
     2014.79808         9.12602         5.08037
     2014.80082         8.04712         5.00932
     2014.80355         2.25822         5.05546
     2014.80629         2.35831         5.00471
     2014.80903        -0.93759         4.92536
     2014.81177         1.20551         4.90137
     2014.81451         6.93161         4.87000
     2014.81724        11.50270         4.84047
     2014.81998         8.27980         4.90875
     2014.82272         6.08590         5.09052
     2014.82546         1.53199         4.90414
     2014.82820         3.29709         4.90967
     2014.83093         3.34519         4.92167
     2014.83367        -0.21571         4.83586
     2014.83641         5.95638         4.89768
     2014.83915        -3.58752         4.94289
     2014.84188         8.59458         5.18094
     2014.84462        -0.32932         5.00563
     2014.84736         5.12377         5.02409
     2014.85010        -3.95213         4.91705
     2014.85284        -1.17003         4.95396
     2014.85557         4.03007         4.99825
     2014.85831        -1.94684         5.08406
     2014.86105        -1.47274         4.94289
     2014.86379        -0.26264         4.91244
     2014.86653         3.09346         4.90506
     2014.86926         0.15155         4.93274
     2014.87200         3.72165         4.97426
     2014.87474        -1.11025         4.93366
     2014.87748        -2.25215         4.92997
     2014.88021        -5.52006         4.90967
     2014.88295        -6.60996         4.99917
     2014.88569        -4.04286         5.08775
     2014.88843        11.59924         5.22154
     2014.89117         3.65633         5.12281
     2014.89390        -5.34957         5.07853
     2014.89664         3.56853         5.11820
     2014.89938        -4.52837         5.08037
     2014.90212        -8.87728         5.10805
     2014.90485        -2.35618         4.95488
     2014.90759        -0.77708         5.07853
     2014.91033         1.79102         4.94473
     2014.91307         5.11311         4.94658
     2014.91581        -2.20679         4.91336
     2014.91854        -2.93469         4.94104
     2014.92128        -5.37259         4.88845
     2014.92402         0.79650         4.88845
     2014.92676        -2.87240         4.95304
     2014.92950        -7.96130         5.03239
     2014.93223        -3.92520         4.98072
     2014.93497        -7.43711         4.90967
     2014.93771        -4.78501         4.91982
     2014.94045        -8.72591         4.95765
     2014.94318         6.44219         5.03516
     2014.94592        -4.88972         4.89214
     2014.94866        -8.60662         4.93366
     2014.95140        -3.59252         4.87738
     2014.95414        -1.00342         4.88384
     2014.95687        -9.19633         4.92997
     2014.95961        -1.42523         4.96688
     2014.96235         2.42887         4.88753
     2014.96509        -2.39703         5.03608
     2014.96783        -6.11794         4.86815
     2014.97056        -7.56684         4.94104
     2014.97330        -8.37074         5.04623
     2014.97604        -6.92864         4.95488
     2014.97878        -0.38655         4.91244
     2014.98151         0.73755         4.92997
     2014.98425       -10.01635         4.83586
     2014.98699         4.88775         4.85800
     2014.98973        -2.75416         4.87553
     2014.99247        -6.31106         4.88476
     2014.99520        -6.39496         4.87461
     2014.99794        -1.32186         4.83862
     2015.00068       -10.51377         4.92443
     2015.00342        -6.07167         4.95119
     2015.00616       -10.97757         4.88937
     2015.00889        -2.75847         5.01670
     2015.01163        -1.89338         4.99179
     2015.01437       -16.72928         4.97611
     2015.01711       -11.69718         5.22247
     2015.01984        -1.85409         4.91705
     2015.02258         0.05001         4.98995
     2015.02532        -7.31189         4.82294
     2015.02806       -14.50079         4.84047
     2015.03080        -3.27570         4.83401
     2015.03353       -11.80260         4.87553
     2015.03627        -4.08650         4.91798
     2015.03901         6.56860         4.88291
     2015.04175        -0.21031         4.95581
     2015.04449        -8.34821         4.87922
     2015.04722         0.28189         4.82755
     2015.04996         3.64299         4.91890
     2015.05270        -5.53792         4.86077
     2015.05544         4.60918         4.83586
     2015.05817        -1.39772         4.84139
     2015.06091         1.26938         4.98810
     2015.06365         6.14147         5.15695
     2015.06639        -0.73243         4.94381
     2015.06913        -9.83033         4.89952
     2015.07186        -9.04723         4.92259
     2015.07460        -7.08514         4.91798
     2015.07734       -10.20304         4.90506
     2015.08008       -10.70894         4.99364
     2015.08282       -12.76284         4.90044
     2015.08555       -13.02575         4.85892
     2015.08829        -7.76865         4.91705
     2015.09103       -11.56855         4.92997
     2015.09377        -6.55045         4.88476
     2015.09650        -3.86736         4.98441
     2015.09924        14.43374         5.13112
     2015.10198         1.18684         4.89122
     2015.10472        -3.24506         4.84324
     2015.10746        -3.60197         4.84693
     2015.11019       -12.27987         5.01301
     2015.11293        -5.78577         4.98718
     2015.11567       -11.01967         4.86261
     2015.11841        -4.99158         5.07114
     2015.12115        -7.82448         4.86538
     2015.12388        -9.73138         4.85708
     2015.12662        -6.94528         4.86815
     2015.12936        -3.25319         4.87092
     2015.13210        -2.82109         5.03608
     2015.13483       -11.75899         4.89768
     2015.13757        -6.35789         4.85246
     2015.14031        -6.25780         4.84324
     2015.14305        -4.55870         4.88107
     2015.14579        -2.88660         4.97426
     2015.14852        -5.89350         4.95212
     2015.15126       -12.80441         4.86907
     2015.15400        -9.86031         4.86446
     2015.15674       -10.46721         4.89399
     2015.15948         1.03689         4.91890
     2015.16221        -3.78602         4.94289
     2015.16495        -1.47392         5.02409
     2015.16769         1.40218         4.89399
     2015.17043         1.95228         4.92813
     2015.17316        -0.11463         5.00010
     2015.17590        -4.93153         4.97334
     2015.17864        -5.94743         4.86169
     2015.18138         3.22067         4.88199
     2015.18412         2.32076         4.90321
     2015.18685         2.77286         4.89122
     2015.18959         8.07696         4.98902
     2015.19233         5.10306         5.05454
     2015.19507        -1.86285         4.91521
     2015.19780        -4.33975         4.85800
     2015.20054        -0.46565         4.85246
     2015.20328         0.28645         4.88660
     2015.20602        -1.03246         5.54726
     2015.20876        -3.69136         4.91982
     2015.21149        -9.99426         4.85154
     2015.21423        -5.65117         5.06930
     2015.21697        -7.44607         4.83586
     2015.21971        -4.53297         4.84047
     2015.22245        -0.42887         4.84047
     2015.22518        -2.11878         4.86631
     2015.22792        -6.20468         4.92074
     2015.23066        -3.54858         4.88476
     2015.23340        -2.95648         4.95027
     2015.23613        -4.99139         5.01025
     2015.23887        -2.46129         5.24922
     2015.24161         0.36081         5.21047
     2015.24435        -3.17809         5.22247
     2015.24709        -9.07600         5.12651
     2015.24982         0.10710         4.90137
     2015.25256        -3.63380         4.91152
     2015.25530        -0.55370         4.94197
     2015.25804        -5.82961         4.90506
     2015.26078        -1.86551         4.91705
     2015.26351        -7.13541         4.87092
     2015.26625        -3.94231         4.90044
     2015.26899        -4.17422         4.88753
     2015.27173         6.65988         5.04715
     2015.27446         8.10098         5.08498
     2015.27720         2.43008         4.89306
     2015.27994        -7.46883         4.91244
     2015.28268        -2.57273         4.90783
     2015.28542        -2.04663         5.13481
     2015.28815        -6.87453         5.12374
     2015.29089       -20.57844         4.93828
     2015.29363        -5.82834         4.92536
     2015.29637        -4.14324         4.92074
     2015.29911        -2.70714         4.87553
     2015.30184        -0.54705         4.94197
     2015.30458        -4.52395         4.89860
     2015.30732        -3.11285         4.79618
     2015.31006        -2.51475         4.77588
     2015.31279       -11.97766         4.78326
     2015.31553        -5.95356         4.86446
     2015.31827        -9.55846         4.85985
     2015.32101        -4.49236         4.92259
     2015.32375       -11.51427         4.85062
     2015.32648        -6.11317         4.89214
     2015.32922        -8.99707         4.87369
     2015.33196       -12.51997         4.78603
     2015.33470        -8.45588         4.79987
     2015.33744        -6.05678         4.79433
     2015.34017       -12.76468         4.75189
     2015.34291       -15.12458         4.82847
     2015.34565        -4.43549         4.80448
     2015.34839        -4.94439         4.82109
     2015.35112        -0.78529         4.84508
     2015.35386        -4.77619         4.82478
     2015.35660       -12.07810         4.79803
     2015.35934       -10.33800         4.82109
     2015.36208        -2.81390         4.85062
     2015.36481        -8.12480         4.78326
     2015.36755        -7.11871         4.77404
     2015.37029        -7.07261         4.79157
     2015.37303        -5.95851         4.79895
     2015.37577       -10.93941         4.85246
     2015.37850       -10.02332         4.98256
     2015.38124        -4.74222         4.80356
     2015.38398        -9.35412         4.76758
     2015.38672        -8.20402         4.77588
     2015.38945        -6.28693         4.82847
     2015.39219        -7.56283         4.78418
     2015.39493        -4.85273         4.80264
     2015.39767        -6.10863         4.79895
     2015.40041        -8.10154         4.76389
     2015.40314        -6.51744         4.91521
     2015.40588       -11.17834         4.79157
     2015.40862        -4.53725         4.82109
     2015.41136        -3.17115         4.80633
     2015.41410        -4.18405         4.80356
     2015.41683         0.69705         4.79987
     2015.41957        -2.10986         4.80541
     2015.42231         0.96224         4.81371
     2015.42505        -1.48266         5.03977
     2015.42778         1.50244         4.80633
     2015.43052         1.11553         4.85523
     2015.43326        -3.79837         4.83955
     2015.43600        -1.42027         4.81832
     2015.43874        -5.64517         4.86815
     2015.44147        -1.63008         4.98441
     2015.44421        -3.04698         4.82571
     2015.44695         2.06712         4.77404
     2015.44969        -3.08278         4.80079
     2015.45243         1.96731         4.87000
     2015.45516         2.36641         4.79064
     2015.45790         1.74351         4.90783
     2015.46064         0.07361         4.98718
     2015.46338         1.51370         4.88199
     2015.46611         2.04780         4.79433
     2015.46885         1.75890         4.79157
     2015.47159         4.31600         4.87922
     2015.47433         1.05109         5.24369
     2015.47707         0.98919         5.00010
     2015.47980         9.85929         5.04808
     2015.48254         4.03539         4.91152
     2015.48528         1.36948         4.85892
     2015.48802         3.09858         4.76573
     2015.49076         0.56268         4.80079
     2015.49349         4.75278         4.85431
     2015.49623         2.35087         4.94935
     2015.49897         1.16697         5.14219
     2015.50171         3.80307         4.84416
     2015.50444         2.86317         4.80264
     2015.50718         1.37026         4.78788
     2015.50992         7.82136         4.78326
     2015.51266         3.23946         4.85246
     2015.51540         8.81056         4.87276
     2015.51813         6.57865         4.85800
     2015.52087         5.88375         4.78788
     2015.52361        -0.21915         4.92167
     2015.52635         3.44495         4.84416
     2015.52908         1.33804         4.89860
     2015.53182         4.94814         4.83124
     2015.53456         5.19924         4.82017
     2015.53730         3.38034         4.79526
     2015.54004         8.27443         4.83309
     2015.54277         5.34753         4.88199
     2015.54551        10.04963         4.84139
     2015.54825        10.17973         5.00932
     2015.55099        11.53882         4.86446
     2015.55373        14.88892         4.85985
     2015.55646         5.59002         4.94658
     2015.55920        10.98612         4.96780
     2015.56194        13.90221         4.95581
     2015.56468        10.43031         4.88476
     2015.56741         7.29641         4.92167
     2015.57015        13.01751         5.04623
     2015.57289         2.81660         5.04623
     2015.57563         2.61070         4.94104
     2015.57837         5.12980         4.91890
     2015.58110         4.73890         4.88107
     2015.58384         6.42799         4.86815
     2015.58658        10.36109         4.97057
     2015.58932         5.90319         4.98164
     2015.59206         6.56129         4.86446
     2015.59479         7.85538         5.06930
     2015.59753        16.08348         4.95950
     2015.60027         7.79858         5.00932
     2015.60301         7.27067         5.03793
     2015.60574         1.47377         4.90875
     2015.60848         9.09387         4.90321
     2015.61122        12.96697         4.80356
     2015.61396        14.51706         4.89860
     2015.61670         4.67016         4.81094
     2015.61943         4.83326         5.03424
     2015.62217         6.63836         4.83493
     2015.62491        15.27645         4.72698
     2015.62765        11.33355         4.77311
     2015.63039        12.91365         5.00656
     2015.63312        12.24875         4.83862
     2015.63586        14.65184         4.84785
     2015.63860         6.19994         4.86354
     2015.64134         7.15304         4.82940
     2015.64407         5.04514         4.72421
     2015.64681         6.48223         4.85431
     2015.64955         4.12133         4.83862
     2015.65229         3.76343         4.93551
     2015.65503        15.86053         5.06930
     2015.65776        13.52862         4.76112
     2015.66050        10.63872         4.77773
     2015.66324        17.60182         4.99548
     2015.66598        10.28992         4.90783
     2015.66872         8.55501         4.80910
     2015.67145         6.18911         4.72329
     2015.67419         5.28621         4.74359
     2015.67693         4.79931         4.73990
     2015.67967         5.50640         4.78326
     2015.68240         7.94150         4.81648
     2015.68514         9.48560         5.00379
     2015.68788        11.67170         4.92259
     2015.69062         8.01179         4.76296
     2015.69336         5.70889         5.14311
     2015.69609        12.02099         4.86538
     2015.69883        17.18709         4.74359
     2015.70157         7.72218         4.70852
     2015.70431         5.48728         4.70114
     2015.70705         5.97038         4.71498
     2015.70978         5.55448         4.74174
     2015.71252         6.84657         4.76665
     2015.71526         7.52767         4.84139
     2015.71800         8.91477         4.89122
     2015.72073        12.65887         4.73344
