# ================= DQRFIT RESULTS ================
# INPUT FILE: series/GRP4.rad
# OUTPUT: LDETRENDED
# FILTER FUNCTION: f(t)
# f(t)=+line(t)+annual(t)
# line(t)=+P 1+P 2*t
# annual(t)=+P 3*sin(2*pi*t+P 4)
# heav(t)=(t<0?0:1)
# TOTAL OBSERVATIONS MTOT= 1912
# INITIAL TIME INTERVAL= 2012.5574 - 2006.6010 =  5.9564
# TOTAL OBSERVATIONS AFTER PREFILTER M= 1911
# TIME-SPAN= 2012.5574 - 2006.6010 =  5.9564
# OBSERVATIONS: USED M=  1911 REJECTED MTOT-M=     1 %USED=   99.9477
# N=  4 PARAMETERS
# MAXSIG= 175.00000
# MAXRES=  19.25083
# SCALE FACTOR FOR LENGTHS: SCL=  10.00000
# SCALE FACTOR FOR SIGMAS: SCLSIG=   1.00000
# CHI^2=   1426.224 DOF=  1907 CHI^2/DOF=   0.74789
# RMS=      4.995 SDEV=      4.996 MEAN=    0.02748
#  P #       PARAMETER +-    SIGMA %error PARAMETER NAME
# P 1 =      3014.31748 +-  141.576   4.70 YZERO                              
# P 2 =        -1.49673 +-    0.070   4.71 SLOPE                              
# P 3 =         6.77351 +-    0.161   2.38 ANNUAL AMPLITUDE                   
# P 4 =        -3.02434 +-    0.033   1.10 ANNUAL PHASE                       
#       T            LDETRENDED       SIG_OBS
     2006.60095         3.57824         4.97263
     2006.60369         6.73534         5.04614
     2006.60643         8.89944         4.98820
     2006.60917         7.08854         4.94496
     2006.61190         4.43763         5.00549
     2006.61464         8.80473         4.95879
     2006.61738        10.06583         4.97696
     2006.62012         9.39393         4.97263
     2006.62286         4.11403         4.92420
     2006.62559         3.01512         4.97004
     2006.75975        12.34792         5.11705
     2006.76249        11.77201         5.05738
     2006.76522         9.75211         5.16548
     2006.76796         7.23821         5.14905
     2006.77070         3.00731         4.98733
     2006.77344         4.22541         5.13435
     2006.77618        11.56050         5.06603
     2006.77891        13.84860         5.04182
     2006.78165        11.58870         4.88702
     2006.78439         9.02780         4.91383
     2006.78713        14.25789         5.06084
     2006.78987        18.12999         5.02971
     2006.79260        10.68309         4.96831
     2006.79534         5.74719         5.04614
     2006.79808        10.94029         5.12657
     2006.80082        11.19038         5.11014
     2006.80355         2.13548         4.94323
     2006.80629         8.78058         4.95707
     2006.80903         9.33468         4.92939
     2006.81177         9.53178         4.98042
     2006.81451        14.06187         5.08506
     2006.81724         7.53097         5.06344
     2006.81998         5.40107         4.87664
     2006.82272         4.39117         4.90345
     2006.82546        14.71526         5.23640
     2006.82820         7.43236         4.88615
     2006.83093         6.71946         4.88529
     2006.83367        10.38456         4.88442
     2006.83641        13.40966         5.09284
     2006.83915        10.55975         5.03576
     2006.84188         6.00485         5.10927
     2006.84462         7.86295         5.13867
     2006.84736         6.01805         5.06776
     2006.85010         9.82214         5.21132
     2006.85284        11.19824         5.28223
     2006.85557         9.88034         5.18537
     2006.85831        11.09644         5.02366
     2006.86105         8.99954         5.34536
     2006.86379         3.38863         5.15078
     2006.86653        11.23873         5.25369
     2006.86926         4.42983         5.02452
     2006.87200         6.24893         5.04182
     2006.87474         4.14403         5.03663
     2006.87748        10.48112         4.99339
     2006.88021         5.44922         4.95620
     2006.88295         5.62832         5.13694
     2006.88569         7.13942         5.05219
     2006.88843        -2.55149         5.05306
     2006.89117         6.65961         5.00636
     2006.89390        -2.95229         5.22256
     2006.89664         3.36881         5.15597
     2006.89938         1.48991         5.06171
     2006.90212         5.74400         4.99166
     2006.90485        -4.14290         5.32634
     2006.90759        -0.55580         4.95534
     2006.91033        -2.61570         4.94755
     2006.91295         5.29122         5.35920
     2006.91581        -1.55351         4.96225
     2006.91854        -3.18941         4.88442
     2006.92128        -3.46231         4.92074
     2006.92402        -5.67821         5.01241
     2006.92676        -5.41312         5.06690
     2006.92950        -2.63102         5.00376
     2006.93223         1.54408         5.00463
     2006.93497         9.12418         5.10235
     2006.93771         8.36828         4.99252
     2006.94045         7.80037         5.11965
     2006.94318         1.08147         5.09889
     2006.94592         1.14957         5.02971
     2006.94866        11.93267         5.14386
     2006.95140         7.94176         5.00204
     2006.95414        -4.94714         5.51314
     2006.95687         3.19196         4.98647
     2006.95961        -1.64694         4.97696
     2006.96235         3.59816         5.07641
     2006.96509         4.24225         5.07900
     2006.96783        -0.86665         5.06603
     2006.97056         0.51545         5.11705
     2006.97330        -9.88145         5.07814
     2006.97604        -3.59436         4.93112
     2006.97878         2.06574         5.06690
     2006.98151        -1.69516         5.04873
     2006.98425         2.96394         5.05998
     2006.98699        -1.60896         5.25283
     2006.98973        -5.72787         5.05652
     2006.99794        -2.02057         5.12311
     2007.00342        -0.49138         5.22256
     2007.00616         5.46972         5.12138
     2007.00889         1.76982         5.23986
     2007.01163        -7.02308         5.11446
     2007.01437        -0.08499         5.06603
     2007.01711        -9.52689         5.04873
     2007.01984       -11.77579         5.07381
     2007.02258       -11.08369         5.05911
     2007.02504        -4.74802         5.78036
     2007.05544        -7.65552         4.81178
     2007.05817        -5.46142         4.87404
     2007.06091        -7.91932         4.80832
     2007.06365        -8.35123         4.80313
     2007.06639       -12.62813         4.90085
     2007.06913        -7.47703         4.74346
     2007.07186        -5.35893         4.73481
     2007.07460       -11.12983         4.77200
     2007.07734       -13.48474         4.79794
     2007.08008       -10.80964         4.72962
     2007.08282        -7.33054         4.74605
     2007.08555        -4.62644         4.89134
     2007.08829        -4.96134         4.80054
     2007.09103        -7.56325         4.90172
     2007.09377        -7.53815         4.88356
     2007.09650       -10.11305         4.83599
     2007.09924        -7.91995         4.85675
     2007.10198       -10.02686         4.88096
     2007.10472        -6.34776         4.86194
     2007.10746       -12.72566         4.98647
     2007.11019        -9.87556         4.76940
     2007.11293        -2.18746         4.83513
     2007.11567       -11.00237         4.79794
     2007.11841        -7.49927         4.74086
     2007.12115       -12.26917         4.81264
     2007.12388       -12.10807         5.04095
     2007.12662        -3.14898         4.87491
     2007.12936        -4.15588         4.94842
     2007.13210        -0.43978         4.91728
     2007.13466        -7.17694         5.27964
     2007.13757         2.93042         4.83513
     2007.14031        -2.03549         4.83167
     2007.14305        -0.19539         4.77892
     2007.14579        -2.06329         4.79362
     2007.14852        -4.85819         4.83513
     2007.15126         0.00891         4.91296
     2007.15400         3.47900         4.85588
     2007.15674         5.23710         4.79102
     2007.15948         5.68120         4.91728
     2007.16221        -8.79970         4.97955
     2007.16495        -0.90361         5.00031
     2007.16769        -4.40351         5.02193
     2007.17043        -3.92541         4.95707
     2007.17316        -2.72131         4.96485
     2007.17590        -5.21421         4.88529
     2007.17864        -0.82412         5.10668
     2007.18138         0.26698         4.96485
     2007.18412        -1.57492         4.89048
     2007.18685        -5.33282         5.04441
     2007.18959        -7.77573         5.01587
     2007.19233        -8.44463         5.02625
     2007.19507        -7.29753         4.86453
     2007.19780        -7.46843         4.83253
     2007.20054       -11.60633         4.83167
     2007.20328       -11.78824         4.89307
     2007.20602        -8.38614         4.86799
     2007.20876        -5.12704         4.86972
     2007.21149       -12.20694         4.85415
     2007.21423        -6.58285         4.98474
     2007.21697        -4.97475         4.86107
     2007.21971         0.91035         4.83599
     2007.22245        -0.89455         4.85502
     2007.22518        -1.60045         4.86540
     2007.22792        -2.24436         4.88442
     2007.23066        -5.19026         4.83426
     2007.23340        -8.73016         4.86367
     2007.23613       -10.02906         4.88096
     2007.23887       -13.41496         4.79189
     2007.24161        -8.73187         4.85761
     2007.24435        -4.36377         4.80399
     2007.24709        -3.06167         4.84724
     2007.24982        -6.04657         4.90518
     2007.25256       -11.73648         4.77459
     2007.25530       -11.58938         4.77113
     2007.25804        -5.68228         4.84378
     2007.26078        -6.45018         4.89048
     2007.26351        -1.65108         4.79535
     2007.26625        -0.34499         4.94323
     2007.26899         5.84211         4.85502
     2007.27173        -3.84879         4.97263
     2007.27446         0.41331         4.75989
     2007.27720         0.16240         4.74605
     2007.27994        -1.50150         4.89826
     2007.28268         3.98160         5.01501
     2007.28542        -0.02730         4.84896
     2007.31553        -1.60823         4.80832
     2007.31827        -1.43413         4.85675
     2007.32101        -4.94003         4.82043
     2007.32375        -5.07093         4.87231
     2007.32648        -2.27383         4.88010
     2007.32922         1.39426         4.84205
     2007.33196         5.62536         5.01414
     2007.33470        -4.55054         4.87577
     2007.33744        -7.74244         4.88096
     2007.34017        -8.07435         4.86626
     2007.34291       -11.30925         4.94409
     2007.34565        -7.29215         4.87145
     2007.34839        -5.87505         4.81956
     2007.35112        -4.97895         4.80572
     2007.35386        -6.33186         5.10754
     2007.35660        -8.55876         5.12224
     2007.35934        -2.16466         4.85761
     2007.36208        -6.50056         4.91296
     2007.36481        -7.46946         4.93458
     2007.36755        -3.57037         4.84118
     2007.37029        -2.86327         4.94669
     2007.37303        -2.69717         5.03317
     2007.37577        -8.42607         5.05738
     2007.37850        -7.73398         4.91296
     2007.38124        -0.60388         4.93458
     2007.38398       -11.25178         4.86799
     2007.38672        -8.17668         4.87318
     2007.38945        -8.70058         4.81264
     2007.39219        -4.35049         5.01587
     2007.39493        -2.11539         4.84291
     2007.39767        -2.76429         4.86713
     2007.40041        -0.74219         4.83513
     2007.40314        -5.91510         4.79448
     2007.40588        -6.18800         4.80313
     2007.40856        -6.91399         5.06776
     2007.41136        -5.55280         4.87058
     2007.41410        -0.24270         4.81697
     2007.41683        -7.32261         4.82561
     2007.41957        -2.30551         4.95707
     2007.42231        -2.39641         4.88096
     2007.42505         0.71469         4.95793
     2007.42778         5.15278         4.81524
     2007.43052         0.06088         4.85502
     2007.43326         0.41298         4.78151
     2007.43600        -0.85392         4.89566
     2007.43862         1.45501         5.15251
     2007.44147        -6.12073         4.95015
     2007.44376        -9.80031         7.31798
     2007.44695        -6.18853         4.90172
     2007.44969        -5.16343         4.87837
     2007.45243        -4.52533         4.89826
     2007.45516        -6.19524         4.79275
     2007.45790        -2.05714         4.85761
     2007.46064        -7.88604         4.84032
     2007.46338         3.25406         4.81956
     2007.46611         1.05515         4.83772
     2007.46885         2.71225         4.93372
     2007.47159        -5.60265         4.81178
     2007.47433        -0.10555         4.80227
     2007.47707        -8.26945         4.97955
     2007.47986       -11.74327         5.02538
     2007.48254       -10.67026         4.84378
     2007.48528        -8.99616         4.81783
     2007.48802        -8.81006         4.81697
     2007.49076         1.13803         5.02193
     2007.49349        -0.82287         4.87750
     2007.49623        -1.41577         4.86453
     2007.49897         1.93733         4.88875
     2007.50171        -7.61857         4.81870
     2007.50444        -1.60048         4.79102
     2007.50718         1.28462         4.84551
     2007.50992         4.39172         4.89220
     2007.51266        -2.10818         4.87750
     2007.51540         0.73492         4.88702
     2007.51813        -1.92599         4.78670
     2007.52087         1.04211         4.81264
     2007.52344         1.26695         5.23553
     2007.52635         1.23231         4.98387
     2007.52908         4.89440         5.06430
     2007.53182         1.68850         4.91037
     2007.53456        -3.65840         4.98387
     2007.53730        -0.36130         4.90518
     2007.54004         6.81680         4.95534
     2007.54277        -2.39411         4.86367
     2007.54551        -0.33501         4.92420
     2007.54825         6.79409         5.00982
     2007.55099         4.40919         4.91642
     2007.55373         4.24828         4.89048
     2007.55646         1.21638         4.87491
     2007.55920        -0.45652         4.84637
     2007.56194         3.82958         5.06517
     2007.56468         6.93568         4.82907
     2007.56741        -0.31123         4.87577
     2007.57015         8.49287         4.92680
     2007.57289         3.95797         4.80659
     2007.57563         3.60007         4.92247
     2007.57837        -0.18283         4.79102
     2007.58110         2.12226         4.82043
     2007.58384         9.46136         4.81091
     2007.58658        -2.64854         4.89653
     2007.58932         2.55256         4.80918
     2007.59206         9.33565         4.83686
     2007.59479        10.56875         4.90345
     2007.59753         7.40185         5.00809
     2007.60027         8.14695         5.05479
     2007.60301         4.96305         4.76854
     2007.60574        -1.07586         4.77459
     2007.60848         4.48424         4.83426
     2007.61122         8.46034         4.80399
     2007.61396         1.68644         4.82734
     2007.61670         2.36553         5.21478
     2007.61943         6.95963         5.17586
     2007.62217         5.51773         5.06690
     2007.62491         0.02483         5.13694
     2007.62765        10.51693         5.13522
     2007.63039         9.37602         5.12916
     2007.63312         7.45612         4.99079
     2007.63586         9.43022         5.00031
     2007.63860         3.99032         4.95015
     2007.64134         8.86941         4.87318
     2007.64407        13.61751         5.09543
     2007.64681         6.54261         5.03576
     2007.64955        14.00771         5.41714
     2007.65229         9.60781         5.12657
     2007.65503         4.11690         5.05219
     2007.65776         8.86100         5.03576
     2007.66050         4.18610         5.05652
     2007.66324        10.42920         5.04528
     2007.66598         4.24330         5.02193
     2007.66872         9.00139         5.23034
     2007.67145         7.18849         5.14127
     2007.67419        14.90559         5.15597
     2007.67693        10.91069         5.05738
     2007.67967         9.56778         4.99771
     2007.68240        15.27988         4.94928
     2007.68514         9.20498         5.13176
     2007.68788         8.41808         5.17240
     2007.69062         7.95318         4.99598
     2007.69336         8.97127         5.02020
     2007.69609         5.14637         4.99339
     2007.69883         6.28647         5.04268
     2007.70157         8.90357         5.07641
     2007.70431        17.15066         5.16548
     2007.70705         9.97476         5.16202
     2007.70978        11.57586         5.16981
     2007.71252        12.84296         4.99858
     2007.71526         1.11306         4.91555
     2007.71800        14.98815         4.95188
     2007.72073        10.75525         4.90518
     2007.72347        14.67735         4.94582
     2007.72621         9.77145         4.83772
     2007.72895         4.10355         4.91815
     2007.73169         8.56464         5.00636
     2007.73442         7.47574         4.93026
     2007.73716         6.77084         5.03317
     2007.73990        15.85794         4.95101
     2007.74264        14.49403         4.89134
     2007.74538        12.68613         4.94063
     2007.74811         8.22623         5.00895
     2007.75085        12.62833         5.28396
     2007.75359        15.52143         5.07554
     2007.75633        10.46852         4.87923
     2007.75906         5.69062         4.87231
     2007.76180         8.00672         4.90691
     2007.76454         8.71682         4.96571
     2007.76728         3.36091         5.38601
     2007.77002        13.87401         5.28742
     2007.77275         7.67611         5.12484
     2007.77549         4.82421         4.93631
     2007.77823         7.38431         4.85934
     2007.78097         9.83740         4.90258
     2007.78371         6.08550         4.90345
     2007.78644        15.01960         4.89393
     2007.78918        10.40970         5.00117
     2007.79192        12.07980         5.02106
     2007.79454        13.44972         5.22343
     2007.79739         6.49599         5.03403
     2007.80013        16.44109         4.91210
     2007.80287         6.48619         4.86540
     2007.80561         8.47228         4.94063
     2007.80835         8.06538         4.96831
     2007.81108        16.35948         5.11619
     2007.81382         1.32658         5.00636
     2007.81656         3.33968         5.06517
     2007.81930         4.97177         4.88961
     2007.82203         3.90787         4.95620
     2007.82477         1.64997         5.06344
     2007.82751        -0.29493         4.98733
     2007.83025         4.28616         5.00895
     2007.83299         5.77626         4.90950
     2007.83572         2.85336         4.82821
     2007.83846         5.32546         4.93631
     2007.84120         4.51656         4.93112
     2007.84394        -2.12535         4.91123
     2007.84668        -3.51225         4.94236
     2007.84941         2.42785         4.91815
     2007.85215         3.22495         5.20959
     2007.85489         7.42704         5.20872
     2007.85763         1.70914         5.11792
     2007.86036         5.14024         4.92853
     2007.86310         3.86134         5.00982
     2007.86584         4.99744         4.92507
