# ================= DQRFIT RESULTS ================
# INPUT FILE: series/GRSV.rad
# OUTPUT: LDETRENDED
# FILTER FUNCTION: f(t)
# f(t)=+line(t)+annual(t)
# line(t)=+P 1+P 2*t
# annual(t)=+P 3*sin(2*pi*t+P 4)
# heav(t)=(t<0?0:1)
# TOTAL OBSERVATIONS MTOT= 3612
# INITIAL TIME INTERVAL= 2022.7488 - 2009.8261 = 12.9227
# TOTAL OBSERVATIONS AFTER PREFILTER M= 3609
# TIME-SPAN= 2022.7488 - 2009.8261 = 12.9227
# OBSERVATIONS: USED M=  3609 REJECTED MTOT-M=     3 %USED=   99.9169
# N=  4 PARAMETERS
# MAXSIG= 175.00000
# MAXRES=  28.43104
# SCALE FACTOR FOR LENGTHS: SCL=  10.00000
# SCALE FACTOR FOR SIGMAS: SCLSIG=   1.00000
# CHI^2=   2734.368 DOF=  3605 CHI^2/DOF=   0.75849
# RMS=      4.976 SDEV=      4.977 MEAN=    0.04108
#  P #       PARAMETER +-    SIGMA %error PARAMETER NAME
# P 1 =      3844.88905 +-   51.654   1.34 YZERO                              
# P 2 =        -1.90803 +-    0.026   1.34 SLOPE                              
# P 3 =         4.52762 +-    0.113   2.50 ANNUAL AMPLITUDE                   
# P 4 =        -2.93807 +-    0.035   1.18 ANNUAL PHASE                       
#       T            LDETRENDED       SIG_OBS
     2009.82614         2.33992         4.95115
     2009.82888         7.33515         5.02170
     2009.83162        13.17537         5.31345
     2009.83436        -4.20741         4.92764
     2009.83709        -0.80818         5.03650
     2009.83983        -6.26896         4.98860
     2009.84257         4.46027         4.92502
     2009.84531         1.01449         5.04782
     2009.84804         4.92571         5.49809
     2009.85078         1.11994         5.03302
     2009.85352         0.05016         4.93809
     2009.85626         0.17038         4.97118
     2009.85905        -2.96328         5.06873
     2009.86173        -3.80617         4.90586
     2009.86447         5.21806         5.21939
     2009.86721         1.18728         5.10356
     2009.86995         1.03250         5.00602
     2009.87269         6.09573         5.15930
     2009.87548         1.06306         5.14885
     2009.87816         4.38218         5.05479
     2009.88090         1.08840         5.24291
     2009.88364         4.36262         4.96683
     2009.88620         3.00352         5.40229
     2009.88911         7.78407         5.28471
     2009.89185         6.66730         4.94854
     2009.89459        -1.08048         4.87538
     2009.89733        -6.46226         4.89541
     2009.90006        -7.32003         4.89280
     2009.90280        -0.19781         4.88932
     2009.90554         2.56042         4.90412
     2009.90828        -5.85036         4.85013
     2009.91102        -8.27814         4.98163
     2009.91375        -2.18791         4.82574
     2009.91649        -5.55469         4.85535
     2009.91929        -8.88036         4.96683
     2009.92197        -7.25324         4.81703
     2009.92470        -9.59702         4.82226
     2009.92744        -5.43279         4.84577
     2009.93018        -6.42557         4.78829
     2009.93292        -3.77535         4.82574
     2009.93566        -3.44912         5.11750
     2009.93839        -3.51490         4.97989
     2009.94113        -1.27567         4.85622
     2009.94387        -1.48645         4.94767
     2009.94661         1.10777         4.91632
     2009.94935         0.62700         4.82487
     2009.95208        -6.15178         4.85187
     2009.95482       -15.42555         4.82226
     2009.95750        -7.39344         5.18630
     2009.96030        -8.40411         4.85013
     2009.96303       -10.58788         4.83706
     2009.96577        -5.35366         4.91370
     2009.96851       -10.51644         4.94593
     2009.97125        -5.45021         4.95028
     2009.97399         0.06701         4.89019
     2009.97672        -7.37076         4.77174
     2009.97952       -12.37243         4.91632
     2009.98220       -10.89032         4.77784
     2009.98494        -7.87809         4.92415
     2009.98767        -6.04687         4.76913
     2009.99041        -8.24264         4.73691
     2009.99315        -8.43642         4.80919
     2009.99589        -8.48520         4.74475
     2009.99863       -11.83197         4.79352
     2010.00410       -12.06452         4.75258
     2010.00684       -14.23730         5.13230
     2010.00958        -7.68208         4.82835
     2010.01232        -7.58285         4.92938
     2010.01505       -13.87163         4.80048
     2010.02059        -9.64307         4.85884
     2010.02327       -17.51596         4.78829
     2010.02600       -15.92673         4.76478
     2010.02874       -13.74851         5.11663
     2010.03148        -9.90229         4.96073
     2010.03422        -7.48306         4.87103
     2010.03696        -5.69684         5.06002
     2010.03969         2.93139         4.89106
     2010.04243        -2.99739         4.78307
     2010.04517         3.60083         4.77610
     2010.04796         3.10617         4.90499
     2010.05065        -0.31672         4.89541
     2010.05338         6.69851         5.24117
     2010.05612         3.43573         5.02779
     2010.05886         3.39395         4.76216
     2010.06160        -2.94082         4.77000
     2010.06433        -5.01060         4.76826
     2010.06707        -3.79637         4.77610
     2010.06981       -10.01015         4.87625
     2010.07255        -8.92993         4.87712
     2010.07529        -5.51470         4.88670
     2010.07797        -7.25759         5.66095
     2010.08076        -5.86125         4.84664
     2010.08350        -4.23203         4.73604
     2010.08629        -1.09370         4.83968
     2010.08898         6.77142         4.89541
     2010.09171         5.82464         4.75084
     2010.09451         0.76097         4.92677
     2010.09719         0.30209         4.89106
     2010.09993        -6.48569         4.76303
     2010.10266        -3.35046         5.08353
     2010.10540        -2.61524         4.83445
     2010.10814        -0.86102         4.83097
     2010.11088        -5.25979         4.91893
     2010.11362        -2.35557         4.82313
     2010.11635        -1.98234         4.80484
     2010.11909        -3.37412         4.79352
     2010.12183        -3.54490         4.79700
     2010.12457        -3.96567         4.77784
     2010.12731        -1.81045         5.26904
     2010.13004        -8.31122         4.81790
     2010.13278        -9.49200         4.81442
     2010.13552       -10.11578         4.80919
     2010.13826        -5.18555         4.75694
     2010.14099        -4.82633         4.72384
     2010.14373        -6.36211         4.88758
     2010.14647        -5.74088         4.89280
     2010.14921        -4.20666         4.81877
     2010.15195        -9.25843         4.73168
     2010.15468        -3.53321         4.72733
     2010.15748        -1.63188         4.85100
     2010.16016        -1.72776         4.73952
     2010.16290        -7.17154         4.75345
     2010.16564        -6.90731         4.79874
     2010.16837        -6.39309         4.79003
     2010.17111        -3.39787         4.74997
     2010.17385        -7.96064         4.99905
     2010.17659        -4.89542         4.72210
     2010.17932         0.57081         4.71513
     2010.18206         1.28103         4.74736
     2010.18480        -6.51575         4.74997
     2010.18754         0.00948         4.70294
     2010.19028        -1.70430         4.74387
     2010.19301        -3.47407         4.74475
     2010.19575        -1.87185         5.11576
     2010.19849        -4.79763         5.06002
     2010.20123       -12.27240         4.74823
     2010.20397        -8.72918         4.85535
     2010.20670        -9.34596         4.87625
     2010.20944        -8.66973         4.76216
     2010.21218        -4.79951         4.78829
     2010.21492        -5.23228         4.74562
     2010.21765        -4.38706         4.77784
     2010.22039        -5.10384         4.91283
     2010.22313       -11.69661         4.74126
     2010.22587        -4.84339         4.83793
     2010.22861        -4.49916         4.87451
     2010.23134        -8.92094         4.81006
     2010.23408       -11.53172         4.86058
     2010.23956        -1.32727         4.91719
     2010.24230        -2.55104         5.82903
     2010.24503        -4.59182         5.11576
     2010.24777        -3.86760         4.88148
     2010.25051         1.15463         5.09747
     2010.25325         2.48485         4.90325
     2010.25598         4.10808         4.91719
     2010.25872         1.50730         4.89977
     2010.26146        -1.91848         4.96683
     2010.26420        -1.82125         5.04173
     2010.26694         3.35297         5.21591
     2010.26967        -0.07881         4.89803
     2010.27241        -2.30658         4.89193
     2010.27515        -4.94936         4.82835
     2010.27789        -1.64413         4.87538
     2010.28062        -2.88591         4.82835
     2010.28336        -6.41169         4.86406
     2010.28610        -2.01646         4.87800
     2010.28884       -10.15324         5.39706
     2010.29158        -6.12001         4.91196
     2010.29437        -5.34868         4.99470
     2010.29705        -0.20157         4.73952
     2010.29985         1.03677         4.95115
     2010.30253         3.38488         4.81964
     2010.30527         6.66011         4.95202
     2010.30800         3.13933         4.81181
     2010.31074         1.63155         5.63482
     2010.31348        -2.54922         5.09660
     2010.31622         3.92700         4.75433
     2010.31895         4.59222         4.96247
     2010.32169         8.31645         4.86493
     2010.32443         6.86067         4.94767
     2010.32723        -3.93799         4.84838
     2010.32991         0.38912         4.82487
     2010.33264         5.42434         4.82487
     2010.33538        -1.51143         5.23768
     2010.33812         1.68479         4.86145
     2010.34086        -6.47698         4.74039
     2010.34360        -7.34376         4.72036
     2010.34639        -2.58743         4.90761
     2010.34913        -5.20920         4.90151
     2010.35187        -0.95098         4.87103
     2010.35455         1.14814         4.72994
     2010.35728        -9.39064         5.68185
     2010.36002        -3.53342         4.99644
     2010.36276        -0.46619         4.75694
     2010.36550        -4.52497         4.95638
     2010.36824         0.77626         4.87016
     2010.37103         5.35059         4.84403
     2010.37371         8.46170         4.82139
     2010.37645         1.25393         4.79613
     2010.37919        -1.10685         5.15756
     2011.87177         1.15205         5.89174
     2011.87405        -0.61460         4.69597
     2011.87953        -0.37015         4.78045
     2011.88227         5.28208         4.71339
     2011.88501         0.76030         4.74126
     2011.88774        -1.55748         4.79613
     2011.89048        -1.16825         4.74910
     2011.89322         1.49897         4.82922
     2011.89869         2.46642         4.78829
     2011.90143        -4.48936         4.88061
     2011.90417         2.71287         4.87712
     2011.90691         2.65209         4.75868
     2011.90965         2.69431         4.72297
     2011.91238        -3.92146         4.87103
     2011.91786        -1.52001         4.88758
     2011.92060        -3.68179         4.75084
     2011.92613        -7.82823         4.95289
     2011.92881        -5.68712         5.00079
     2011.93155         2.74411         4.80658
     2011.93702        -2.57245         4.80658
     2011.93976        -0.47122         4.82226
     2011.94250        -0.93500         4.83445
     2011.94524        -0.55877         4.78394
     2011.94798         3.63645         4.78394
     2011.95071         1.80667         4.70294
     2012.02863         2.23534        17.11087
     2012.03559         2.03261         4.66549
     2012.03833         3.61684         4.64982
     2012.04106         5.27706         4.64198
     2012.04300         5.07176         7.13715
     2012.04700         2.73838         5.81858
     2012.05207        -2.16393         4.68291
     2012.05475        10.20418         4.70643
     2012.05641         1.91734         9.89185
     2012.06040         1.11496         5.06263
     2012.06297        -2.24815         4.70555
     2012.06570        -2.26092         4.67856
     2012.07118        -8.65548         4.59234
     2012.07392        -1.83625         4.60453
     2012.07666        -5.66903         4.64633
     2012.07939         2.91720         4.85361
     2012.08213         1.46242         4.64894
     2012.08453         0.42499         5.41361
     2012.09034        -7.62991         4.62978
     2012.09308        -1.15068         4.69075
     2012.09582        -3.03546         4.69336
     2012.09856        -3.74924         4.66027
     2012.10130        -4.54601         4.72559
     2012.10392        -4.81901         4.78394
     2012.10934         1.24933         5.11663
     2012.11225        -1.84612         4.75694
     2012.11498        -2.01689         4.67856
     2012.11772         1.79033         4.70033
     2012.12046         2.01256         4.76129
     2012.12320        -0.41922         4.72123
     2012.12867        -5.05277         4.83271
     2012.13141        -5.28755         4.75345
     2012.13415        -2.37233         4.72907
     2012.13689        -1.39910         4.76478
     2012.13963         2.15512         4.93635
     2012.14236         2.51535         5.04173
     2012.14784        -6.58821         4.66810
     2012.15058         0.55002         4.75607
     2012.15331        -1.68776         4.68465
     2012.15600        -4.24664         4.86319
     2012.15845        -3.77996         5.56689
     2012.16153         2.57091         4.70033
     2012.16700        -2.79364         4.73342
     2012.16974        -1.84541         4.69510
     2012.17248        -6.64519         4.65591
     2012.17522        -5.11297         4.86754
     2012.17796         0.23126         4.75084
     2012.18069        -7.05552         4.68901
     2012.18617        -6.96707         4.67943
     2012.18891        -0.45885         4.81268
     2012.19164         1.83238         5.90829
     2012.19438         1.41860         4.79439
     2012.19712         3.50782         4.71862
     2012.19986        -3.09895         4.94854
     2012.20533         2.26850         4.83358
     2012.20807         0.38672         4.72994
     2012.21081         1.45494         4.69859
     2012.21343        -2.59205         4.89716
     2012.21783        -7.75667        12.52986
     2012.22096        -9.41068         8.63948
     2012.22381       -10.21824         6.90374
     2012.22741        -4.56739         5.07918
     2012.23277        -1.58316         4.78829
     2012.23539        -0.13915         4.80658
     2012.23745        -8.90923         7.26082
     2012.24144         5.53739         5.87955
     2012.24366         1.32363         4.71078
     2012.24640         0.03785         4.67072
     2012.24914         0.27508         4.62804
     2012.25188        -5.92270         4.66201
     2012.25462        -8.49747         4.69249
     2012.25735        -3.12825         4.68291
     2012.26283        -9.53180         4.61672
     2012.26557        -6.20258         4.60975
     2012.26819       -15.04657         7.06835
     2012.27110        -3.79402         4.86580
     2012.27378        -4.22091         4.67856
     2012.27658        -4.59057         4.71513
     2012.28199        -1.89323         4.62891
     2012.28473        -0.25301         4.63414
     2012.28747        -5.95379         4.63501
     2012.28901       -15.48085        14.69060
     2012.29295        -8.02334         4.64894
     2012.29568        -5.96311         4.65765
     2012.30116        -9.05967         4.79526
     2012.30390        -7.18344         4.67246
     2012.30663       -11.62422         4.66985
     2012.30937        -1.96300         4.76391
     2012.31211        -4.76577         4.88583
     2012.31485        -5.48055         4.78307
     2012.32032        -6.94110         4.73952
     2012.32306        -9.43488         4.62282
     2012.32580        -7.54065         4.64982
     2012.32854        -4.09043         5.12795
     2012.33128         0.14880         4.76129
     2012.33401        -4.36198         4.72994
     2012.33955        -6.32842         4.73865
     2012.34223       -12.23331         4.64198
     2012.34496       -13.05708         4.63675
     2012.34719       -17.05384         6.03544
     2012.35124         0.13089         8.63948
     2012.35318        -3.96841         4.91806
     2012.35843       -11.67640         6.94381
     2012.36145        -4.27363         6.40471
     2012.36413        -9.47352         5.18369
     2012.36692        -8.03918         4.71078
     2012.36961        -9.13707         4.62630
     2012.37234        -5.59085         4.73342
     2012.37782        -9.82740         4.75607
     2012.38056        -9.22417         4.74300
     2012.38329        -5.62995         4.72907
     2012.38603       -10.11673         4.85100
     2012.38877       -10.45650         4.97641
     2012.39151         1.31472         4.75084
     2012.39698        -5.29783         4.73778
     2012.39972        -5.35161         4.61498
     2012.40246        -6.07038         4.64982
     2012.40520        -7.40716         4.68901
     2012.40794       -12.00893         4.67333
     2012.41067       -10.45471         4.68639
     2012.41615        -5.90326         4.68204
     2012.41889        -3.39704         4.85361
     2012.42162        -5.54782         5.71059
     2012.42442        -0.13248         4.75955
     2012.42710       -10.32437         4.66114
     2012.42989        -1.11303         4.74997
     2012.43531       -11.20770         4.70033
     2012.43805       -17.22147         4.66027
     2012.44079       -12.54525         4.63849
     2012.44353       -12.01802         4.63588
     2012.44626        -3.93280         4.71688
     2012.44900        -1.73858         4.67507
     2012.45448       -12.21813         5.82468
     2012.45722        -7.68190         4.71601
     2012.45995         0.09932         4.80484
     2012.46269        -0.45446         4.93896
     2012.46543        -7.32223         4.72036
     2012.46817        -3.30401         4.74475
     2012.47364        -1.05156         4.71165
     2012.47638         0.06666         4.68552
     2012.47912         0.57589         4.67072
     2012.49384         6.36797         9.38934
     2012.49555        -9.66277         4.73255
     2012.49828        -6.87555         4.72559
     2012.50102        -5.82032         4.67856
     2012.50376        -7.76410         4.77436
     2012.50650        -3.83587         4.63762
     2012.51197         1.05357         4.73255
     2012.51471        -2.76720         4.67246
     2012.51745        -0.87698         4.66027
     2012.52019        -2.06375         4.77523
     2012.52292        -4.09053         5.59040
     2012.52566        -0.63531         4.63936
     2012.53114        -5.46286         4.77784
     2012.53388        -5.33164         4.75520
     2012.53639        -2.16485         5.34916
     2012.53947         2.69403         5.48154
     2012.54209         7.14704         5.03389
     2012.54483        -4.39274         4.77174
     2012.55030        -1.28029         4.75520
     2012.55304        -0.46907         4.63153
     2012.55578        -3.29884         4.69162
     2012.55852         0.15638         4.66898
     2012.56125         0.92460         4.60627
     2012.56399        -0.53917         4.64459
     2012.56947         3.43428         4.72297
     2012.57221         3.27450         4.72820
