# ================= DQRFIT RESULTS ================
# INPUT FILE: series/GWEN.rad
# OUTPUT: LDETRENDED
# FILTER FUNCTION: f(t)
# f(t)=+line(t)+annual(t)+jumps(t)
# line(t)=+P 1+P 2*t
# annual(t)=+P 3*sin(2*pi*t+P 4)
# jumps(t)=+P 5*heav(t-1999.6111  )
# heav(t)=(t<0?0:1)
# TOTAL OBSERVATIONS MTOT= 3789
# INITIAL TIME INTERVAL= 2007.8461 - 1997.3717 = 10.4745
# TOTAL OBSERVATIONS AFTER PREFILTER M= 3758
# TIME-SPAN= 2007.8461 - 1997.3717 = 10.4745
# OBSERVATIONS: USED M=  3758 REJECTED MTOT-M=    31 %USED=   99.1818
# N=  5 PARAMETERS
# MAXSIG= 175.00000
# MAXRES=  58.32735
# SCALE FACTOR FOR LENGTHS: SCL=  10.00000
# SCALE FACTOR FOR SIGMAS: SCLSIG=   1.00000
# CHI^2=   5641.206 DOF=  3753 CHI^2/DOF=   1.50312
# RMS=      7.826 SDEV=      7.827 MEAN=    0.01592
#  P #       PARAMETER +-    SIGMA %error PARAMETER NAME
# P 1 =      5983.05607 +-  118.773   1.99 YZERO                              
# P 2 =        -2.97550 +-    0.059   2.00 SLOPE                              
# P 3 =         6.84947 +-    0.175   2.56 ANNUAL AMPLITUDE                   
# P 4 =        -2.60370 +-    0.031   1.19 ANNUAL PHASE                       
# P 5 =         9.64795 +-    0.447   4.63 OFFSET 1999.6111                   
#       T            LDETRENDED       SIG_OBS
     1997.37166         7.00546         8.25600
     1997.37440        -3.15839         7.93111
     1997.37714        -8.76225         8.63852
     1997.37988        -1.88310         8.88740
     1997.38261        -2.68796         9.08602
     1997.38535        -6.90281         7.81954
     1997.38809       -24.45566        24.82931
     1997.39083         0.45548         7.94705
     1997.39357        -2.73737         7.83303
     1997.39629         1.62275         7.69081
     1997.39904       -11.21108         7.82199
     1997.40178        -5.61093         8.10888
     1997.40452        -3.34978         7.90168
     1997.40726        -0.03764         7.68468
     1997.40999         3.92551         7.68836
     1997.41273         5.20766         7.89433
     1997.41547         8.31280         7.68590
     1997.41821         1.81595         7.85509
     1997.42094        -4.59690         7.67487
     1997.42368        -7.00376         7.86858
     1997.42642        -7.21061         7.64422
     1997.42916        -3.48947         7.63073
     1997.43190        -4.13932         7.56821
     1997.43463         3.54883         7.64054
     1997.43737        -0.11103         7.93724
     1997.44011         4.36812         8.16405
     1997.44285         0.69427         7.96298
     1997.44559        -5.23659         7.72146
     1997.44832        -1.26644         7.66016
     1997.45106        -4.60029         7.93846
     1997.45380         1.35485         7.64299
     1997.45654        -6.41400         7.65771
     1997.45927         5.26215         7.88820
     1997.46201         5.15129         7.79992
     1997.46475        -5.40956         7.79134
     1997.46749        -5.78541         7.81218
     1997.47023         8.09473         7.96421
     1997.47296         2.29688         7.80238
     1997.47570         0.34902         7.63809
     1997.47844        -9.54883         7.74230
     1997.48118        -4.87868         7.93724
     1997.48392         5.31246         7.75088
     1997.48665         2.78161         7.83793
     1997.48939         4.01876         7.75088
     1997.49213         2.56690         7.51794
     1997.49486         6.01204         7.49832
     1997.49760        -0.55280         7.74966
     1997.50034         0.56434         7.81218
     1997.50308        -0.24451         7.57924
     1997.50582         5.85264         7.62338
     1997.50856         3.05678         8.25723
     1997.51129        -5.43707         7.83303
     1997.51403         8.08908         7.80238
     1997.51677        10.21022         7.77908
     1997.51951        -7.20163         7.78521
     1997.52225        -7.69949         7.79747
     1997.52498         1.31866         7.95195
     1997.52772         2.90181         7.93846
     1997.53046        13.80795         7.70429
     1997.53320         6.68610         8.40680
     1997.53593         3.81525         7.96666
     1997.53867        25.13039         8.01938
     1997.54141        -5.01346         7.63809
     1997.54415        16.25169         7.54859
     1997.54689        -5.02017         7.90904
     1997.54962        -0.67702         7.76682
     1997.55236        10.19013         7.83425
     1997.55510        19.10327         7.80483
     1997.55784         2.41042         8.14076
     1997.56057        13.71257         7.87471
     1997.56331         0.50771         7.99609
     1997.56605         5.95386         7.80728
     1997.56879        -5.48100         7.84774
     1997.57153         3.10115         7.73249
     1997.57426         1.70030         8.00222
     1997.57700         0.53444         7.84283
     1997.57974         9.74659         8.22290
     1997.58248        11.90174         8.11501
     1997.58522        -5.43612         7.78031
     1997.58795        -1.20797         7.58169
     1997.59069        16.08718         7.82567
     1997.59343         4.07732         7.63073
     1997.59617        21.51247         7.65893
     1997.59890        -6.01538         7.83548
     1997.60164         6.39876         7.77786
     1997.60438         2.84391         7.65771
     1997.60712         3.77006         7.46890
     1997.60986        19.79520         7.57556
     1997.61259        -1.76765         7.90536
     1997.61533         4.04549         7.72268
     1997.61807        13.19464         7.78521
     1997.62081        22.74079         7.90291
     1997.62355         3.86393         7.58169
     1997.62628        -2.14092         7.65158
     1997.62902        -1.50177         7.65035
     1997.63176        -2.22763         7.47012
     1997.63450         7.23652         7.72023
     1997.63723         5.96967         7.45541
     1997.63997         1.41281         7.63686
     1997.64271        26.51196         7.63196
     1997.64545         2.93211         7.57311
     1997.64819        -1.17975         7.64545
     1997.65092        -1.74260         7.59518
     1997.65366         3.30555         7.83057
     1997.65640        12.67069         7.47380
     1997.65914         2.72984         7.41741
     1997.66188         1.07698         7.35243
     1997.66461        13.78113         7.38430
     1997.66735        11.98028         7.47135
     1997.67009         1.05842         7.54859
     1997.67283        -4.99943         7.52407
     1997.67556         1.82572         7.33404
     1997.67830         7.02886         7.46645
     1997.68104        -3.50599         7.50078
     1997.68378         5.58516         7.40147
     1997.68652         3.66530         7.32791
     1997.68925        11.51945         7.65893
     1997.69199        13.43660         7.55962
     1997.69473         7.85574         8.03532
     1997.69747        11.43489         7.94214
     1997.70021         3.34004         7.66261
     1997.70294         3.55418         7.45664
     1997.70568         6.24933         7.33036
     1997.70842         7.50247         7.43825
     1997.71116         2.13362         7.48361
     1997.71389         7.15577         7.71533
     1997.71663         6.31991         7.44806
     1997.71937         8.57306         7.46032
     1997.72211        -6.43879         7.22860
     1997.72485         0.21135         7.41005
     1997.72758         7.24950         7.67119
     1997.73032         4.61665         7.56575
     1997.73306        12.38779         7.78031
     1997.73580         8.46494         7.72636
     1997.73854        25.82609         8.22413
     1997.74127        16.62423         7.67610
     1997.74401        17.36638         7.83670
     1997.74675        -0.16847         7.56208
     1997.74949         9.74967         7.57556
     1997.75222         3.92782         7.56575
     1997.75496         5.85596         7.76437
     1997.75770         2.35511         8.03409
     1997.76044        12.59226         7.82567
     1997.76318         8.79942         7.56821
     1997.76592        -2.27242         7.61234
     1997.76866         2.06571         7.60253
     1997.77139         7.73886         7.68836
     1997.77413        -8.78501         8.12604
     1997.77687        -1.56485         7.97770
     1997.77961         3.78330         7.55349
     1997.78231       -10.20166         7.88697
     1997.78508        -5.83841         7.72391
     1997.78782        -6.58526         7.64054
     1997.79056        -9.90712         7.68223
     1997.79330         6.23603         7.48239
     1997.79603        -1.20582         7.59640
     1997.79877        -4.15368         7.68468
     1997.80151        -2.23453         7.80851
     1997.80425         4.10262         7.88207
     1997.80699        -5.43324         7.58047
     1997.80972        -6.20009         7.83057
     1997.81246         5.89105         7.85755
     1997.81520         0.26720         7.78031
     1997.81794         3.10935         7.68836
     1997.82068        -1.75151         7.57924
     1997.82341         3.75764         7.60499
     1997.82615        -0.96421         8.03041
     1997.82892         0.81103         7.87103
     1997.83163         1.14508         7.91762
     1997.83436        -9.48977         8.04268
     1997.83710         1.52236         7.78031
     1997.83986         1.19858         8.05739
     1997.84258       -12.90333         7.68713
     1997.84532        -6.29619         7.95808
     1997.84805        -6.70404         8.10520
     1997.85079        -2.89889         7.74230
     1997.85353         3.34825         7.91272
     1997.85627         0.47640         7.62583
     1997.85901         7.18554         7.59150
     1997.86174        10.89669         7.81464
     1997.86448         5.76484         7.61970
     1997.86722         7.34398         7.94092
     1997.86995         6.72610         7.86245
     1997.87270        -2.97771         7.67610
     1997.87543        14.07642         7.57434
     1997.87817         6.92857         7.97034
     1997.88091        -6.13128         7.88820
     1997.88365         0.42586         7.81464
     1997.88638         6.49201         7.92375
     1997.88912        -8.69684         8.44603
     1997.89186        -0.69970         8.13830
     1997.89460         1.85645         8.20941
     1997.89734         9.53560         8.13585
     1997.90007         5.82974         8.09785
     1997.90281        -3.44911         8.28420
     1997.90555         3.83003         7.76069
     1997.90829        -2.50982         8.32466
     1997.91102        -8.85667         8.11378
     1997.91376         1.75947         7.89187
     1997.91650       -10.15238         7.47993
     1997.91924        -7.10523         7.63073
     1997.92198        -6.22309         8.07210
     1997.92471        -4.59294         7.48729
     1997.92745        -5.95879         7.99363
     1997.93019        -4.72665         7.91517
     1997.93293         2.55350         7.49342
     1997.93567        -3.15635         7.99731
     1997.93840        -4.77321         7.88329
     1997.94114        -4.21506         7.51671
     1997.94388       -16.95191         7.33036
     1997.94662       -12.86377         7.41250
     1997.94935       -10.30464         7.60744
     1997.95209       -13.29748         7.60253
     1997.95483        -6.07833         7.75579
     1997.95757        -7.94818         7.65035
     1997.96031        -4.61004         7.31074
     1997.96296       -13.20514         7.97034
     1997.96578        -4.38274         7.39779
     1997.96852        -3.31860         7.50936
     1997.97126        -5.01145         7.84774
     1997.97400        -5.73630         7.40147
     1997.97673       -15.67917         8.53553
     1997.97947        -3.88501         7.70429
     1997.98221        -6.92386         7.51671
     1997.98495       -10.06672         7.33526
     1997.98768        -1.28557         7.38185
     1997.99042        -6.39842         7.33036
     1997.99316        -5.50428         7.62460
     1997.99590        -2.96113         7.26906
     1997.99863         2.31400         7.36101
     1998.00411        -0.87169         7.70062
     1998.00685        -0.80455         7.67242
     1998.00959        -1.26840         7.29848
     1998.01233       -16.12625         7.30093
     1998.01506        -0.27611         7.32423
     1998.01780        -4.21796         7.70184
     1998.02054       -17.52881         7.86122
     1998.02321        -3.73385         7.67487
     1998.02601        -8.83352         7.34017
     1998.02875       -10.08937         8.13830
     1998.03149        -6.39223         7.85264
     1998.03423        -6.75008         7.72146
     1998.03697        -1.66493         7.82690
     1998.03970         1.53721         7.79012
     1998.04244        -4.22564         7.80728
     1998.04518        -0.21250         8.11869
     1998.04792        -4.05935         8.15424
     1998.05065        -2.66820         7.41128
     1998.05887        16.72124         7.83425
     1998.06161        11.40938         7.96053
     1998.06434        -2.75647         7.50813
     1998.06708         0.83768         7.56821
     1998.06982        -6.02018         7.57924
     1998.07256        -2.49803         7.53510
     1998.07530       -11.99388         7.56085
     1998.07803        -4.91874         7.55472
     1998.08077        -3.65259         7.35856
     1998.08351         2.42356         7.21511
     1998.08625        -3.99530         7.81586
     1998.08898         3.25585         7.22983
     1998.09172        -9.47601         7.61602
     1998.09446         1.48514         7.48116
     1998.09720        -3.97271         8.28175
     1998.09994        -1.29957         7.33526
     1998.10267        -6.00642         7.50936
     1998.10539         1.39366         7.75701
     1998.10815        -4.72813         7.50200
     1998.11089        -4.99698         7.49219
     1998.11363         1.25217         7.42967
     1998.11636         2.86431         7.60744
     1998.11910        -2.45054         7.39534
     1998.12179        -9.63054         7.81586
     1998.12458         0.55675         7.21389
     1998.12731        -5.56110         7.32545
     1998.13005        -4.12095         7.60131
     1998.13279        -0.70181         7.90414
     1998.13553        -5.86566         7.55595
     1998.13827        -7.20852         7.26906
     1998.14100        13.21363         7.65771
     1998.14374        -9.28222         7.63441
     1998.14648         0.27892         7.28745
     1998.14922       -11.22693         7.51181
     1998.15196        -6.25378         7.54614
     1998.15469       -10.10964         7.79870
     1998.15743       -21.22149         7.97279
     1998.16017        -3.39934         7.62706
     1998.16291        -8.30620         7.43947
     1998.16564        -5.07205         7.27641
     1998.16838         2.28010         7.63686
     1998.17109        -2.71684         7.17833
     1998.17386        -3.64761         7.24822
     1998.17608       -10.72199         9.27237
     1998.17933        -3.83432         7.41986
     1998.18207        -9.67917         7.39534
     1998.18480        -8.76107         7.30339
     1998.18827        -8.86674        12.13512
     1998.19029        -1.10773         7.51181
     1998.19302        -7.00859         7.63809
     1998.19576        -6.34844         7.19427
     1998.19850        -9.75429         7.62828
     1998.20124        -4.68415         7.44806
     1998.20397        -3.74000         7.49955
     1998.20671        -4.06585         7.51794
     1998.20945        -2.89071         7.19795
     1998.21219        -8.66356         7.29603
     1998.21487        -3.31457         8.15915
     1998.21766         2.93173         7.17956
     1998.22040        -5.93014         7.30829
     1998.22313        -0.63700         7.70552
     1998.22587        -3.18886         7.48116
     1998.22861        -0.62671         7.46154
     1998.23021        -0.43993        19.87129
     1998.23409         6.11761         7.96298
     1998.23683         1.47976         7.68468
     1998.23957        -3.32610         7.73372
     1998.24230       -10.18695         7.74720
     1998.24504        -3.19580         7.47993
     1998.24778        -3.68666         7.48361
     1998.25052         2.26949         7.52162
     1998.25326        -5.29436         7.35243
     1998.25599         0.06778         7.52039
     1998.25873         0.35493         7.41741
     1998.26147         2.70708         7.98505
     1998.26421        -7.91578         7.65893
     1998.26695         1.04037         7.50568
     1998.26968        -5.57049         7.42844
     1998.27242         0.81566         7.74720
     1998.27516         3.32781         7.49097
     1998.27790        -3.88005         7.43089
     1998.28063        14.77110         7.30706
     1998.28337        -0.38175         7.37082
     1998.28611        -1.47561         7.49587
     1998.28885        -6.21645         7.59518
     1998.29159        -7.06631         7.61234
     1998.29432        -4.12617         7.54736
     1998.29705        -9.23606         7.39656
     1998.29980        -0.68787         7.45419
     1998.30254         2.86527         7.50323
     1998.30528         1.70742         7.21879
     1998.30801         8.14857         7.41250
     1998.31075        -0.28429         7.29603
     1998.31349        -0.86714         7.44315
     1998.31623        -5.09700         7.72146
     1998.31896        -6.46885         7.17588
     1998.32170        -7.42470         7.37082
     1998.32444        -2.44956         7.36224
     1998.32717         1.28056         7.37695
     1998.32992         0.55774         7.18446
     1998.33265        13.70088         7.41741
     1998.33539         2.35903         7.44070
     1998.33813         1.13718         7.76927
     1998.34087         3.84332         7.55962
     1998.34361         7.26147         7.40269
     1998.34634        -2.88438         7.42844
     1998.34905         2.01768         7.69939
     1998.35182        -0.48009         7.30461
     1998.35456         1.87906         7.49465
     1998.35729         7.72320         7.44315
     1998.36003        10.03035         7.34017
     1998.36277         6.18349         7.14400
     1998.36551         5.29464         7.38308
     1998.36825        -2.92821         7.27028
     1998.37098        10.49093         7.39289
     1998.37372         5.21408         7.27274
     1998.37646         0.69023         7.46645
     1998.37920         3.74037         7.40024
     1998.38193         0.64352         7.48974
     1998.38467         4.41467         7.53510
     1998.38741         0.38281         7.52039
     1998.39015        -3.52604         7.50813
     1998.39289        -4.60689         7.66874
     1998.39562        -4.43775         7.32545
     1998.39836         0.64940         7.38553
     1998.40110        -3.87547         7.70062
     1998.40383         2.80966         7.37204
     1998.40657         4.52281         7.46890
     1998.40930         0.22696         7.39902
     1998.41204         0.17810         7.29358
     1998.41478         1.85825         7.35856
     1998.41752         8.12840         7.35856
     1998.42026         8.07257         7.51917
     1998.42300         4.79572         7.50936
     1998.42574         4.54686         7.54001
     1998.42848         6.80201         7.53265
     1998.43122         1.90816         7.44806
     1998.43395         4.33430         7.46399
     1998.43669         2.83545         7.34998
     1998.43943         5.82160         7.63319
     1998.44217        -0.92326         7.18937
     1998.44491        12.88089         7.31565
