# ================= DQRFIT RESULTS ================
# INPUT FILE: series/HAHD.rad
# OUTPUT: LDETRENDED
# FILTER FUNCTION: f(t)
# f(t)=+line(t)+annual(t)
# line(t)=+P 1+P 2*t
# annual(t)=+P 3*sin(2*pi*t+P 4)
# heav(t)=(t<0?0:1)
# TOTAL OBSERVATIONS MTOT= 3748
# INITIAL TIME INTERVAL= 2022.7488 - 2011.5166 = 11.2322
# TOTAL OBSERVATIONS AFTER PREFILTER M= 3725
# TIME-SPAN= 2022.7488 - 2011.5166 = 11.2322
# OBSERVATIONS: USED M=  3725 REJECTED MTOT-M=    23 %USED=   99.3863
# N=  4 PARAMETERS
# MAXSIG= 175.00000
# MAXRES=  40.64400
# SCALE FACTOR FOR LENGTHS: SCL=  10.00000
# SCALE FACTOR FOR SIGMAS: SCLSIG=   1.00000
# CHI^2=   4362.376 DOF=  3721 CHI^2/DOF=   1.17237
# RMS=      6.319 SDEV=      6.319 MEAN=    0.08692
#  P #       PARAMETER +-    SIGMA %error PARAMETER NAME
# P 1 =       -48.90271 +-   65.083 133.09 YZERO                              
# P 2 =         0.02539 +-    0.032 127.08 SLOPE                              
# P 3 =         4.75397 +-    0.140   2.94 ANNUAL AMPLITUDE                   
# P 4 =         2.73309 +-    0.038   1.40 ANNUAL PHASE                       
#       T            LDETRENDED       SIG_OBS
     2011.51658        -4.65582        17.02855
     2011.51813         4.60214         5.91186
     2011.52087         3.93007         5.90861
     2011.52361         3.82500         5.73104
     2011.52635        -4.31207         5.87397
     2011.52908        -0.11614         5.85556
     2011.53182        -9.38421         5.77652
     2011.53456        -5.73528         5.80467
     2011.54004        -5.00342         5.84690
     2011.54277       -10.22549         5.75378
     2011.54825        -7.40463         5.75378
     2011.55099        -1.03070         5.82849
     2011.55646        -1.11983         5.90212
     2011.56468        -0.66304         5.72346
     2011.56741         4.54389         5.73646
     2011.57015        -2.40218         5.82199
     2011.57289         1.34775         5.77868
     2011.57837        -2.38439         5.91403
     2011.58110        -8.65846         5.76136
     2011.58384        -0.01053         5.78085
     2011.58658         3.38240         6.10459
     2011.58932         0.57533         5.88696
     2011.59206        -2.12374         5.86530
     2011.59479         2.27419         5.81875
     2011.59753         5.33912         5.74079
     2011.60027        -0.60895         5.75161
     2011.60301         7.70198         5.81441
     2011.60574         0.43091         5.84473
     2011.60848         4.99084         5.89346
     2011.61122        -0.17222         5.86422
     2011.61396         1.28771         5.90104
     2011.61670         6.15464         5.81983
     2011.61943         0.54057         5.88588
     2011.62765         4.16936         5.83282
     2011.64134         2.32901         6.09052
     2011.64407        -1.15606         5.93677
     2011.64955        -3.25920         5.96059
     2011.65503         6.96666         5.79601
     2011.65776         6.42959         5.82091
     2011.66324        14.62545         5.87288
     2011.66598         4.40039         5.96492
     2011.67419        14.21018         5.81333
     2011.67693        15.85411         5.82524
     2011.68240        10.38297         5.85989
     2011.68514         9.95690         5.84365
     2011.69062        10.23676         5.89670
     2011.69336        15.73069         5.77219
     2011.69609         6.92562         5.84581
     2011.69883         4.74955         5.80575
     2011.70157         8.25648         5.79384
     2011.70431         9.19941         5.79276
     2011.71252        10.18720         5.91295
     2011.71526        -1.01787         5.97899
     2011.72073        13.22000         5.76136
     2011.72621         5.37286         5.82091
     2011.72895        12.24879         5.80575
     2011.73169        12.11272         6.16631
     2011.73716        11.56558         6.03746
     2011.73990         2.10451         5.75270
     2011.74264        13.45044         5.72888
     2011.74811        18.42630         5.86964
     2011.75085        13.53423         5.81225
     2011.75906        15.05102         5.83499
     2011.76180         9.43195         5.77868
     2011.76728         8.02281         5.85123
     2011.77002         5.96374         6.03638
     2011.77823         9.15954         5.86314
     2011.78097         6.30547         5.85123
     2011.78918        10.08126         5.89021
     2011.79192         2.05219         5.89346
     2011.79739        14.15805         5.92161
     2011.80013        14.97998         5.82524
     2011.80561         0.65584         5.81550
     2011.81108         8.09570         5.92919
     2011.81382        -1.90137         6.04829
     2011.82203         6.69442         6.75208
     2011.82478         4.69535         8.10120
     2011.82752        -0.35772         5.99524
     2011.83033        -5.49079         6.14141
     2011.83299         2.70715         6.03421
     2011.83572         2.45208         6.03746
     2011.83846        -5.15799         6.02447
     2011.84105        11.07394         6.32656
     2011.88606         9.36680        11.60176
     2011.88774         1.02376         5.94110
     2011.89048        -3.25031         5.91186
     2011.89325         2.02362         5.98657
     2011.89596        -2.00145         5.84473
     2011.89869         1.35248         5.86964
     2011.90143        -0.38159         5.89021
     2011.90417        -0.63966         5.93352
     2011.90691         1.71727         6.08944
     2011.90965         6.57420         5.82308
     2011.91238        -2.93487         5.96925
     2011.91512        -1.21094         5.89346
     2011.91786         6.32099         6.09377
     2011.92060        -1.09608         5.89454
     2011.92334        -1.54415         5.96925
     2011.92607        -3.67122         5.95842
     2011.92881         1.23071         5.96600
     2011.93155         2.11264         5.95626
     2011.93429         4.20357         5.96925
     2011.93702         4.51250         5.97683
     2011.93976         5.87643         5.95409
     2011.94251        -0.54564         5.91403
     2011.94524        -0.70770         5.92702
     2011.94798         9.11323         5.98224
     2011.95071         9.19316         6.06561
     2011.95345         3.39409         5.99740
     2011.95619         0.78702         6.00281
     2011.95893        -3.18605         5.79276
     2011.96165         3.70688         5.90970
     2011.96449        -3.49919         6.08619
     2011.96714         3.52974         5.95950
     2011.96988         6.72867         5.73537
     2011.97262         2.16660         5.70939
     2011.97535        -1.11547         5.70939
     2011.97809        -2.67254         5.73104
     2011.98084         2.16439         5.80250
     2011.98357         2.56632         5.77219
     2011.98631         3.48825         5.73321
     2011.98904         6.67718         5.76136
     2011.99178         8.15311         5.76677
     2011.99452         2.78804         5.79276
     2011.99726         4.28697         5.70289
     2012.00273         4.95084         5.74512
     2012.00547         4.51677         5.78085
     2012.00821         3.03970         5.93677
     2012.01095         2.50463         5.76894
     2012.01368         5.97856         5.70939
     2012.01642         4.15049         5.71480
     2012.01916         0.21342         5.73321
     2012.02190         4.14935         5.78085
     2012.02464        -1.41672         5.72455
     2012.02737         4.68421         5.70397
     2012.03011         5.26614         5.69098
     2012.03285         1.97607         5.75378
     2012.03559         3.54000         5.76136
     2012.03833         1.19693         5.76353
     2012.04106        -4.51314         5.71588
     2012.04380         4.08879         5.72455
     2012.04634         7.30573         6.24210
     2012.04928       -16.56135         6.34280
     2012.05475         7.31352         5.78301
     2012.05749         1.69545         5.82957
     2012.06023         3.00638         5.83390
     2012.06297         1.63031         5.76786
     2012.06570         5.25724         5.82091
     2012.06844        -0.82983         5.77327
     2012.07118        -5.93090         6.36770
     2012.07392         0.25103         5.69098
     2012.07666        -6.24404         5.72888
     2012.07939        -0.05611         5.69098
     2012.08213         0.65582         5.72888
     2012.08487        -4.56825         5.76244
     2012.08761        -1.33032         5.73429
     2012.09034        -0.52339         5.73862
     2012.09308         3.12554         5.71047
     2012.09582         2.33147         5.75053
     2012.09856         3.60940         5.77977
     2012.10130        -1.93467         5.88479
     2012.10403         2.78526         5.93027
     2012.10677        -5.32981         5.82416
     2012.10951        -0.13888         5.81875
     2012.11225         0.08906         5.79601
     2012.11498         0.98299         5.79926
     2012.11772         0.84392         5.80359
     2012.12046         1.08185         5.77868
     2012.12320        -0.57822         5.75378
     2012.12594         2.89371         5.83499
     2012.12867        -4.43436         5.79059
     2012.13141         0.05457         5.82199
     2012.13415         3.34850         5.80792
     2012.13689         2.14343         5.81983
     2012.13963        -0.33164         5.96167
     2012.14236        -9.12171         5.96275
     2012.14510        -2.51278         5.82849
     2012.14784       -12.73485         5.74945
     2012.15058        -3.13092         5.73646
     2012.15331        -5.71599         5.75161
     2012.15605        -9.12506         5.85881
     2012.15879         2.51987         5.82524
     2012.16153         4.03280         5.86964
     2012.16363        -1.99225         8.89162
     2012.47204        -6.46508        14.44725
     2012.47364        -2.22812         5.81225
     2012.47638         1.59781         6.52904
     2012.47912        -3.67326         5.74728
     2012.48186        -4.34233         5.78301
     2012.48459        -0.83340         5.82741
     2012.48733        -5.39747         5.74837
     2012.49007        -1.85254         5.79168
     2012.49281        -6.69361         5.75811
     2012.49555        -2.62268         5.77977
     2012.49833        -0.27375         5.82633
     2012.50102         2.06319         5.77435
     2012.50376        -0.70088         5.72563
     2012.50650        -1.44095         5.74079
     2012.50924        -1.62102         5.86639
     2012.51197        -0.54609         5.95409
     2012.51471        -3.62516         5.75919
     2012.51745        -3.74523         5.88155
     2012.52019        -0.52430         5.83174
     2012.52292        -6.39737         5.74620
     2012.52566        -1.24944         5.76244
     2012.52840         2.03349         5.74079
     2012.53114         2.37742         5.90537
     2012.53388         3.51835         5.85448
     2012.53662        -4.63472         6.03313
     2012.53935        12.07021         5.91511
     2012.54209         6.59414         5.80467
     2012.54483        -2.41193         5.74512
     2012.54757         2.60100         5.76461
     2012.55030         2.53493         5.88046
     2012.55304         1.98986         5.71372
     2012.55578         0.11579         5.74837
     2012.55852        -1.65727         5.72238
     2012.56125         2.08366         5.74295
     2012.56399        -0.81141         5.74187
     2012.56673        -0.00648         5.78193
     2012.56947         6.32745         5.73754
     2012.57221         6.50838         5.77977
     2012.57494        -1.11569         6.19446
     2012.57768         1.37424         5.80900
     2012.58042         9.14817         6.71202
     2012.58316        -0.97790         5.77219
     2012.58590         4.42203         5.72346
     2012.58858         7.17096         5.80034
     2012.59138         6.11589         5.91728
     2012.59411         8.94282         5.78085
     2012.59685        10.90275         5.92377
     2012.59958        -0.29532         5.75919
     2012.60232         1.65161         6.46732
     2012.60506         4.58154         5.76461
     2012.60780         6.57347         5.73537
     2012.61054         9.12640         5.80034
     2012.61328         6.94634         5.79926
     2012.61601        10.83327         5.78301
     2012.61875        10.54620         5.79709
     2012.62149        10.01613         6.14357
     2012.62423        16.03206         5.99632
     2012.62696        10.76899         6.08619
     2012.62970         5.75292         5.73862
     2012.63244         5.89485         5.93135
     2012.63518         9.87278         5.86314
     2012.63791         8.77171         5.79926
     2012.64065        12.87064         5.78951
     2012.64339        13.39157         5.74837
     2012.64613         8.13450         5.73862
     2012.64887         8.76743         5.80359
     2012.65161        14.91536         5.83390
     2012.65434         7.42729         5.99957
     2012.65708        12.69822         6.25726
     2012.65982         8.94515         6.05154
     2012.66256         8.39808         5.73862
     2012.66529        12.44501         5.75919
     2012.66803        11.99095         5.85339
     2012.67077        10.25988         5.86639
     2012.67351         8.39281         6.18905
     2012.67624         7.26074         6.20421
     2012.67897         9.52967         8.16400
     2012.68173        10.85360         6.73043
     2012.68446        12.52353         7.18952
     2012.68720        13.19046         5.95842
     2012.68994        11.54739         6.22695
     2012.69267         4.61932         6.00931
     2012.69541         5.50325         6.82571
     2012.69815         7.74218         5.92269
     2012.70089        10.24411         6.01581
     2012.70362         6.18604         5.79276
     2012.70636         4.59097         6.78240
     2012.70910         8.03190         6.42401
     2012.71184         9.69783         5.81550
     2012.71457        14.39976         6.39261
     2012.71731        14.53369         5.98333
     2012.72005        14.68262         6.15765
     2012.72279         9.57455         5.72346
     2012.72553        11.79149         5.96817
     2012.72826         8.12842         5.76353
     2012.73100         9.64035         6.08294
     2012.73374        12.78028         6.10026
     2012.73648         9.76221         5.99848
     2012.73921        11.76114         5.86530
     2012.74195         2.37507         6.33739
     2012.74469        10.80700         5.78410
     2012.74743        10.35493         5.85989
     2012.75017         8.49086         5.88696
     2012.75290        11.56579         5.90753
     2012.75564         6.29472         5.74079
     2012.75838         9.33365         5.96708
     2012.76112        12.08158         5.78843
     2012.76386        10.52651         5.77110
     2012.76659        14.43844         5.85339
     2012.76933        12.87637         6.03530
     2012.77207        12.07730         5.80900
     2012.77481         6.33723         5.94868
     2012.77754         6.99716         5.86314
     2012.78028        14.59910         5.90320
     2012.78302         6.84903         5.92486
     2012.78576         7.97196         5.91511
     2012.78850        10.82889         6.00390
     2012.79123        12.93782         6.02880
     2012.79397         9.51775         6.01256
     2012.79589         9.55070         9.25542
     2012.83621         8.80668        14.58476
     2012.83778         5.13764         5.90212
     2012.84052         6.64157         5.93244
     2012.84326         3.61850         5.90320
     2012.84599         4.02343         6.02555
     2012.84873         3.93436         5.90320
     2012.85147        -1.59271         5.97575
     2012.85420         2.53322         5.90645
     2012.85694         4.54115         5.84690
     2012.85968         5.18308         5.87721
     2012.86242         4.45001         5.87830
     2012.86516         6.47694         5.92053
     2012.86789         1.42287         6.06561
     2012.87063         3.05480         5.83932
     2012.87337         2.65073         5.88804
     2012.87611         1.18366         5.84040
     2012.87885         6.95059         5.87505
     2012.88158        -0.97148         5.79168
     2012.88432         8.29845         5.85015
     2012.88706         4.36638         5.95193
     2012.88980         2.68331         5.95193
     2012.89253        -0.81375         5.79926
     2012.89527         1.78218         5.79709
     2012.89801        -0.56889         5.82308
     2012.90075         2.49704         5.86639
     2012.90349         2.79997         5.80684
     2012.90622         4.50590         5.82849
     2012.90896         8.22483         5.92810
     2012.91170         9.14276         7.97777
     2012.91444         1.61369         7.52842
     2012.91718         8.37162         7.47970
     2012.91991         6.29255         8.07738
     2012.92265         2.33748         8.48017
     2012.92539         4.58041         7.99617
     2012.92816        10.10334         8.91544
     2012.93360        -2.61780         7.16895
     2012.93634         2.27913         6.24860
     2012.93908        -4.49994         6.32439
     2012.94182        -0.07501         7.16895
     2012.94459        14.39192         8.59710
     2012.94732         6.80985         8.86130
     2012.95003         8.29979         9.21428
     2012.95277         7.85172         9.06269
     2012.95551         7.70665         6.29408
     2012.95825         8.73658         6.17064
     2012.96098        10.57851         5.88046
     2012.96372         7.00244         6.18905
     2012.96645         8.02637         9.40051
     2012.96938         6.26329         6.85711
     2012.97193         2.95023         6.36879
     2012.97467         3.34216         5.88371
     2012.97741         3.85209         5.90212
     2012.98015         1.70702         6.54744
     2012.98288         5.44695         5.74512
     2012.98562         6.49788         5.76353
     2012.98836         7.46681         5.81225
     2012.99110         6.37874         5.81875
     2012.99384         0.56567         5.79276
     2012.99657         1.24860         5.72779
     2012.99931         2.04753         5.73970
     2013.00205        -0.69453         5.78518
     2013.00479         2.04140         5.81008
     2013.00752        -0.54167         5.75811
     2013.01026        -3.22674         5.90970
     2013.01300         0.68819         5.76894
     2013.01574         0.36512         5.88696
     2013.01848        -0.61095         5.85448
     2013.02121        -5.25302         5.87721
     2013.02395         2.62991         5.87613
     2013.02669         5.07084         5.92053
     2013.02943         0.41977         6.58642
     2013.03216         1.31170        13.27679
     2013.03493        -4.64637         8.08388
     2013.03764        -5.81644         6.73368
     2013.04038        -6.70851         5.76461
     2013.04312        -7.87358         5.86639
     2013.04585        -6.82565         5.93568
     2013.04859        -4.82872         5.94435
     2013.05133        -5.53879         5.82199
     2013.05407        -3.40486         5.80034
     2013.05681        -1.50493         5.81225
     2013.05954        -3.12099         5.84581
     2013.06228        -4.21806         5.99415
     2013.06502        -1.31713         5.98116
     2013.06776        -8.56220         5.91728
     2013.07049         1.19573         5.85773
     2013.07324         0.41566         6.29299
     2013.07597         0.75259         5.81441
