# ================= DQRFIT RESULTS ================
# INPUT FILE: series/HALF.rad
# OUTPUT: LDETRENDED
# FILTER FUNCTION: f(t)
# f(t)=+line(t)+annual(t)
# line(t)=+P 1+P 2*t
# annual(t)=+P 3*sin(2*pi*t+P 4)
# heav(t)=(t<0?0:1)
# TOTAL OBSERVATIONS MTOT= 3660
# INITIAL TIME INTERVAL= 2022.7488 - 2011.9179 = 10.8309
# TOTAL OBSERVATIONS AFTER PREFILTER M= 3642
# TIME-SPAN= 2022.7488 - 2011.9179 = 10.8309
# OBSERVATIONS: USED M=  3642 REJECTED MTOT-M=    18 %USED=   99.5082
# N=  4 PARAMETERS
# MAXSIG= 175.00000
# MAXRES=  48.32242
# SCALE FACTOR FOR LENGTHS: SCL=  10.00000
# SCALE FACTOR FOR SIGMAS: SCLSIG=   1.00000
# CHI^2=   2922.705 DOF=  3638 CHI^2/DOF=   0.80338
# RMS=      5.364 SDEV=      5.365 MEAN=    0.01336
#  P #       PARAMETER +-    SIGMA %error PARAMETER NAME
# P 1 =      2451.29492 +-   56.593   2.31 YZERO                              
# P 2 =        -1.21603 +-    0.028   2.31 SLOPE                              
# P 3 =         4.90749 +-    0.120   2.45 ANNUAL AMPLITUDE                   
# P 4 =        -2.96190 +-    0.034   1.15 ANNUAL PHASE                       
#       T            LDETRENDED       SIG_OBS
     2011.91786        -0.45192         5.16637
     2011.92060        -4.36959         5.07315
     2011.92613        -8.83586         5.18698
     2011.92881        -5.44660         5.71043
     2011.93155        -4.00827         5.31336
     2011.93702        -1.07562         5.06329
     2011.93976        -2.16529         5.04088
     2011.94250         0.88304         5.02564
     2011.94524         1.05337         5.05881
     2011.94786         3.61356         5.36714
     2011.95077         1.59010         5.40479
     2012.02863         3.53578        17.38226
     2012.03279        -5.62216         5.90851
     2012.04426         4.80178        12.92936
     2012.04665        13.86869        12.28043
     2012.05190        -0.31392         5.55088
     2012.05475        10.81954         4.95573
     2012.05646         7.34562        10.12479
     2012.06023         6.50720         5.54103
     2012.06297         1.08153         6.55028
     2012.06570        -6.36014         7.82753
     2012.07118        -4.51648         4.86341
     2012.07329        -5.44091         6.68741
     2012.07666        -5.25682         4.86072
     2012.07939         4.46051         5.04267
     2012.08207         1.29777         4.86879
     2012.08413        -6.71774        17.17610
     2012.08738        -6.01378         8.00679
     2012.08983        -9.54180         8.88339
     2012.09308        -3.75485         4.83025
     2012.09519        -4.82328         6.97423
     2012.10506        -2.65428         9.92670
     2012.10660        -6.07041         5.28558
     2012.10951        -0.81187         4.91719
     2012.11225        -0.16854         4.99427
     2012.11498        -2.97121         4.89657
     2012.11772         2.44212         4.87327
     2012.12046         5.13645         4.95483
     2012.12257        13.97501         7.03518
     2012.12594        -3.23489         4.89299
     2012.12867        -2.41057         4.92526
     2012.13141        -4.77124         4.97186
     2012.13415         2.56009         5.06329
     2012.13689        -2.70858         4.94408
     2012.13963        -1.17825         5.12782
     2012.14214        -3.57420         7.20369
     2012.14784        -2.05926         4.85803
     2012.15058         0.29007         4.83562
     2012.15331        -3.31860         4.81501
     2012.15594        -3.56941         5.19594
     2012.15794        -7.34398         7.72893
     2012.16136       -15.00482        11.70947
     2012.16432        -2.62821         5.00144
     2012.16660        -7.43144         6.16217
     2012.16974        -3.30263         5.02027
     2012.17248        -5.51830         4.82308
     2012.17522        -4.29697         5.02475
     2012.17790         1.16129         5.03102
     2012.18001       -11.09814        10.78178
     2012.18617       -12.86765         4.84011
     2012.18891        -5.07032         4.91540
     2012.19164        11.39601         6.24194
     2012.19438        -2.70666         4.98800
     2012.19706         9.00260         4.99427
     2012.19946        -3.67749         7.74686
     2012.20533         0.49266         5.21835
     2012.20807         3.03998         4.86610
     2012.21081         2.68131         4.82756
     2012.21338         0.13543         5.22731
     2012.22193         9.80884         7.40357
     2012.22604        -4.70017        12.72231
     2012.23380         0.31127        13.49314
     2012.23545        -5.48672         5.94975
     2012.23739        -4.50936         7.66619
     2012.24361       -10.27280         5.51145
     2012.24640        -2.72341         4.94229
     2012.24834        -2.38705         7.91895
     2012.25131       -11.58944         8.90938
     2012.25536       -10.30252         7.41522
     2012.25735        -6.86809         4.86162
     2012.26300        -4.57222         5.56881
     2012.26557        -8.68810         4.88582
     2012.26830        -8.70777         7.43404
     2012.27104        -6.15444         4.95752
     2012.27372        -4.26118         5.01220
     2012.27578        -7.28668         7.55325
     2012.28102       -11.53830         9.65691
     2012.28382        -5.98991         8.79913
     2012.28787         0.50902         5.70595
     2012.29021        -8.27714         4.83652
     2012.29192       -11.41406        12.09310
     2012.29528       -10.94596         8.47556
     2012.30116        -8.11582         4.87596
     2012.30390       -15.23249         4.92257
     2012.30663       -12.86716         4.85714
     2012.30937        -4.50183         4.98083
     2012.31211        -1.44750         5.12424
     2012.31394         4.68872         9.42566
     2012.32032        -6.11051         4.91988
     2012.32306        -8.22419         4.81680
     2012.32580        -8.17486         4.83204
     2012.32854         1.17347         5.01220
     2012.33128        -0.03920         5.05970
     2012.33333        -5.83470         9.48213
     2012.33909        -7.54169         6.30738
     2012.34223       -11.44188         5.03192
     2012.34690       -21.08319         8.47287
     2012.35329         3.15558        10.80419
     2012.35529        -8.09300        15.81101
     2012.35865        -8.28490         6.59868
     2012.36031       -14.09589        11.57413
     2012.36436        -8.62597         5.48366
     2012.36687       -10.36592         4.84280
     2012.36961        -6.46559         4.90374
     2012.37120       -20.69865        13.17584
     2012.37782        -3.81260         5.00144
     2012.38056       -10.20627         4.93153
     2012.38329        -5.83094         4.92615
     2012.38603        -5.95261         4.96738
     2012.38877        -9.19328         5.10004
     2012.39118        -4.26836         6.77884
     2012.39782         0.63372         7.73700
     2012.39972        -7.51396         4.84369
     2012.40246        -2.40864         4.87596
     2012.40520       -10.10131         4.83742
     2012.40794        -7.29598         4.97097
     2012.40987         3.69638        11.07847
     2012.41615        -3.05999         4.87865
     2012.41889         8.52934         5.08211
     2012.42157        -7.93640         5.82426
     2012.42436         0.37900         4.92346
     2012.42704        -5.74574         4.97455
     2012.42910        -8.40424        10.89831
     2012.43491       -10.39717         6.33068
     2012.44443        -3.93760         9.11553
     2012.44552        -5.47227         8.15199
     2012.44786       -12.42042        14.76949
     2012.45448        -5.38538         5.91210
     2012.45722        -6.27505         4.87686
     2012.45995         0.69928         4.97007
     2012.46269         4.96261         5.20939
     2012.46543        -5.77306         4.91181
     2012.46811        -5.26880         5.38686
     2012.47364       -10.14407         5.07673
     2012.47638         1.16326         5.01130
     2012.47912        -0.64542         4.94587
     2012.49384        19.07248         9.48482
     2012.49555        -0.56844         4.87327
     2012.49828        -4.55711         4.88851
     2012.50102         3.81822         4.86610
     2012.50376        -0.03845         4.99069
     2012.50587       -14.67089         9.00887
     2012.51197         6.21954         5.11348
     2012.51471        -1.13313         4.99607
     2012.51745        -6.17681         4.94856
     2012.52019        -7.88448         4.93422
     2012.52292         6.32985         5.79916
     2012.52458         7.28086        12.97238
     2012.53114        -2.34016         4.94856
     2012.53388        -1.86283         4.89209
     2012.53661         6.71350         5.57688
     2012.53941         7.53790         5.36087
     2012.54209         7.70216         5.20939
     2012.54386         1.74331        10.24131
     2012.55030         7.37915         5.27661
     2012.55304        -1.39652         4.94229
     2012.55578         2.68580         4.83921
     2012.55846        -1.46094         5.01310
     2012.56114         2.44832         6.63274
     2012.56302         0.55661         9.10299
     2012.57043         4.69762         9.40504
     2012.57221         0.81178         4.90195
     2012.57494        -0.69989         4.85714
     2012.57768        -1.88056         4.90016
     2012.57985         3.64408         6.38535
     2012.58684        17.39958        13.52003
     2012.58852         7.88262         4.99607
     2012.59137        -1.92191         6.13708
     2012.59411         1.72442         4.85714
     2012.59685         8.51474         5.19415
     2012.59958         5.23507         4.86341
     2012.60147         1.02936        11.73905
     2012.61362         2.52414         9.12002
     2012.61584         8.19884         9.15228
     2012.62023        28.96418        25.13091
     2012.81611        -2.82563         5.59391
     2012.81861        -4.78758         5.06150
     2012.82135        -2.79825         4.96021
     2012.82409        -3.06392         4.99069
     2012.82683         1.84341         4.97276
     2012.82956        -6.19027         4.97814
     2012.83230        -3.96194         5.10183
     2012.83504         4.75239         4.99248
     2012.83778         1.09272         4.90912
     2012.84052        -1.82895         4.92974
     2012.84251         3.36548         7.13199
     2012.85968         2.91736         4.94408
     2012.86242        -2.05831         4.94946
     2012.86516         0.07702         4.98800
     2012.86789        -8.25466         5.12962
     2012.87063        -2.34833         4.93243
     2012.87337        -4.61900         4.98083
     2012.87611         2.17533         4.92167
     2012.87885         5.71466         5.17174
     2012.88158         7.70699         4.90554
     2012.88432         7.66932         4.88492
     2012.88706         9.31965         5.68175
     2012.88900         2.29401         7.87503
     2012.89282         0.51766         5.42271
     2012.89527        -2.49536         4.88134
     2012.89801         0.41297         4.89030
     2012.90075         2.08830         4.88044
     2012.90349        -3.08937         5.77765
     2012.90622        -3.84705         4.84280
     2012.90896         2.82128         4.88492
     2012.91170        -0.28639         4.91092
     2012.91444         5.67794         5.11707
     2012.91718         3.81727         4.87327
     2012.91991         8.22660         4.95752
     2012.92265         2.84293         5.11438
     2012.92539         4.36726         4.83742
     2012.92813         5.38059         4.91271
     2012.93075         6.48078         5.23000
     2012.93360         0.30625         4.98531
     2012.93554        -6.32839         8.57416
     2012.93971        -3.26733         6.66052
     2012.94182        -4.43476         4.85265
     2012.94455         2.79656         5.15202
     2012.94695         2.47448         6.13349
     2012.95003         6.34222         4.87506
     2012.95265         7.55141         5.16816
     2012.95551        12.59188         4.86162
     2012.95824        11.54421         4.83294
     2012.96098         6.67454         5.17712
     2012.96372         8.56087         4.87775
     2012.96646         6.88520         4.83473
     2012.96919         2.55753         5.12872
     2012.97193         1.88786         4.92077
     2012.97467        -1.93681         4.82666
     2012.97741         1.23852         4.81591
     2012.98015         2.13485         4.78812
     2012.98288         3.44518         4.98083
     2012.98459         4.84026        10.03336
     2013.01848        -5.53454         4.83831
     2013.02047        -9.36212         6.89088
     2013.02338       -22.88158         6.33247
     2013.02669        -9.46456         5.01937
     2013.02851         7.15566         8.18605
     2013.03216        -3.73390         4.84459
     2013.03490        -9.15057         4.86072
     2013.03673       -10.99435         8.32498
     2013.04038       -12.84191         4.86162
     2013.04272       -18.41507         5.97126
     2013.04585       -10.70425         4.97007
     2013.04859       -10.03892         4.96649
     2013.05133       -13.82459         5.04267
     2013.05407       -10.88426         4.90285
     2013.05681        -6.55493         4.92257
     2013.05954        -7.93460         4.97366
     2013.06143       -15.07332         8.07939
     2013.06502        -9.60995         4.98531
     2013.06776        -1.09262         4.94408
     2013.07049        -0.10129         4.94049
     2013.07323         1.29704         4.89926
     2013.07597         1.19037         4.89209
     2013.07871         1.67470         5.20222
     2013.08145        -1.53197         4.99607
     2013.08418        -3.25764         4.83473
     2013.08692        -3.84031         4.88851
     2013.08966        -7.78498         4.90016
     2013.09240        -1.64965         4.90733
     2013.09514         0.29368         4.90912
     2013.09787         4.17701         5.08570
     2013.10061        -4.57667         5.49262
     2013.10335        -3.88434         4.89926
     2013.10609        -2.99201         4.90733
     2013.10882        -4.81468         4.87686
     2013.11156        -6.70235         4.94229
     2013.11430        -3.43802         4.86341
     2013.11704        -6.82969         4.92167
     2013.11978        -3.60036         5.03192
     2013.12251        -5.61603         4.88313
     2013.12525       -13.33370         5.02385
     2013.12799        -4.90637         4.83742
     2013.13073        -0.07404         4.88492
     2013.13347        -2.57571         4.88492
     2013.13620        -1.94038         4.87775
     2013.13894        -2.17906         4.87954
     2013.14168        -1.39473         4.88761
     2013.14442         0.94460         4.98889
     2013.14715        -4.16707         5.02564
     2013.14989        -5.39374         4.86968
     2013.15263        -8.07541         4.88134
     2013.15537       -12.22808         4.86700
     2013.15811        -7.15275         4.88313
     2013.16084       -11.67842         4.86341
     2013.16358       -10.17909         4.93780
     2013.16632        -8.82776         4.91360
     2013.16906        -8.20043         5.02744
     2013.17180        -2.83010         4.88223
     2013.17453        -3.09377         4.91988
     2013.17727        -4.10144         5.00682
     2013.18001        -7.75312         5.03192
     2013.18275        -4.12179         4.90285
     2013.18548        -6.80246         5.10362
     2013.18822       -10.40813         4.87686
     2013.19096        -7.91980         4.96559
     2013.19370        -4.61147         4.93691
     2013.19644        -9.12814         5.22642
     2013.19917        -8.37581         4.91988
     2013.20191        -6.53748         4.92615
     2013.20465        -1.18915         4.95394
     2013.20739        -4.96182         5.69967
     2013.21013         3.39851         4.92526
     2013.21286        -2.94116         4.89209
     2013.21560        -9.84383         5.15740
     2013.21834         1.79849         5.09287
     2013.22108        -1.94418         4.92795
     2013.22381        -2.54585         4.88044
     2013.22655        -7.44152         4.91360
     2013.22929        -6.89619         4.92257
     2013.23203        -3.16586         4.87596
     2013.23477        -4.24553         5.20043
     2013.23750        -4.67220         5.01310
     2013.24024        -8.03687         5.04088
     2013.24298        -8.81554         5.02475
     2013.24572        -4.32221         5.05164
     2013.24846         0.70012         5.07404
     2013.25119        -2.34555         5.02027
     2013.25356        -4.23668         5.82426
     2013.25759        -1.66277        10.29329
     2013.25941         2.85343         5.04267
     2013.26214        -0.00824         5.04357
     2013.26488         0.29009         5.08211
     2013.26762         3.38942         5.04357
     2013.27036        -6.69225         5.07763
     2013.27310         0.90408         5.80454
     2013.27583        -2.26659         5.25779
     2013.27857        -0.55326         5.07673
     2013.28131         1.23107         5.09287
     2013.28405         5.80540         5.00503
     2013.28679         0.65973         5.03909
     2013.28952        -0.47394         5.07763
     2013.29163        -4.94438         6.91508
     2013.29583        -4.44927         7.92971
     2013.29774        -1.86696         5.23269
     2013.30047        -2.29863         5.03730
     2013.30316        -8.41737         5.60735
     2013.30595        -5.24797         5.08928
     2013.30869        -6.50164         5.29992
     2013.31143        -7.48731         5.30619
     2013.31416        -0.82998         5.01310
     2013.31690        -3.01065         5.01310
     2013.31964        -2.74332         5.02654
     2013.32238        -1.21399         5.07763
     2013.32500        -6.23580         5.33308
     2013.32873         5.93374         8.45316
     2013.33059        -4.07800         5.34115
     2013.33333        -8.19968         5.00055
     2013.33607        -9.24235         5.00951
     2013.33880         1.05698         4.97366
     2013.34154        -1.82069         4.93332
     2013.34428        -6.41136         5.00234
     2013.34702         3.42997         4.99875
     2013.34976         0.35530         5.28468
     2013.35249        -6.90337         5.09645
     2013.35523        -5.90604         5.16368
     2013.35797        -3.32471         4.95842
     2013.36071         1.25662         5.04178
     2013.36344         3.49295         5.06060
     2013.36618        -2.52872         5.06239
     2013.36875         0.51940         5.46573
     2013.37166         1.74194         4.98710
     2013.37440        -3.08774         4.97545
     2013.37713        -2.39241         4.95483
     2013.37987        -7.09808         5.00682
     2013.38261       -11.75375         4.94856
     2013.38535        -0.06842         5.06777
     2013.38803        -2.55216         5.21566
     2013.39082        -0.20676         5.02295
     2013.39356        -2.58143         4.95752
     2013.39632         0.70093         5.02923
     2013.39904         4.57923         4.96290
     2013.40177        -3.08744         4.96649
     2013.40451        -3.02311         4.94498
     2013.40719         6.84815         5.54103
     2013.40999        -0.85445         4.98710
     2013.41273        -5.73713         4.92705
     2013.41546         1.18420         5.05791
     2013.41820        -3.25647         5.17085
     2013.42094         4.00986         5.00682
     2013.42368        -2.18281         5.00413
