# ================= DQRFIT RESULTS ================
# INPUT FILE: series/HGP1.rad
# OUTPUT: LDETRENDED
# FILTER FUNCTION: f(t)
# f(t)=+line(t)+annual(t)+jumps(t)
# line(t)=+P 1+P 2*t
# annual(t)=+P 3*sin(2*pi*t+P 4)
# jumps(t)=+P 5*heav(t-2008.1650  )+P 6*heav(t-2011.1253  )
# heav(t)=(t<0?0:1)
# TOTAL OBSERVATIONS MTOT= 1527
# INITIAL TIME INTERVAL= 2012.5574 - 2007.5971 =  4.9603
# TOTAL OBSERVATIONS AFTER PREFILTER M= 1516
# TIME-SPAN= 2012.5574 - 2007.5971 =  4.9603
# OBSERVATIONS: USED M=  1516 REJECTED MTOT-M=    11 %USED=   99.2796
# N=  6 PARAMETERS
# MAXSIG= 175.00000
# MAXRES=  20.51858
# SCALE FACTOR FOR LENGTHS: SCL=  10.00000
# SCALE FACTOR FOR SIGMAS: SCLSIG=   1.00000
# CHI^2=   1300.176 DOF=  1510 CHI^2/DOF=   0.86104
# RMS=      5.741 SDEV=      5.743 MEAN=   -0.01845
#  P #       PARAMETER +-    SIGMA %error PARAMETER NAME
# P 1 =     15354.14652 +-  424.016   2.76 YZERO                              
# P 2 =        -2.03522 +-    0.211  10.38 SLOPE                              
# P 3 =         5.87191 +-    0.205   3.49 ANNUAL AMPLITUDE                   
# P 4 =        -3.01022 +-    0.049   1.63 ANNUAL PHASE                       
# P 5 =        -0.02232 +-    0.574 ****** OFFSET 2008.1650                   
# P 6 =    -47201.92137 +-    0.594   0.00 OFFSET 2011.1253                   
#       T            LDETRENDED       SIG_OBS
     2007.59706         6.69526         6.66992
     2007.60027         3.80479         5.31051
     2007.60301         4.40736         5.22050
     2007.60574         5.35293         5.33557
     2007.60848        10.14950         5.34299
     2007.61122        11.47608         5.34485
     2007.61396         1.82565         5.31330
     2007.61670         0.67822         5.63993
     2007.61943         1.41379         5.83015
     2007.62217        11.54636         5.47475
     2007.62491         6.60994         5.49146
     2007.62765         4.45451         5.56940
     2007.63039        15.25408         5.63621
     2007.63312        -3.40135         5.45341
     2007.63586         3.41923         5.40794
     2007.63860        -0.41720         5.38567
     2007.64134         6.11637         5.25113
     2007.64407        13.69594         5.55548
     2007.64681         1.92851         5.68354
     2007.64955         0.26309         5.59446
     2007.65229        12.73366         5.52857
     2007.65503         6.88023         5.54064
     2007.65776         9.73380         5.40052
     2007.66050         6.23737         5.41258
     2007.66324        12.70695         5.45898
     2007.66598         5.46952         5.45991
     2007.66872        11.57109         5.60559
     2007.67145        12.08166         5.58703
     2007.67419        21.44624         5.86448
     2007.67693        11.96381         5.39681
     2007.67967         6.39738         5.43857
     2007.68240         9.07395         5.46548
     2007.68514         9.46452         5.52393
     2007.68788        11.13010         5.48589
     2007.69062        10.33467         5.37639
     2007.69336        12.42524         5.36897
     2007.69609         9.08581         5.46455
     2007.69883        11.00738         5.54992
     2007.70157        12.07896         5.38846
     2007.70431        16.80453         5.57868
     2007.70705         9.35010         5.60188
     2007.70978         9.91367         5.55270
     2007.71252         8.67424         5.42929
     2007.71526         8.66582         5.27618
     2007.71800        10.62339         5.35041
     2007.72073        14.96396         5.33649
     2007.72347         3.05453         5.47475
     2007.72621         8.63011         5.29288
     2007.72895         2.15168         5.28175
     2007.73169         5.92925         5.42186
     2007.73442         8.54482         5.33371
     2007.73716         8.07539         5.44506
     2007.73990         9.32197         5.28453
     2007.74264         7.63854         5.29103
     2007.74538        15.99311         5.35598
     2007.74811        10.36068         5.56384
     2007.75085         7.32525         5.84221
     2007.75359        16.92183         5.46548
     2007.75633        -1.37960         5.27247
     2007.75906        10.54597         5.30216
     2007.76180         1.75954         5.41815
     2007.76454         8.54312         5.35505
     2007.76728         3.07469         5.80695
     2007.77002         1.89726         5.68354
     2007.77275         6.78883         5.60095
     2007.77549         6.35840         5.37454
     2007.77823        10.03598         5.26876
     2007.78097        10.10455         5.29195
     2007.78371         6.22512         5.28175
     2007.78644        13.28369         5.30866
     2007.78918         7.99826         5.76983
     2007.79192         8.98684         5.63157
     2007.79466        11.77541         5.47012
     2007.79739         9.58498         5.55734
     2007.80013         9.15655         5.42465
     2007.80264         8.09966         5.80046
     2007.80561         1.05970         5.39495
     2007.80835         5.88127         5.35412
     2007.81108         5.43384         5.59910
     2007.81382        -2.27759         5.45898
     2007.81656        -1.35301         5.44692
     2007.81930         2.72656         5.35876
     2007.82203        -0.22787         5.44042
     2007.82477        13.42170         5.51094
     2007.82751        -4.09473         5.41166
     2007.83025        -0.96115         5.45156
     2007.83299        -2.74658         5.40052
     2007.83572         3.41599         5.20380
     2007.83846        -2.62444         5.30773
     2007.84120         7.53813         5.41444
     2007.84394        -5.72629         5.30587
     2007.84668        -0.91772         5.35876
     2007.84941        -2.00015         5.33278
     2007.85215         6.23442         5.53971
     2007.85489         7.80300         5.63993
     2007.85763        -3.34843         5.67983
     2007.86036         4.57114         5.43485
     2007.86270         8.50990         6.31453
     2007.86584         3.51928         5.49053
     2007.86858         5.81986         5.26319
     2007.87132        -1.30257         5.37825
     2007.87405         4.09900         5.35041
     2007.87679        10.15757         5.39959
     2007.87953         0.98214         5.35227
     2007.88227        -1.25828         5.19359
     2007.88501        -0.50171         5.25484
     2007.88774        -7.21814         5.34392
     2007.89048        -3.36557         5.32536
     2007.89322        -3.24500         6.82303
     2007.89596         2.62058         5.47475
     2007.89869        -0.00185         5.26968
     2007.90132         0.09049         5.64920
     2007.90948        -3.86991         5.78561
     2007.91238        -0.18199         5.32443
     2007.91512         6.30758         5.28639
     2007.91786        11.56815         5.81438
     2007.92060        -3.92627         5.49888
     2007.92334        -1.98970         5.40052
     2007.92607         0.63787         5.36248
     2007.92881         0.09844         5.37918
     2007.93155         0.12101         5.37547
     2007.93429        -3.17041         5.34856
     2007.93697        -6.23396         5.56476
     2007.93976        -2.32227         7.27864
     2007.94142         8.50110        11.25758
     2007.95448         0.74168        11.46172
     2007.95619         1.57816         5.46362
     2007.95887        13.50362         5.53600
     2007.96229        12.34758         7.58393
     2007.96440         8.70788         7.17007
     2007.96714         4.07945         5.77076
     2007.96988       -12.31598         5.43021
     2007.97262        -5.68240         5.54157
     2007.97535        -7.82383         5.49610
     2007.97809        -0.62826         5.56940
     2007.98083        -2.21769         5.47383
     2007.98357         5.60588         5.75128
     2007.98631        -2.21554         5.62508
     2007.98904         0.41203         5.61116
     2007.99178        -5.38040         5.59353
     2007.99452        -1.07383         5.75592
     2007.99726        -4.22525         5.46733
     2008.00000       -10.62968         5.39217
     2008.00273        -9.93811         5.36433
     2008.00547        -3.04954         5.30123
     2008.00821         1.55503         5.49424
     2008.01095         3.55161         5.37639
     2008.01368         2.97218         5.40145
     2008.01642         1.39975         5.27061
     2008.01916         6.25832         5.69653
     2008.02190         1.35889         5.41258
     2008.02464        -1.45753         5.45898
     2008.02737        -5.64396         5.36248
     2008.03011        -3.55439         5.34392
     2008.03285        -6.18682         5.26226
     2008.03559        -6.94924         5.52301
     2008.03833       -11.82967         5.37639
     2008.04106       -17.04010         5.39495
     2008.04382       -12.90849         5.38753
     2008.04654        -8.31896         5.34763
     2008.04928        -7.82738         5.33278
     2008.05201        -9.88681         5.30123
     2008.05475       -10.33924         5.33557
     2008.05749       -13.91667         5.34670
     2008.06023        -8.70810         5.22422
     2008.06297        -0.97552         5.29195
     2008.06570        -2.10795         5.26133
     2008.06844        -1.92738         5.35227
     2008.07118         1.73319         5.31237
     2008.07392         2.71476         5.24092
     2008.07666         9.17634         5.75128
     2008.07939         0.34591         5.90346
     2008.08213        -6.08952         5.46084
     2008.08487        -9.54695         5.35969
     2008.08761        -9.72237         5.27803
     2008.09034        -0.75080         5.33371
     2008.09303        -9.27035         5.58425
     2008.09582        -3.16866         5.48589
     2008.09856        -7.11509         5.59260
     2008.10130        -1.13251         5.60559
     2008.10403        -6.04594         5.29938
     2008.10677        -0.02937         5.33093
     2008.10951       -10.25080         5.57775
     2008.11225        -4.85023         5.63807
     2008.11498        -9.78665         5.56940
     2008.11772        -2.13908         5.22885
     2008.12046        -7.77851         5.28639
     2008.12320        -9.53794         5.80231
     2008.12594        -3.79037         5.27711
     2008.12867        -8.20279         5.24370
     2008.13141        -2.80022         5.23999
     2008.13415        -6.07465         5.26690
     2008.13689        -4.47608         5.43021
     2008.13963        -2.92950         5.27989
     2008.14236         3.44407         5.30309
     2008.14510        -0.76136         5.21401
     2008.14784        -0.46579         5.28082
     2008.15058        -2.86522         5.23721
     2008.15320       -11.31288         5.73365
     2008.15605       -11.31007         5.61394
     2008.15879        -8.75250         5.18617
     2008.16415        -0.82859         6.49454
     2008.16706        -3.91267         6.35257
     2008.16980        -9.95910         5.59167
     2008.17248        -8.08664         5.23628
     2008.17522       -12.24607         6.00553
     2008.17796        -5.80949         5.34949
     2008.18069        -8.78892         5.30216
     2008.18343        -3.06535         5.25298
     2008.18617         0.01622         5.38011
     2008.18891       -11.31421         5.27896
     2008.19164        -5.64263         5.32629
     2008.19438       -11.27006         5.27711
     2008.19712        -4.66849         5.27989
     2008.19986         0.33708         5.26040
     2008.20260        -5.31935         5.25113
     2008.20533        -4.68677         5.24741
     2008.20807       -10.31420         5.46362
     2008.21081        -7.52163         5.38475
     2008.21355        -5.48006         5.34113
     2008.21629        -1.48149         5.32907
     2008.21902        -9.79091         5.38196
     2008.22176       -10.49534         5.34949
     2008.22450       -13.43977         5.37732
     2008.22724        -4.61420         5.29288
     2008.22997        -6.16362         5.40330
     2008.23271        -7.60005         5.46176
     2008.23545        -5.46048         5.46362
     2008.23819        -5.58991         5.26226
     2008.24093        -7.99534         5.34670
     2008.24366       -10.21676         5.22793
     2008.24640        -4.84719         5.26968
     2008.24914        -6.37062         5.33185
     2008.25188        -2.76705         5.34299
     2008.25462        -2.47648         5.26504
     2008.25735        -3.27190         5.26412
     2008.26009        -4.03133         5.19823
     2008.26283        -4.32676         5.34113
     2008.26557        -4.84619         5.36526
     2008.26830        -4.61061         5.31979
     2008.27104        -0.31004         5.27803
     2008.27378       -10.01047         5.21679
     2008.27652        -9.63890         5.47475
     2008.27926        -5.88933         5.60652
     2008.28199        -2.54875         5.28267
     2008.28473        -2.93418         5.43857
     2008.28747        -0.75061         5.46455
     2008.29021        -1.19704         5.35412
     2008.29295        -1.78147         5.38289
     2008.29568       -10.80289         5.27896
     2008.29842        -9.28132         5.36062
     2008.30116        -3.32675         5.34949
     2008.30390        -5.96418         5.32443
     2008.30663         0.81339         5.34856
     2008.30937        -4.82303         5.43578
     2008.31211       -10.46246         5.38289
     2008.31485        -9.53389         5.26040
     2008.31759        -3.81432         5.33371
     2008.32032        -3.90574         5.51373
     2008.32306        -6.89417         5.63529
     2008.32580       -11.94060         5.47847
     2008.32854        -6.54403         5.28917
     2008.33128        -4.04346         5.44785
     2008.33401        -0.39088         5.26968
     2008.33681        -2.46320         5.39588
     2008.33949        -7.66774         5.34299
     2008.34223        -2.66117         5.67704
     2008.34496        -4.06260         5.20380
     2008.34770        -2.45802         5.22329
     2008.35044        -2.18545         5.26876
     2008.35318        -4.72888         5.32072
     2008.35592        -2.57631         5.17411
     2008.35865         0.91827         5.24556
     2008.36139        -2.12816         5.15184
     2008.36413        -0.49959         5.14070
     2008.36687        -4.89202         5.17967
     2008.36961       -14.07645         5.13142
     2008.37234        -6.96487         5.14998
     2008.37508        -1.25630         5.20473
     2008.37782        -2.02473         5.43764
     2008.38056         5.26884         5.42094
     2008.38329        -6.37759         5.31330
     2008.38603         3.07499         5.19823
     2008.38877        -0.50144         5.53785
     2008.39151         0.48013         5.36248
     2008.39425        -3.49530         5.18524
     2008.39698         0.85227         5.47568
     2008.39972         2.64485         5.20937
     2008.40246        -3.10458         5.20380
     2008.40514         3.78688         5.31144
     2008.40794         1.83856         5.21958
     2008.41067         2.51414         5.20566
     2008.41341        -1.00629         5.24834
     2008.41615        -0.29672         5.18617
     2008.41889         2.12285         5.25484
     2008.42162        -3.05558         5.38753
     2008.42436        -0.32900         5.18246
     2008.42710        -0.10843         5.32536
     2008.42984         1.70614         5.33000
     2008.43258        -0.38229         5.40052
     2008.43531        -2.01072         5.31330
     2008.43805        -1.16314         5.33835
     2008.44079        -4.21257         5.37825
     2008.44353        -9.54700         5.26690
     2008.44626        -6.80943         5.16019
     2008.44900        -4.18385         5.15369
     2008.45174        -3.14728         5.30402
     2008.45448        -6.14171         5.39867
     2008.45722        -2.26414         5.38382
     2008.45995        -3.53757         5.29938
     2008.46269        -4.82199         5.14720
     2008.46543        -0.81642         5.24927
     2008.46817        -0.72985         5.39124
     2008.47091       -12.75628         5.40238
     2008.47364       -10.43371         5.42279
     2008.47638         2.18787         5.35320
     2008.47912        -1.57356         5.43485
     2008.48186         1.59301         5.32721
     2008.48459        -2.64042         5.42836
     2008.48733        -3.64585         5.19638
     2008.49007        -4.04327         5.13792
     2008.49281        -4.70470         5.53878
     2008.49549        -7.24225         5.52765
     2008.49828        -0.80056         5.37918
     2008.50102         1.42802         5.36340
     2008.50376        -3.90641         5.50630
     2008.50650        -0.13384         5.30031
     2008.50924        -4.12927         5.47290
     2008.51197        -0.58470         5.24277
     2008.51471        -2.29212         5.19452
     2008.51745        -4.44155         5.34577
     2008.52019         5.17202         5.19452
     2008.52292         2.09759         5.45898
     2008.52566        -0.71484         5.37176
     2008.52840         5.44774         5.24092
     2008.53108         7.50119         5.43671
     2008.53388         4.11888         5.21958
     2008.53661         1.14345         5.25762
     2008.53935         2.43902         5.23813
     2008.54209         0.15660         5.19359
     2008.54483         6.69117         5.53414
     2008.54757         5.73274         5.23349
     2008.55030         2.11431         5.21215
     2008.55304         8.42589         5.30773
     2008.55578         5.82146         5.35505
     2008.55852         9.58703         5.22143
     2008.56125         4.31960         5.20751
     2008.56399         4.39317         5.33649
     2008.56673         4.82275         5.30402
     2008.56947         5.02732         5.19174
     2008.57221        13.59589         5.34206
     2008.57494         5.26246         5.53136
     2008.57768         3.02103         5.37083
     2008.58042        15.73161         5.24741
     2008.58316        12.07818         5.36897
     2008.58590        11.33975         5.15926
     2008.58863         9.33432         5.36712
     2008.59137         9.06990         5.23071
     2008.59411         6.65047         5.26876
     2008.59685         7.86704         5.28639
     2008.59958         7.51561         5.56105
     2008.60232        14.38718         5.58889
     2008.60780         8.51933         5.31608
     2008.61054         5.50790         5.31608
     2008.61327         5.51147         5.31051
     2008.61601        14.40704         5.30680
     2008.61875         5.01662         5.28360
     2008.62149         8.30719         5.26597
     2008.62423        13.98876         5.32072
     2008.62696        16.42233         5.33557
     2008.62970        10.09990         5.44321
     2008.63244        11.27748         5.30587
     2008.63518        11.80105         5.55084
     2008.63791        14.72262         5.39495
     2008.64065         9.00519         5.23535
     2008.64339        10.12977         5.39124
     2008.64613        21.92034         5.72065
     2008.64892        13.17003         5.87840
     2008.65160        16.06148         5.42279
     2008.65434        15.43805         5.74756
     2008.65708         9.50263         5.52579
     2008.65982         5.01420         5.48682
     2008.66256         8.35677         5.54713
     2008.66529         8.31034         5.32629
     2008.66803         4.00191         5.26690
     2008.67077         0.49849         5.34670
     2008.67351         3.54506         5.34763
     2008.67624        11.43163         6.05192
