# ================= DQRFIT RESULTS ================
# INPUT FILE: series/HLSY.rad
# OUTPUT: LDETRENDED
# FILTER FUNCTION: f(t)
# f(t)=+line(t)+annual(t)+jumps(t)
# line(t)=+P 1+P 2*t
# annual(t)=+P 3*sin(2*pi*t+P 4)
# jumps(t)=+P 5*heav(t-2014.3463  )
# heav(t)=(t<0?0:1)
# TOTAL OBSERVATIONS MTOT= 4057
# INITIAL TIME INTERVAL= 2022.6995 - 2006.9555 = 15.7440
# TOTAL OBSERVATIONS AFTER PREFILTER M= 3999
# TIME-SPAN= 2022.6995 - 2006.9744 = 15.7251
# OBSERVATIONS: USED M=  3999 REJECTED MTOT-M=    58 %USED=   98.5704
# N=  5 PARAMETERS
# MAXSIG= 175.00000
# MAXRES=  61.36640
# SCALE FACTOR FOR LENGTHS: SCL=  10.00000
# SCALE FACTOR FOR SIGMAS: SCLSIG=   1.00000
# CHI^2=   3276.107 DOF=  3994 CHI^2/DOF=   0.82026
# RMS=      8.518 SDEV=      8.518 MEAN=    0.10719
#  P #       PARAMETER +-    SIGMA %error PARAMETER NAME
# P 1 =      1344.34269 +-   88.872   6.61 YZERO                              
# P 2 =        -0.71667 +-    0.044   6.17 SLOPE                              
# P 3 =         4.49515 +-    0.152   3.39 ANNUAL AMPLITUDE                   
# P 4 =        -2.76547 +-    0.045   1.61 ANNUAL PHASE                       
# P 5 =       101.64399 +-    0.449   0.44 OFFSET 2014.3463                   
#       T            LDETRENDED       SIG_OBS
     2006.97442       -12.55584        11.72585
     2007.37126        10.15356         9.58301
     2007.37303        -2.19517         5.28555
     2007.37577        -3.23521         5.22940
     2007.37850        -8.50125         5.11438
     2007.38124        -3.33929         5.11709
     2007.38398        -4.54732         5.22034
     2007.38672        -2.55836         5.07272
     2007.38945       -10.39440         5.15151
     2007.39219         1.60356         5.29461
     2007.39493        -0.19147         5.13430
     2007.39767         0.75549         5.15785
     2007.40041         5.79645         5.11076
     2007.40314        -7.79059         5.10079
     2007.40498        -5.24927        31.89082
     2007.42348       -10.10301        15.21000
     2007.42505         2.44911         5.36435
     2007.42778         4.52007         5.05279
     2007.43052         6.22203         4.96856
     2007.43326         2.19500         5.05732
     2007.43600         2.48896         5.24842
     2007.43874         3.55192         5.12525
     2007.44147        -0.80112         5.51741
     2007.44421        -2.94316         5.30095
     2007.44695        -0.59519         5.19770
     2007.44969        -3.06723         5.01294
     2007.45243        -2.53427         5.03830
     2007.45516        -2.43831         5.21581
     2007.45790         2.96065         5.00479
     2007.46064        -0.27838         4.99030
     2007.46338        -0.16042         5.08811
     2007.46611         1.53154         5.04645
     2007.46885         4.99850         4.98487
     2007.47159        -0.32653         4.98487
     2007.47433         1.62843         5.06728
     2007.47707         1.21939         5.17053
     2007.47980        -4.68465         4.98487
     2007.48254        -1.38369         4.97128
     2007.48528        -0.18872         5.03106
     2007.48802        -0.59176         5.12525
     2007.49076        -0.20280         5.17144
     2007.49349         0.97016         4.98034
     2007.49623         1.18613         5.00388
     2007.49894         4.00907         5.16057
     2007.50171        -0.34295         5.17325
     2007.50444         0.29101         5.01566
     2007.50718        -3.43703         5.12706
     2007.50992        -0.61306         4.99845
     2007.51266        -6.24510         5.00660
     2007.51540         1.46386         5.05823
     2007.51813         1.39182         5.05551
     2007.52087        -3.29022         5.02743
     2007.52361        -1.77925         5.02200
     2007.52635         8.11071         5.23846
     2007.52908         2.33067         5.22759
     2007.53182         0.51663         5.13249
     2007.53456        -1.16840         5.28917
     2007.53730         2.23856         5.14155
     2007.55489       -18.77484        14.31337
     2007.55646         0.71929         5.11438
     2007.55920         9.82525         5.05370
     2007.56194         5.69222         5.06728
     2007.56468         2.68818         5.21944
     2007.56741        -1.08586         5.13702
     2007.57015         2.80910         5.25657
     2007.57289         2.49307         5.05007
     2007.57563         1.39303         5.00932
     2007.57837        -2.52601         5.03830
     2007.58110        -2.59805         5.60526
     2007.58384         3.21591         5.31363
     2007.58658         2.93588         5.11981
     2007.58932         4.61684         5.04102
     2007.59206         7.62680         5.02290
     2007.59479         6.71376         5.22215
     2007.59753         4.05072         5.22578
     2007.60027         1.07269         5.24751
     2007.60301        11.02165         4.99845
     2007.60574         4.59361         4.97490
     2007.60848         5.91257         5.22940
     2007.61122        10.16054         5.26563
     2007.61396         4.02950         5.06185
     2007.61670         0.41346         5.41235
     2007.61943         2.59942         5.33536
     2007.62217         2.58038         5.44857
     2007.62491         6.85535         5.52737
     2007.62765         5.34331         5.43861
     2007.63039         5.65527         5.57718
     2007.63312        -6.15877         5.35619
     2007.63586         4.15419         5.13883
     2007.71526        14.25410         5.22849
     2007.71800        13.29006         5.11438
     2007.72073        10.62902         5.20042
     2007.72347        12.24698         5.17144
     2007.72621        11.40195         5.07725
     2007.72895         7.10391         5.20404
     2007.75173         2.88223         9.32579
     2007.75359        10.17357         5.57175
     2007.75633        10.05453         5.20857
     2007.75906        10.51049         5.11257
     2007.76180         9.04345         5.08630
     2007.76454         9.21042         5.08902
     2007.76728        12.46238         5.53643
     2007.77002        13.21134         5.46306
     2007.77275         8.30630         5.36163
     2007.77549         4.65826         5.11709
     2007.77821         5.43221         5.20676
     2007.78097         8.93219         5.08268
     2007.78371         2.35315         5.03830
     2007.78644        16.21511         5.09264
     2007.78918         9.13307         5.19136
     2007.79192        10.74704         5.23212
     2007.79466        12.12800         5.42593
     2007.79739         4.33396         5.53190
     2007.80013         8.80792         5.21672
     2007.80287         2.76989         5.12796
     2007.80561         5.03385         5.12072
     2007.80821         2.46971         5.59439
     2007.81108         4.93777         5.36163
     2007.81382        -4.29427         5.28283
     2007.81656         0.37970         5.44586
     2007.81930         2.41066         5.22759
     2007.82203        -3.32138         5.17778
     2007.82477        -2.23242         5.29008
     2007.82751         4.94455         5.26200
     2007.83025         0.14051         5.25295
     2007.83299        -0.95353         5.18412
     2007.83572        -2.04557         5.06728
     2007.83846        -1.10261         5.04826
     2007.84120         3.34936         5.08540
     2007.84394        -4.28168         5.18955
     2007.84668        -5.84272         5.11800
     2007.84941        -3.63776         5.15513
     2007.85215         4.27320         5.28102
     2007.85486        -7.43386         5.66775
     2007.85763        10.17413         5.42865
     2007.86036        -2.79691         5.16781
     2007.86310         9.68805         5.33174
     2007.86584         0.79502         5.13883
     2007.86858         2.79898         5.11528
     2007.87132         0.63394         5.25476
     2007.87405        -1.48710         5.28736
     2007.87679         7.87886         5.10623
     2007.87953        -8.20717         5.15876
     2007.88227       -11.95221         5.15513
     2007.88500        -4.54226         5.10713
     2007.88780        -5.29725         5.25566
     2007.89053        -2.73729         5.23483
     2007.89321        -0.91937         5.68496
     2007.89596         2.16960         5.23212
     2007.89869        -1.24844         5.37612
     2007.90143        -6.67448         5.23755
     2007.90417        -8.96551         5.38970
     2007.90689        -3.49857         5.30638
     2007.90959        -4.22463         5.39786
     2007.91335         3.11606         9.65003
     2007.91512         2.11333         5.31634
     2007.91786        -7.79070         5.52193
     2007.92060        -5.54474         5.27106
     2007.92334       -11.88678         5.53461
     2007.92607        -4.35282         5.16328
     2007.92881        -4.05786         5.33808
     2007.93155        -1.80889         5.26653
     2007.93429        -4.58293         5.21219
     2007.93702        -5.44897         5.41054
     2007.93976        -6.30401         5.13159
     2007.94250         0.35996         5.15785
     2007.94524        -7.57308         5.44042
     2007.94798       -11.45812         5.33265
     2007.95071         0.47284         5.23574
     2007.95345         4.48680         5.38699
     2007.95619        -1.63523         5.30638
     2007.95893         2.47073         5.30548
     2007.96167        -3.50531         5.78096
     2007.96440         0.60365         5.34804
     2007.99821         1.70088         9.47795
     2008.00000       -14.49084         5.19679
     2008.00273        -7.95488         5.15061
     2008.00547         2.53108         5.11438
     2008.00821         2.11105         5.21310
     2008.01095        -2.27199         5.22397
     2008.01368        -2.37403         5.35619
     2008.01642         0.29993         5.16238
     2008.01916        -5.61210         5.21581
     2008.02190        -3.94614         5.11709
     2008.02464        -2.49818         5.14155
     2008.02737        -4.03922         5.09717
     2008.03011        -9.58326         5.15513
     2008.03285        -9.52829         5.11800
     2008.03559        -0.45933         5.08721
     2008.03833       -13.99637         5.17415
     2008.04753         0.13723         8.52789
     2008.04928       -10.13652         5.15785
     2008.05201        -5.40356         5.42050
     2008.05475        -3.17060         5.07453
     2008.05749        -3.46263         5.07543
     2008.06029        -2.10763         5.21400
     2008.06297         0.73029         5.12615
     2008.06570         2.94925         5.15513
     2008.06844        -2.30679         5.22849
     2008.07118       -11.38582         5.49929
     2008.07392       -13.27086         5.49929
     2008.07666        -1.82890         5.53733
     2008.07939        -4.61994         5.42684
     2008.08213        -4.25598         5.29733
     2008.08487       -10.71501         5.10894
     2008.08761        -8.71705         5.03921
     2008.09034        -2.96709         5.06638
     2008.09308        -6.22713         5.35619
     2008.09582         1.44384         5.39333
     2008.09856        -4.26620         5.36616
     2008.10130         0.63276         5.38518
     2008.10403        -0.17528         5.07996
     2008.10677        -2.10132         5.18683
     2008.10951        -1.30935         5.35076
     2008.11222        -5.79341         5.14970
     2008.12046        -9.83851         5.06819
     2008.12320        -1.52754         5.20676
     2008.12594         0.16842         5.07996
     2008.12867        -1.43462         5.16781
     2008.13141        -1.99166         5.07091
     2008.13415        -3.56369         5.14336
     2008.13689         3.27727         5.08992
     2008.13963        -2.42177         5.07362
     2008.14236         2.44319         5.10079
     2008.14510         3.11915         5.19951
     2008.14784        -0.85988         5.12887
     2008.15058        -1.01292         5.03830
     2008.15331        -6.24196         5.15242
     2008.15605        -3.01800         5.14970
     2008.15879         0.88396         5.03649
     2008.16100        -2.36945         7.07427
     2008.17061       -21.26556         8.18645
     2008.17248        -1.97722         5.12977
     2008.17522        -1.40826         5.19951
     2008.17796        -3.83830         5.14336
     2008.18069       -12.06934         4.98215
     2008.18343        -1.44938         5.04011
     2008.18617        -7.33241         4.99936
     2008.18891        -5.19845         5.11709
     2008.19164        -6.86149         5.29823
     2008.19438        -1.20653         5.06638
     2008.19712         2.31344         5.05551
     2008.20260        -4.83364         5.16691
     2008.20533         4.26132         5.11347
     2008.20807        -0.67372         5.45401
     2008.24914         2.87172         5.09355
     2008.25188         9.01768         5.13974
     2008.25462         5.03164         5.00751
     2008.25735        -0.03840         5.14336
     2008.26009         5.25456         5.02562
     2008.26283        -2.24147         5.13974
     2008.26557         4.71649         5.10713
     2008.26830        -0.38755         5.06819
     2008.27104        -1.85259         5.03106
     2008.27378         0.51538         5.03830
     2008.27652         2.78734         5.02472
     2008.27926         0.06830         5.20042
     2008.28199         7.13526         5.30729
     2008.28473         3.79422         5.22940
     2008.28747         5.71919         5.10260
     2008.29021         7.37415         5.15332
     2008.29295         5.96411         5.10804
     2008.29568         5.84107         5.04464
     2008.29842         0.60403         5.12615
     2008.30115        -3.95201         5.22125
     2008.30390         2.65096         5.07634
     2008.30663        -1.16008         5.17234
     2008.30937        -3.42412         5.28917
     2008.31211         0.59185         5.14427
     2008.31485         3.76081         5.05098
     2008.31759         2.12177         5.16057
     2008.32032         2.65873         5.21581
     2008.32306         4.03469         5.86338
     2008.32858         3.99565         5.20313
     2008.33128        -2.38342         5.09355
     2008.33401         4.24654         5.13068
     2008.33675         1.74850         5.24027
     2008.33949         8.21047         5.21853
     2008.34219        -3.09459         7.75534
     2008.35318         1.45228         5.17687
     2008.35592         3.56324         5.27831
     2008.35865         2.95420         5.06909
     2008.36139         6.19216         5.12706
     2008.36413         3.27613         5.22487
     2008.36683         3.20306         5.29008
     2008.42532         9.57698        10.59284
     2008.42711         1.74126         5.43499
     2008.42984        -2.43978         5.05913
     2008.43258         2.87718         5.09808
     2008.43533        -0.05785         5.17325
     2008.43805         1.39010         6.13055
     2008.44079        -1.19293         5.33627
     2008.44352        -2.63698         5.09536
     2008.44600        -1.59220         6.71743
     2008.54209        -0.84033         5.03468
     2008.54483         1.23263         5.13159
     2008.54757         0.43159         5.08811
     2008.55030         4.76955         4.95045
     2008.55304         5.19351         5.23212
     2008.55578         8.35548         5.05823
     2008.55852         5.35144         5.15604
     2008.60506         9.68080         5.15242
     2008.60780         3.67276         5.09898
     2008.61054         1.07372         5.09626
     2008.61327         4.16768         5.09445
     2008.61601         8.63964         5.16238
     2008.61875         4.39061         5.12796
     2008.62149         5.43857         5.09083
     2008.62423         2.41853         5.03015
     2008.62696        17.97949         5.21853
     2008.62970         5.19445         5.47484
     2008.63244         7.84542         5.24027
     2008.63518         6.87338         5.54005
     2008.63791         3.48634         5.16419
     2008.64065         8.36830         5.13159
     2008.64339         6.16727         5.13793
     2008.64613        15.75723         5.46306
     2008.64887         6.79719         5.56812
     2008.65160         5.63315         5.08177
     2008.65434         0.79611         5.28102
     2008.65708        10.92908         5.40510
     2008.65982         4.04804         5.24570
     2008.66256         9.39400         5.21672
     2008.66529         9.64696         5.29733
     2008.66803        -2.19508         5.10532
     2008.67077        -0.01311         5.22668
     2008.67351         3.97085         5.22759
     2008.67624         1.37781         5.65688
     2008.67898        12.49877         5.20495
     2008.68172         6.56074         5.23121
     2008.68446         2.99870         5.22759
     2008.68720         6.88966         5.13611
     2008.68993         9.86562         5.24842
     2008.69267         1.47858         5.19317
     2008.69541         7.49755         5.10532
     2008.69815         8.71551         5.21038
     2008.70089         6.09047         5.37159
     2008.70362         5.60143         5.08177
     2008.70636         9.49139         5.04011
     2008.70910         8.05136         5.12887
     2008.71184         5.22532         5.29914
     2008.71457         2.55028         5.09898
     2008.71731         6.59024         5.03468
     2008.72005         5.34421         5.00660
     2008.72279         3.42017         5.10623
     2008.72553         5.38813         5.13793
     2008.72826         1.87209         5.08721
     2008.73100         6.78305         5.29914
     2008.73374         1.28402         5.28646
     2008.73648         1.70698         5.00117
     2008.73921         5.57194         5.05098
     2008.74469         4.27186         5.06909
     2008.74743         6.75783         5.06094
     2008.75017         6.87179         5.06185
     2008.75290         5.58275         5.10351
     2008.75564         2.43971         5.16057
     2008.75838         5.70868         5.16419
     2008.76112         1.18464         5.11619
     2008.76386         2.04460         5.10442
     2008.76659       -12.24444         5.30004
     2008.76933        -1.20748         5.18049
     2008.77207        -2.24751         5.00479
     2008.77481        -1.46755         4.98487
     2008.77754        -2.02059         4.96856
     2008.78028         5.36637         4.98396
     2008.78302        -5.98267         4.99845
     2008.78576        -2.19370         5.04011
     2008.78850         0.76126         5.08630
     2008.79123         4.75422         5.20404
     2008.79397        -2.53882         4.94773
     2008.79671         2.31915         5.18230
     2008.79945        -3.26389         5.06819
     2008.80219         7.04907         5.29370
     2008.80492         0.18203         5.09717
     2008.80766         1.31099         5.09355
     2008.81040         0.78096         5.11891
     2008.81314         2.06092         5.10442
     2008.81587         0.56388         5.07725
     2008.81861        -1.76416         5.09626
     2008.82135        -1.67620         5.05913
     2008.82409         1.23577         5.14064
     2008.82683        -2.01027         5.09445
     2008.82956        -2.01931         5.12253
     2008.83230         1.74465         5.13430
     2008.83504        -1.70138         5.21219
     2008.83778         0.03058         5.12977
     2008.84052        -1.17346         5.09717
     2008.84325        -0.49450         5.13793
     2008.84599         4.60246         4.99211
     2008.84873        -6.29657         5.16600
