# ================= DQRFIT RESULTS ================
# INPUT FILE: series/HONY.rad
# OUTPUT: LDETRENDED
# FILTER FUNCTION: f(t)
# f(t)=+line(t)+annual(t)
# line(t)=+P 1+P 2*t
# annual(t)=+P 3*sin(2*pi*t+P 4)
# heav(t)=(t<0?0:1)
# TOTAL OBSERVATIONS MTOT=  837
# INITIAL TIME INTERVAL= 2019.5045 - 2005.2704 = 14.2341
# TOTAL OBSERVATIONS AFTER PREFILTER M=  836
# TIME-SPAN= 2019.5045 - 2005.2704 = 14.2341
# OBSERVATIONS: USED M=   836 REJECTED MTOT-M=     1 %USED=   99.8805
# N=  4 PARAMETERS
# MAXSIG= 175.00000
# MAXRES=  30.67093
# SCALE FACTOR FOR LENGTHS: SCL=  10.00000
# SCALE FACTOR FOR SIGMAS: SCLSIG=   1.00000
# CHI^2=   1720.472 DOF=   832 CHI^2/DOF=   2.06787
# RMS=      8.336 SDEV=      8.341 MEAN=   -0.03330
#  P #       PARAMETER +-    SIGMA %error PARAMETER NAME
# P 1 =       -47.62938 +-  144.793 304.00 YZERO                              
# P 2 =         0.02521 +-    0.072 285.70 SLOPE                              
# P 3 =         4.67006 +-    0.461   9.87 ANNUAL AMPLITUDE                   
# P 4 =         1.91310 +-    0.043   2.25 ANNUAL PHASE                       
#       T            LDETRENDED       SIG_OBS
     2005.27037         9.64364         8.52021
     2005.27311         6.85757         8.57486
     2005.27584         0.56650         8.61800
     2005.27858         2.73743         8.64676
     2005.28132         0.70537         8.59930
     2005.28406        -0.53870         8.59930
     2005.28679         0.74023         8.55185
     2005.28953         8.19916         8.36347
     2005.29227         1.95209         8.55185
     2005.29501         5.80202         8.48714
     2005.29775         0.80095         8.40373
     2005.30048         4.17888         8.25993
     2005.30322         1.45581         8.31026
     2005.30596         3.16074         8.34765
     2005.30870         6.97568         8.35628
     2005.31144         1.35361         8.37210
     2005.31417         1.24154         8.37785
     2005.31691        -1.69553         8.31745
     2005.31965         3.30840         8.30307
     2005.32239         3.69533         8.54035
     2005.32512        -1.67774         8.39942
     2005.32786        -1.77281         8.40230
     2005.33060         1.12812         8.28294
     2005.33334         5.26805         8.27575
     2005.33608         6.88499         8.48714
     2005.33881         7.21992         8.38792
     2005.34155         2.97885         8.30164
     2005.34429         6.62278         8.32464
     2005.34703         5.10271         8.25131
     2005.34977        -3.69936         8.38935
     2005.35250       -12.12243         8.64676
     2005.35524         7.56750         8.52309
     2005.35798         3.65043         8.62663
     2005.36072        -6.36164         8.56048
     2005.36345        -4.85170         8.77043
     2005.36619         8.68023         8.61800
     2005.36893        -4.24584         8.82363
     2005.37167         5.63809         8.76899
     2005.37441        10.87202         8.65826
     2005.37714         9.93195         9.50094
     2005.37988        -7.09912         9.11555
     2005.38262       -12.59819         9.22771
     2005.38536         3.99674         8.61656
     2005.38810        -0.12133         8.62231
     2005.39083         1.21261         8.57054
     2005.39357        -1.05846         8.40230
     2005.39631        -5.35553         8.49289
     2005.39905        -6.31960         8.49577
     2005.40178         2.47133         8.68127
     2005.40452         6.96526         8.60506
     2005.40726        -0.60481         8.48282
     2005.41000        -4.36588         8.40086
     2005.41274        -2.05595         8.50583
     2005.41547        -1.90602         8.39511
     2005.41821         1.63692         8.32177
     2005.42095         0.86285         8.27575
     2005.42369         1.33778         8.30595
     2005.42643         2.83071         8.42243
     2005.42916        -0.42136         8.45694
     2005.43190         5.16457         8.36203
     2005.64819         3.65612         8.42530
     2005.65093         3.41705         8.45263
     2005.65367        -3.54702         8.41236
     2005.65640        -6.64909         8.46125
     2005.65914        -7.59016         8.45982
     2005.66188        -3.19923         8.22398
     2005.66462         1.89870         8.23980
     2005.66736        -2.45736         8.30020
     2005.67009         0.16357         8.28726
     2005.67283         2.42750         8.33615
     2005.67557         1.23643         8.40661
     2005.67831        -2.31264         8.29301
     2005.68105        -3.22571         8.30307
     2005.68378        -4.63678         8.42387
     2005.68652        -1.47885         8.41955
     2005.68926        -2.43592         8.43249
     2005.69200        -3.17499         8.49289
     2005.69473        -1.44505         8.41955
     2005.69747        -1.88512         8.28150
     2005.70021         2.27781         8.78912
     2005.70295         0.46274         8.67552
     2005.70569        -4.58633         8.64820
     2005.70842         1.09560         8.68271
     2005.71116        -3.40847         8.36203
     2005.71390        -0.25554         8.19522
     2005.71664        -2.68961         8.68415
     2005.71938        -4.05468         8.27000
     2005.72211         1.91826         8.42530
     2005.72485        -2.33281         8.24412
     2005.72759        -8.06588         8.33615
     2005.73033        -5.65295         8.50440
     2005.73306        -0.18402         8.49720
     2005.73580         5.14591         8.52021
     2005.73854         0.12184         8.42818
     2005.74128         2.11877         8.32608
     2005.74402         2.90170         8.45406
     2005.74675        -0.03837         8.34478
     2005.74949        -1.84344         8.40805
     2005.75223        -0.55050         8.63957
     2005.75497         6.73943         8.47707
     2005.75770         1.34836         8.41811
     2005.76044         2.53029         8.38073
     2005.76318         1.77022         8.26856
     2005.76592         8.78915         8.35484
     2005.76866         6.17208         8.23405
     2005.77139         6.40401         8.23405
     2005.77413         5.62694         8.32464
     2005.77687         2.44887         8.49864
     2005.77961        -0.76919         8.47420
     2005.78235         2.51374         8.48139
     2005.78508        -0.95833         8.33615
     2005.78782        -3.40640         8.64244
     2005.79056         2.54453         8.36059
     2005.79330         6.15546         8.26137
     2005.79603         7.00339         8.53603
     2005.79877         4.65732         8.61656
     2005.80151         5.21425         8.49864
     2005.80425         7.41918         8.37785
     2005.80699         2.38112         8.26712
     2005.80972         4.78105         8.24555
     2005.81246         4.21098         8.38792
     2005.81520         3.05691         8.51159
     2005.81794        -9.94016         8.91279
     2005.82068         9.66877         8.36203
     2005.82341         1.58070         8.37066
     2005.82615        11.28463         8.37785
     2005.82889         5.23056         8.34909
     2005.83163        -2.93151         8.65682
     2005.83436        -3.95057         8.61656
     2005.83710         8.57936         8.70140
     2005.83984        -0.22971         8.68702
     2005.84258        -9.44678         8.83801
     2005.84532        -3.61185         8.80494
     2005.84805         0.46908         8.91998
     2005.85079        -3.67099         9.27948
     2005.85353        -4.27606         8.64532
     2005.85627         1.76787         8.66258
     2005.85870        -2.00119        10.32348
     2006.10815       -10.70148         8.36922
     2006.11088       -12.33454         8.53316
     2006.11362       -14.87861         8.16502
     2006.11636       -17.18568         8.12620
     2006.11910       -11.69375         8.16790
     2006.12183        -7.38182         8.17509
     2006.12457       -12.24589         8.28438
     2006.12731       -10.69896         8.24699
     2006.13005        -7.10003         8.15783
     2006.13279        -8.41110         8.14921
     2006.13552        -3.99217         8.14921
     2006.13804        -1.10123         9.01057
     2006.20397        -7.90289         8.66689
     2006.20671       -13.87596         8.66977
     2006.20945        -3.31903         8.37210
     2006.21219        -7.76110         8.39942
     2006.21493        -3.07117         8.35340
     2006.21766        -8.21224         8.35197
     2006.22040        -6.95830         8.46844
     2006.22314        -8.39437         8.43393
     2006.22588       -20.08144         9.06666
     2006.22862        -8.28651         8.96312
     2006.23135         0.24542         8.35772
     2006.23409        -2.34065         8.40949
     2006.23683       -22.70272         8.49145
     2006.23957        -1.37379         8.17365
     2006.24230        -3.83286         8.15208
     2006.24504       -14.05593         8.16071
     2006.24778        -7.80100         8.36922
     2006.25052        -8.26806         8.16071
     2006.25326       -13.82613         8.24699
     2006.25599        -9.61620         8.24412
     2006.25873         1.11473         8.19235
     2006.26147        -1.61534         8.40373
     2006.26421         2.80659         8.49433
     2006.26695       -19.80048         8.47132
     2006.26968        -7.14855         8.24268
     2006.27242        -5.23862         8.29876
     2006.27516        -5.11969         8.49433
     2006.27790        -6.66875         8.48714
     2006.28063        -5.60582         8.27000
     2006.28337        -6.32889         8.20816
     2006.28611        14.80604         8.61944
     2006.28885        -7.04303         8.38216
     2006.29159        -8.64010         8.29876
     2006.29432        -0.49017         8.21248
     2006.29706        -4.16824         8.20529
     2006.29980        -1.47431         8.40373
     2006.30254        -2.34438         8.27288
     2006.30528        -8.18244         8.19954
     2006.30801        -2.03351         8.19235
     2006.31075        -4.67358         8.29301
     2006.31349        -5.15365         8.41092
     2006.31623         0.22028         8.35628
     2006.32170        -4.84286         8.21104
     2006.32444        -3.05593         8.29013
     2006.32718        -9.32900         8.41380
     2006.32992        -5.26107         8.36347
     2006.33265        -7.00313         8.23261
     2006.33539        -4.68520         8.12332
     2006.33813        -3.39927         8.16934
     2006.34087        -6.85034         8.24843
     2006.34361        -2.69041         8.32752
     2006.34634        -4.44448         8.31314
     2006.34908        -5.50455         8.27431
     2006.35182        -8.20762         8.32752
     2006.35456        -8.39669         8.22686
     2006.35729        -6.11176         8.25706
     2006.36003        -2.16282         8.27431
     2006.36277        -4.83289         8.32896
     2006.36551       -13.21796         8.32321
     2006.36825        -7.36703         8.28726
     2006.37098        -8.07510         8.44112
     2006.37372       -10.12317         8.68415
     2006.37646        -6.02624         8.43681
     2006.37920        -6.10931         8.58205
     2006.38193       -18.17338         8.56767
     2006.38467        -4.04045         8.43681
     2006.38741        -1.97851         8.45982
     2006.39015         1.00942         8.55473
     2006.39289         1.48735         8.51590
     2006.39562         1.53828         8.66977
     2006.39836        -6.24879         8.65826
     2006.40110       -11.67586         8.59930
     2006.40384        -4.23293         8.37354
     2006.40658        -9.17600         8.41236
     2006.40931        -6.70007         8.37641
     2006.41205        -4.16114         8.47707
     2006.41479        -3.84020         8.55185
     2006.41753       -15.48727         8.71147
     2006.42026        -6.69334         8.96887
     2006.42300       -18.34441         8.83370
     2006.42574        -5.09848         8.88691
     2006.42848         0.26845         8.75029
     2006.43122        -4.81062         8.83514
     2006.43395       -10.04069         8.53603
     2006.43669         2.46424         8.47707
     2006.43943        -2.51583         8.45550
     2006.87749        -1.39487         8.41092
     2006.88022        -2.02794         8.45263
     2006.88296        -5.09601         8.44400
     2006.88570         4.99693         8.39511
     2006.88844        -3.99914         8.79919
     2006.89118        -3.00821         8.70284
     2006.89391       -13.27628         8.95162
     2006.89665        -6.81335         8.59787
     2006.89939        -0.49642         8.46125
     2006.90213        -1.24649         8.51878
     2006.90486        -0.38456         8.57917
     2006.90760        10.27337         8.27719
     2006.91034        -1.95670         8.35484
     2006.91308        -0.10176         8.41955
     2006.91582        -1.46483         8.46988
     2006.91855        -6.89290         8.40805
     2006.92129        -3.01597         8.30739
     2006.92403        -6.84004         8.42099
     2006.92677        -0.59611         8.55760
     2006.92951        -7.15818         8.64244
     2006.93224        -4.50125         8.46701
     2006.93498        -0.01232         8.61800
     2006.93772        -2.70539         8.62519
     2006.94046         1.31754         8.69277
     2006.94319        -1.65052         8.51878
     2006.94593        -5.20459         8.68990
     2006.94867         2.41334         8.52884
     2006.95141        -1.89473         8.69853
     2006.95415        -4.18880         9.23347
     2006.95688         0.04613         8.54897
     2006.95962         2.19506         8.50727
     2006.96236        -0.08701         8.51302
     2006.96510        -1.30108         8.64676
     2006.96784         0.00285         8.50008
     2006.97057        -3.78521         8.54035
     2006.97331        -5.35228         8.60362
     2006.97605         4.69265         8.57054
     2006.97879        -1.15542         8.56623
     2006.98152        -0.39649         8.68846
     2006.98426       -18.21556         8.96600
     2006.98700       -13.50563         9.17595
     2006.98974        -5.58970         8.76611
     2006.99248        -8.80877         8.83226
     2006.99521        -7.93384         8.80063
     2006.99795        -0.26490         8.72010
     2007.00343         1.59896         8.73448
     2007.00616         1.90389         8.83370
     2007.01438        -3.28432         8.54610
     2007.01985        -8.43846         8.50008
     2007.02259        -9.64353         8.33902
     2007.02533        -8.47059         8.65539
     2007.02807        -5.86966         8.62950
     2007.03081        -3.22073         8.32177
     2007.03354        -9.90480         8.22398
     2007.03628        -6.45187         8.13339
     2007.03902       -11.38394         8.08450
     2007.04176        -7.33601         8.27575
     2007.04449        -8.90508         8.12332
     2007.04723       -13.78315         8.35484
     2007.04997       -11.79922         8.49577
     2007.05271        -7.68628         8.57773
     2007.05545        -4.34435         8.10750
     2007.05818        -8.53842         8.18516
     2007.06092       -13.26249         8.08881
     2007.53183        -2.77336         9.48799
     2007.53457        -4.21943         9.45492
     2007.53731        -6.63750         8.70428
     2007.54005       -16.55857         8.69277
     2007.54278       -10.27664         8.64244
     2007.54552         6.59129         8.58636
     2007.54826         6.76722         8.36922
     2007.55100         7.45316         8.32752
     2007.55374        -1.84491         8.31170
     2007.55647         0.14302         8.35053
     2007.55921         3.30095         8.58780
     2007.56195        -0.39812         8.39798
     2007.56469         3.45381         8.42530
     2007.56742        -4.57126         8.35916
     2007.57016        -0.01633         8.29732
     2007.57290        -4.20440         8.37354
     2007.57564        -2.23247         8.33471
     2007.57838        -3.96453         8.40805
     2007.58111         2.56840         8.22973
     2007.58385         4.69333         8.36922
     2007.58659        -4.98474         8.19378
     2007.58933         0.33119         8.42387
     2007.59206        -9.08288         8.46988
     2007.59480        10.07805         8.42674
     2007.59754        -3.65802         8.35916
     2007.60028        -1.36409         8.27431
     2007.60302         3.09984         8.21967
     2007.60575         2.27978         8.40805
     2007.60849        -1.29229         8.25850
     2007.61123        -6.44836         8.25993
     2007.61397        -4.02543         8.22686
     2007.61671        -6.13450         8.84808
     2007.61944        -5.02357         8.77187
     2007.62218         3.52436         8.87972
     2007.62492        -1.77971         8.60362
     2007.62766        -2.36478         8.76036
     2007.63039        -0.10285         9.36145
     2007.63313         3.10709         8.59499
     2008.17797         0.53935         8.16071
     2008.18070        -4.33972         8.15640
     2008.18344        -2.22779         8.27863
     2008.18618        -0.63886         8.23836
     2008.18892        -2.59292         8.22398
     2008.19165         4.93601         8.36635
     2008.19439         1.06594         8.26712
     2008.19713         1.96887         8.66545
     2008.19987        -3.67420         8.32464
     2008.20261        -4.77127         8.23549
     2008.20534        11.11966         8.28438
     2008.20808         3.91759         8.53028
     2008.21082         3.62152         8.43393
     2008.21356        -6.90655         8.60506
     2008.21629         7.35339         8.39223
     2008.21903        -0.47968         8.39223
     2008.22177         0.52825         8.44975
     2008.22451        -2.68082         8.40805
     2008.22725        -0.67789         8.44400
     2008.22998         6.46304         8.77187
     2008.23272         5.25397         8.67264
     2008.23546         0.75890         8.58780
     2008.23820         2.36683         8.33759
     2008.24094        -3.61124         8.41524
     2008.24367         1.07270         8.27431
     2008.24641         3.59263         8.25131
     2008.24915         1.96156         8.26281
     2008.25189         1.77049         8.45263
     2008.25462         2.72642         8.29157
     2008.25736        -2.67365         8.30307
     2008.26010         5.84928         8.37066
     2008.26284         0.56621         8.29732
     2008.26558        -4.99486         8.21392
     2008.26831         6.80207         8.28726
     2008.27105         6.85501         8.18084
     2008.27379         4.86194         8.25993
     2008.27653         2.64587         8.26569
     2008.27927        -1.23420         8.39798
     2008.28200         1.29073         8.37210
     2008.28474         9.21966         8.58924
     2008.28748        12.91559         8.47563
     2008.29022         4.01352         8.35197
     2008.29295         1.53745         8.18659
     2008.29569        -4.29662         8.31602
     2008.29843        -4.59068         8.29013
     2008.30117        -5.40075         8.30020
     2008.30391         4.52118         8.29876
     2008.30664         4.06811         8.22254
     2008.30938        -3.93896         8.63525
     2008.31212         0.75497         8.58061
     2008.31486         4.03990         8.30020
     2008.31760        -5.96817         8.41668
     2008.32033        -1.15024         8.47420
     2008.32307         8.11869         8.40661
