# ================= DQRFIT RESULTS ================
# INPUT FILE: series/HRPR.rad
# OUTPUT: LDETRENDED
# FILTER FUNCTION: f(t)
# f(t)=+line(t)+annual(t)
# line(t)=+P 1+P 2*t
# annual(t)=+P 3*sin(2*pi*t+P 4)
# heav(t)=(t<0?0:1)
# TOTAL OBSERVATIONS MTOT= 1172
# INITIAL TIME INTERVAL= 2022.7488 - 2019.4962 =  3.2526
# TOTAL OBSERVATIONS AFTER PREFILTER M= 1169
# TIME-SPAN= 2022.7488 - 2019.4962 =  3.2526
# OBSERVATIONS: USED M=  1169 REJECTED MTOT-M=     3 %USED=   99.7440
# N=  4 PARAMETERS
# MAXSIG= 175.00000
# MAXRES=  23.66108
# SCALE FACTOR FOR LENGTHS: SCL=  10.00000
# SCALE FACTOR FOR SIGMAS: SCLSIG=   1.00000
# CHI^2=   1609.345 DOF=  1165 CHI^2/DOF=   1.38141
# RMS=      6.536 SDEV=      6.538 MEAN=   -0.00103
#  P #       PARAMETER +-    SIGMA %error PARAMETER NAME
# P 1 =     -3937.63739 +-  412.466  10.47 YZERO                              
# P 2 =         1.94672 +-    0.204  10.48 SLOPE                              
# P 3 =         4.89934 +-    0.270   5.51 ANNUAL AMPLITUDE                   
# P 4 =        -2.95691 +-    0.077   2.59 ANNUAL PHASE                       
#       T            LDETRENDED       SIG_OBS
     2019.49623        -3.65943         6.34211
     2019.49897        -0.69376         6.42791
     2019.50171         3.66691         6.34446
     2019.50444        -1.55942         6.28922
     2019.50718        -1.06175         6.28217
     2019.50992        -1.38107         6.29980
     2019.51266         0.27060         6.41263
     2019.51540         0.73927         6.45847
     2019.51813        -4.46506         6.32683
     2019.52087         0.85061         6.28687
     2019.52361        -1.51672         6.28569
     2019.52635        -0.54305         6.41850
     2019.52908        -5.51038         6.72879
     2019.53182        -4.21071         6.65122
     2019.53456        -6.23104         6.52663
     2019.53730         4.66763         6.48432
     2019.54004         4.22030         6.48197
     2019.54277         7.02897         6.53369
     2019.54551         3.66364         6.78521
     2019.54825         3.78031         6.35033
     2019.55099        -0.59402         6.32800
     2019.55373         4.40165         6.46199
     2019.55646         6.91532         6.64064
     2019.55920        -2.11101         6.86866
     2019.56091         7.02966        12.34454
     2019.56468         5.55133         6.49725
     2019.56741         7.35400         6.34211
     2019.57015         7.58467         6.29392
     2019.57289         8.21734         6.59833
     2019.57563         4.03001         6.44201
     2019.57837         0.39268         6.49255
     2019.58110         0.36635         6.30567
     2019.58384         4.28602         6.50548
     2019.58658         6.23169         6.38324
     2019.58932         9.98936         6.42908
     2019.59206        10.52603         6.62184
     2019.59479        -1.08030         6.39970
     2019.59753         6.94737         6.53486
     2019.60027         7.19404         6.60186
     2019.60301         2.23171         6.38559
     2019.60574         6.55938         6.78403
     2019.60848         0.84505         6.75465
     2019.61122        -3.23228         6.25983
     2019.61396         1.76739         6.37149
     2019.61670         7.10106         6.31390
     2019.61943         7.23973         6.38207
     2019.62217         9.70240         6.49725
     2019.62491        11.32807         6.34798
     2019.62765         8.46074         6.28334
     2019.63039         9.40241         6.32213
     2019.63312         8.49208         6.36444
     2019.63586        10.76675         6.34446
     2019.63860         3.99342         6.46552
     2019.64134         4.95809         6.48902
     2019.64407         4.53876         6.33858
     2019.64681         5.09543         6.36679
     2019.64955         6.21510         6.34328
     2019.65229        10.87377         6.31272
     2019.65503         3.37544         6.53016
     2019.65776         2.05111         6.43731
     2019.66050         6.50779         6.63124
     2019.66324         2.12746         6.33976
     2019.66598         9.24613         6.42673
     2019.66872         7.19580         6.42908
     2019.67145         2.00147         6.36209
     2019.67419         3.76914         6.42203
     2019.67693        10.46781         6.52076
     2019.67967         2.80948         6.66297
     2019.68240        -0.97885         6.35621
     2019.68514         2.99482         6.45729
     2019.68788         4.40249         6.51371
     2019.69062         5.58616         6.42673
     2019.69336         3.02983         6.28334
     2019.69609         4.45550         6.35974
     2019.69883        -0.01983         6.43613
     2019.70157         0.32884         6.33153
     2019.70431         5.56451         6.29744
     2019.70705         8.36318         6.34211
     2019.70978         7.38985         6.37032
     2019.71252         3.04952         6.41145
     2019.71526         8.10019         6.31625
     2019.71800         6.81186         6.51371
     2019.72073         0.93653         6.51136
     2019.72347        -0.74780         6.27629
     2019.72621         4.78787         6.36914
     2019.72895        -2.38346         6.38559
     2019.73169        11.34421         6.36209
     2019.73442         2.82288         6.33623
     2019.73716         2.80055         6.55602
     2019.73990        10.40922         6.55132
     2019.74264         6.11489         6.44906
     2019.74538         6.71356         6.29274
     2019.74811         7.99323         6.42556
     2019.75085         2.18690         6.41850
     2019.75359         3.01157         6.61126
     2019.75633         5.46024         6.44671
     2019.75906         1.83491         6.28804
     2019.76180        -1.12542         6.27041
     2019.76454         2.92325         6.34916
     2019.76728         5.01792         6.47022
     2019.77002        -0.01841         6.54074
     2019.77275         0.60426         6.59128
     2019.77549         2.85893         6.44436
     2019.77823         3.42060         6.43143
     2019.78097         5.04227         6.45259
     2019.78371         3.82294         6.44201
     2019.78644         0.20561         6.40910
     2019.78918         4.02028         6.45611
     2019.79192        11.80695         6.49725
     2019.79466        22.79362         6.49490
     2019.79739         9.70629         6.48315
     2019.80013         9.82396         6.45847
     2019.80287         5.70363         6.43026
     2019.80561         0.05830         6.65592
     2019.80835         4.66897         6.44201
     2019.81108        -0.72135         6.37502
     2019.81382         4.92032         6.43496
     2019.81656        10.80799         6.47257
     2019.81930        -1.07534         6.48315
     2019.82203         2.33033         6.42673
     2019.82477        -1.49700         6.45847
     2019.82751        -0.00933         6.37032
     2019.83025         0.91534         6.57835
     2019.83299         0.88301         6.56660
     2019.83572         2.80468         6.46317
     2019.83846         4.42035         6.41615
     2019.84120         4.57502         6.44084
     2019.84394        -0.42031         6.63477
     2019.84668         0.99036         6.43848
     2019.84941         1.99003         6.44436
     2019.85215         3.41970         6.42791
     2019.85489         2.26937         6.40322
     2019.85763         2.34404         6.40558
     2019.86036         4.43671         6.49137
     2019.86310         0.19138         6.47492
     2019.86584         7.79605         6.60303
     2019.86858         8.07572         6.42203
     2019.87132         5.91239         6.47492
     2019.87405         4.25106         6.39147
     2019.87679         1.02673         6.54309
     2019.87953        10.59040         6.47022
     2019.88227        17.09207         6.60186
     2019.88501        15.07674         6.40440
     2019.88774        10.80541         6.56660
     2019.89048        13.64808         6.40675
     2019.89322        10.35775         6.42085
     2019.89596         7.87542         6.43966
     2019.89869        11.37709         6.52781
     2019.90143         7.74676         6.40910
     2019.90417        14.19043         6.42673
     2019.90691         6.15710         6.39970
     2019.90965         7.57477         6.37972
     2019.91238         4.05144         6.41145
     2019.91512        -4.22189         6.45494
     2019.92060        -1.90355         6.42556
     2019.92334         8.25712         6.43378
     2019.92607         8.06179         6.42673
     2019.92881         7.55646         6.45259
     2019.93155        12.23813         6.44789
     2019.93429         7.22880         6.41263
     2019.93702         4.88947         6.37972
     2019.93976         1.21314         6.39970
     2019.94250        -0.01219         6.43496
     2019.94524         4.94848         6.49843
     2019.94798         0.46815         6.46082
     2019.95071         3.14582         6.66062
     2019.95345         4.55949         6.39265
     2019.95619         4.55516         6.42556
     2019.95893        -0.90016         6.39970
     2019.96167         0.33851         6.44906
     2019.96440        -1.58582         6.57952
     2019.96714        -4.35815         6.56425
     2019.96988        -2.81448         6.37149
     2019.97262         3.18719         6.41498
     2019.97535         6.99586         6.42203
     2019.97809        -1.46847         6.45141
     2019.98083         2.16120         6.43848
     2019.98357        -1.02713         6.39382
     2019.98631         2.84254         6.39970
     2019.98904         2.32321         6.43848
     2019.99178        -0.35512         6.46082
     2019.99452        -5.80145         6.45024
     2019.99726         3.60022         6.46904
     2020.00000        13.02189         6.49960
     2020.00273         7.81856         6.45964
     2020.00547         3.35523         6.58305
     2020.00821         3.27490         6.63359
     2020.01095         1.62357         6.56072
     2020.01368        -9.74676         6.54662
     2020.01642        -0.96109         6.53016
     2020.01916         3.49858         6.44436
     2020.02190        -0.34675         6.59598
     2020.02464        -2.11308         6.54074
     2020.02737        -0.36541         6.45141
     2020.03011         7.20926         6.44436
     2020.03285        -2.64607         6.42908
     2020.03559         1.42660         6.30215
     2020.03833         1.65227         6.32213
     2020.04106        -0.46506         6.43731
     2020.04380         0.13761         6.41380
     2020.04654        -0.09372         6.32565
     2020.04928        -7.81005         6.26689
     2020.05201        -1.57238         6.32565
     2020.05475        -1.74171         6.28452
     2020.05749         2.67696         6.29039
     2020.06023        -1.14537         6.29627
     2020.06297        -4.57970         6.29274
     2020.06570         1.57797         6.47845
     2020.06844         1.09064         6.32683
     2020.07118         4.31731         6.31743
     2020.07392         3.81998         6.36326
     2020.07666        -3.84835         6.30450
     2020.07939        -3.82968         6.30332
     2020.08213        -3.25101         6.27864
     2020.08487        -2.64034         6.32213
     2020.08761         5.27533         6.34446
     2020.09034        -1.61400         6.28569
     2020.09308         0.41667         6.28687
     2020.09582         2.21034         6.30097
     2020.09856        -6.52199         6.32213
     2020.10130         9.87968         6.38089
     2020.10403         9.95135         6.42085
     2020.10677         0.49402         6.26689
     2020.10951        -8.95730         6.30332
     2020.11225        -6.58063         6.27629
     2020.11498        -1.70696         6.28922
     2020.11772        -0.69729         6.41850
     2020.12046         6.20238         6.52428
     2020.12320        -3.66395         6.30567
     2020.12594        -3.27628         6.28804
     2020.12867        -4.00661         6.32095
     2020.13141        -1.23394         6.23163
     2020.13415        -6.54527         6.21752
     2020.13689        -0.35260         6.42908
     2020.13963        -2.33993         6.43261
     2020.14236        -1.02126         6.32448
     2020.14510         3.80541         6.35269
     2020.14784        -4.07092         6.33270
     2020.15058        -5.24925         6.29980
     2020.15331        -8.20458         6.33858
     2020.15605        -7.32791         6.35856
     2020.15879        -2.78624         6.35033
     2020.16153         0.43143         6.34916
     2020.16427         2.63010         6.29627
     2020.16700         2.16677         6.28687
     2020.16974         4.89544         6.36209
     2020.17248         4.75011         6.34681
     2020.17522         0.25678         6.32683
     2020.17796         0.23545         6.23633
     2020.18069         4.56412         6.25631
     2020.18343         2.82579         6.23398
     2020.18617         1.36746         6.30685
     2020.18891        -1.74587         6.46082
     2020.19164        -1.15520         6.36326
     2020.19438        -2.30053         6.39030
     2020.19712         0.22414         6.40793
     2020.19986        -2.37319         6.41028
     2020.20260        -0.15952         6.42791
     2020.20533        -0.75885         6.43261
     2020.20807         0.84882         6.37502
     2020.21081        -3.48151         6.35856
     2020.21355        -4.49584         6.87924
     2020.21629        -2.21017         6.67825
     2020.21902        -3.50150         6.52311
     2020.22176        -1.61983         6.41028
     2020.22450        -1.37416         6.41850
     2020.22724        -0.48349         6.39735
     2020.22997         0.32418         6.36444
     2020.23271         3.47785         6.33035
     2020.23545         1.12852         6.35151
     2020.23819        -2.99581         6.36209
     2020.24093         0.59886         6.38324
     2020.24366         4.10353         6.43026
     2020.24640         5.72420         6.41733
     2020.24914        -3.98213         6.38559
     2020.25188        -3.13246         6.37502
     2020.25735         3.26189         6.37502
     2020.26009         5.63556         6.39265
     2020.26283         2.45123         6.37854
     2020.26557        -3.07910         6.39265
     2020.26830        -4.71143         6.36914
     2020.27104         1.12324         6.32918
     2020.27378        -3.91909         6.43966
     2020.27652         0.10658         6.44906
     2020.27926        -3.11875         6.42908
     2020.28199        -1.58908         6.47022
     2020.28473        -7.47041         6.32448
     2020.28747        -0.38674         6.40910
     2020.29021        -2.30407         6.44084
     2020.29295        -3.17240         6.40205
     2020.29568         4.05127         6.38324
     2020.29842         2.03694         6.36914
     2020.30116         2.28661         6.33623
     2020.30390         4.32728         6.37384
     2020.30663         1.48395         6.40793
     2020.30937         1.95262         6.73584
     2020.31211        -4.69071         6.51136
     2020.31485        -4.21004         6.44671
     2020.31759         0.95463         6.26571
     2020.32032         1.89930         6.30685
     2020.32306         1.38897         6.33270
     2020.32580        -0.32736         6.27159
     2020.32854        -1.87369         6.49020
     2020.33128        -5.43602         6.28687
     2020.33401        -2.02735         6.31155
     2020.33675         3.89832         6.44319
     2020.33949        -1.34601         6.29627
     2020.34223        -3.30234         6.42321
     2020.34496        -2.29667         6.45141
     2020.34770        -4.92800         6.26336
     2020.35044        -1.75833         6.34211
     2020.35318        -5.34766         6.39500
     2020.35592        -2.56299         6.39382
     2020.35865         0.89768         6.34798
     2020.36139        -1.08765         6.41498
     2020.36413         6.67402         6.32918
     2020.36687         1.95169         6.37384
     2020.36961        -3.37464         6.38324
     2020.37234        -1.18197         6.27159
     2020.37508         3.37170         6.33506
     2020.37782         2.17537         6.35739
     2020.38056        -1.94396         6.32213
     2020.38329        -0.14729         6.29862
     2020.38603         2.85338         6.31507
     2020.38877         0.57005         6.51371
     2020.39151        -4.82528         6.28452
     2020.39425        -3.37761         6.32918
     2020.39698        -3.96494         6.29627
     2020.39972       -10.73827         6.34798
     2020.40246        -5.48560         6.32213
     2020.40520        -3.66193         6.43261
     2020.40794        -3.40325         6.28334
     2020.41067        -0.76958         6.42556
     2020.41341         4.04609         6.39147
     2020.41615        -0.42924         6.33270
     2020.41889        -5.30157         6.30332
     2020.42162       -11.24890         6.40322
     2020.42436         0.33477         6.57600
     2020.42710         1.66944         6.59480
     2020.42984        -1.48189         6.51958
     2020.43258         0.84278         6.42673
     2020.43531        -2.29355         6.43026
     2020.43805         1.35512         6.37972
     2020.44079        -6.72421         6.46082
     2020.44353         0.10446         6.46787
     2020.44626        -3.34387         6.36444
     2020.44900        -0.14520         6.47610
     2020.45174         0.83447         6.40910
     2020.45448        -1.75186         6.28099
     2020.45722         2.87981         6.29274
     2020.45995        -0.70852         6.25631
     2020.46269        -8.85485         6.33623
     2020.46543        -7.64518         6.34211
     2020.46817         0.68949         6.31155
     2020.47091         2.08416         6.27981
     2020.47364        -6.58917         6.29157
     2020.47638         1.66450         6.31743
     2020.47912        -0.31783         6.39147
     2020.48186         2.71884         6.35504
     2020.48459         3.74351         6.51606
     2020.48733        -1.76782         6.50313
     2020.49007         6.79385         6.53369
     2020.49281         3.42052         6.46552
     2020.49555        -0.67881         6.41615
     2020.49828         2.10686         6.29627
     2020.50102        -4.41847         6.31743
     2020.50376        -1.97880         6.30685
     2020.50650        -4.12013         6.32918
     2020.50924        -5.22046         6.31625
     2020.51197        -1.92079         6.25513
     2020.51471         6.58788         6.35269
     2020.51745        -4.81345         6.25396
     2020.52019         1.88822         6.44084
     2020.52292         1.97589         6.49843
     2020.52566        -3.12744         6.45729
     2020.52840         8.51023         6.61831
     2020.53114         2.51390         6.45024
     2020.53388        -0.81443         6.49020
     2020.53661        -0.94676         6.45494
     2020.53935         1.93591         6.39500
     2020.54209        -1.10242         6.50665
     2020.54483        -1.45775         6.50783
     2020.54757        -2.24408         6.45141
     2020.55030        -1.30041         6.45611
     2020.55304        -0.06274         6.45024
     2020.55578         6.54193         6.46199
     2020.55852        11.96461         6.66415
     2020.56125        -2.65672         6.49608
     2020.56399        -0.63505         6.57835
     2020.56673        -2.13438         6.44671
     2020.56947        11.03129         6.45024
     2020.57221         2.31696         6.66062
