# ================= DQRFIT RESULTS ================
# INPUT FILE: series/HTCH.rad
# OUTPUT: LDETRENDED
# FILTER FUNCTION: f(t)
# f(t)=+line(t)+annual(t)
# line(t)=+P 1+P 2*t
# annual(t)=+P 3*sin(2*pi*t+P 4)
# heav(t)=(t<0?0:1)
# TOTAL OBSERVATIONS MTOT= 1558
# INITIAL TIME INTERVAL= 2013.5797 - 2008.7228 =  4.8569
# TOTAL OBSERVATIONS AFTER PREFILTER M= 1555
# TIME-SPAN= 2013.5797 - 2008.7228 =  4.8569
# OBSERVATIONS: USED M=  1555 REJECTED MTOT-M=     3 %USED=   99.8074
# N=  4 PARAMETERS
# MAXSIG= 175.00000
# MAXRES=  40.75066
# SCALE FACTOR FOR LENGTHS: SCL=  10.00000
# SCALE FACTOR FOR SIGMAS: SCLSIG=   1.00000
# CHI^2=   2301.393 DOF=  1551 CHI^2/DOF=   1.48381
# RMS=     11.771 SDEV=     11.773 MEAN=   -0.22586
#  P #       PARAMETER +-    SIGMA %error PARAMETER NAME
# P 1 =       411.75968 +-  428.228 104.00 YZERO                              
# P 2 =        -0.20297 +-    0.213 104.89 SLOPE                              
# P 3 =         8.05512 +-    0.425   5.28 ANNUAL AMPLITUDE                   
# P 4 =         2.69839 +-    0.068   2.51 ANNUAL PHASE                       
#       T            LDETRENDED       SIG_OBS
     2008.72279         6.99705        12.92180
     2008.72553        -3.38739        13.20684
     2008.72826         1.09116        12.43699
     2008.73100         4.02572        13.10939
     2008.73374         1.43828        13.23486
     2008.73648        -2.92017        12.86577
     2008.73921        -6.50761        12.42968
     2008.74469        -1.57750        12.82679
     2008.74743         5.92205        13.52233
     2008.75017        -8.65639        14.08145
     2008.75290        -4.20183        13.19466
     2008.75564        15.11272        12.94007
     2008.75838        15.15628        13.00341
     2008.76112        -5.36617        13.09234
     2008.76386        -5.59461        13.48213
     2008.76659        -5.23706        12.78537
     2008.76933       -13.06350        12.57220
     2008.77207         4.70306        11.80357
     2008.77481         6.64661        11.79626
     2008.78576       -17.12817        12.22747
     2008.78850        -3.14961        12.25549
     2008.79123        -3.91905        12.08373
     2008.79397         1.52850        12.00943
     2008.79671         3.69706        12.06668
     2008.80219         1.87617        11.84498
     2008.80492        -8.61728        12.05815
     2008.80766        15.65428        11.46858
     2008.81040         5.17784        11.56360
     2008.81314        -1.07961        12.02770
     2008.81587         4.49595        12.38583
     2008.81861        -6.04450        11.21765
     2008.82135         1.03506        10.94358
     2008.82409        -3.30939        11.59040
     2008.82683         2.51517        12.59778
     2008.82956         0.58273        12.08982
     2008.83230        -4.45872        11.94731
     2008.83504       -16.42516        12.33223
     2008.83778         4.51939        11.99238
     2008.84052       -12.51005        12.71959
     2008.84325         3.75950        12.04110
     2008.84873        -4.87238        11.68297
     2008.85147         5.10117        12.21651
     2008.85420        -6.70327        12.28838
     2008.85695        -3.23672        13.26775
     2008.85968        10.67784        12.00577
     2008.86242         2.71339        12.33467
     2008.86516        10.90895        12.06912
     2008.86789        -6.58449        11.98750
     2008.87611        -2.81783        11.88884
     2008.87885         2.02673        11.96192
     2008.88158         2.74928        12.10931
     2008.88432        -4.14316        11.54654
     2008.89253        11.68151        12.27254
     2008.89528         7.83806        12.90109
     2008.89801        12.00662        11.78042
     2008.90622         5.20629        11.05930
     2008.90896         0.62384        11.83524
     2008.91170        -7.12060        12.34563
     2008.91444       -11.96205        12.72203
     2008.91718        -4.13449        12.64772
     2008.91991        -2.08694        11.89980
     2008.92539        -6.26282        11.97045
     2008.92813         0.47573        12.06790
     2008.93086        -3.86271        12.33345
     2008.93360       -13.27916        12.29691
     2008.93634        -6.64260        11.39184
     2008.93908        13.36895        11.54533
     2008.94182       -20.19949        12.50886
     2008.94455        -8.75493        12.38096
     2008.94729        -6.49238        11.77190
     2008.95003       -22.22182        12.12393
     2008.95277        -2.18827        11.79017
     2008.95545       -21.93472        11.54289
     2008.98288       -36.63515        11.68785
     2008.98562        -0.44860        10.74380
     2008.98836       -35.87504        11.70003
     2008.99110       -13.78349        12.20555
     2008.99384         2.81207        11.80966
     2009.00479       -23.62071        13.39930
     2009.00752         7.89685        11.46737
     2009.01300       -12.50004        11.85473
     2009.01574        -4.13249        12.08008
     2009.01963         8.99430        31.59677
     2009.02121        -0.01937        11.60623
     2009.02431        -9.49775        14.63935
     2009.02669       -14.31926        11.31754
     2009.02943       -30.28371        11.78895
     2009.03490       -11.43460        11.72195
     2009.03764        -3.89604        11.05564
     2009.04038       -19.45348        12.18362
     2009.04312       -12.01793        11.89005
     2009.04585       -14.27037        11.85351
     2009.04860       -14.36882        11.10680
     2009.05133       -10.56026        11.34068
     2009.05407        -9.73571        11.88396
     2009.08693       -10.94604        11.21887
     2009.08966       -16.70448        11.80357
     2009.09240        -0.08093        11.25176
     2009.10061        -4.25926        12.33588
     2009.10335        -7.74570        11.87178
     2009.10609         4.31585        11.76337
     2009.10882         2.04541        11.89127
     2009.11156         4.81796        11.80113
     2009.11430       -10.26448        12.63920
     2009.11704         4.96308        12.01552
     2009.11978        -3.42237        11.79991
     2009.12251        -0.33981        11.33216
     2009.12799         7.30930        11.77920
     2009.13073         4.01285        11.95096
     2009.13347        -6.34959        11.27247
     2009.13620        -1.32103        11.65496
     2009.13895        -1.40348        11.21400
     2009.14168        -4.21992        11.35408
     2009.14442         4.92663        11.65252
     2009.14715       -11.09781        12.04232
     2009.14989       -21.57526        12.11419
     2009.15811         5.45641        10.94114
     2009.16084         8.22197        11.19085
     2009.16359         9.54752        11.94487
     2009.16632       -22.88092        12.22016
     2009.18822        -3.44748        11.19451
     2009.19096        -1.66892        11.96314
     2009.19370         9.02564        11.50635
     2009.19644         1.97919        11.13847
     2009.19917         7.70775        11.54411
     2009.20465        -6.25714        12.04232
     2009.20739        -7.71259        13.05214
     2009.21013        -2.01603        11.81575
     2009.21286        11.14453        12.74030
     2009.21560         4.89308        11.73413
     2009.21834        -0.31436        11.62572
     2009.22108         5.46919        12.10810
     2009.22381        -3.35625        11.44422
     2009.22655         5.75430        12.03257
     2009.23477        10.13897        11.89980
     2009.23750        -6.62947        12.26036
     2009.24024        -8.21392        11.73170
     2009.24298        -2.31036        11.66348
     2009.24572       -11.50981        12.05572
     2009.24846         5.13175        11.68785
     2009.25119       -22.49169        12.32492
     2009.25658        -2.23260        12.60631
     2009.27036         4.08620        11.69028
     2009.27310       -20.90925        11.73779
     2009.27583       -13.93469        11.91442
     2009.28131       -12.38558        12.28594
     2009.28405        -2.46203        11.91807
     2009.28679        -8.39247        11.21156
     2009.28952        -3.60391        11.76459
     2009.29226       -32.27536        12.22138
     2009.29500       -14.73280        11.83280
     2009.29774       -21.12025        12.07521
     2009.30047       -19.39569        11.17136
     2009.30595       -19.22358        11.83402
     2009.30869       -17.03302        11.68419
     2009.31143       -15.13647        11.50756
     2009.31416       -16.22691        11.45519
     2009.31690        -4.43336        12.22869
     2009.31964       -26.10180        12.29691
     2009.32238       -19.80525        11.66592
     2009.32512       -22.67269        12.15804
     2009.32785       -19.05313        12.10810
     2009.33059       -21.85858        11.56603
     2009.33333        -2.72402        12.20311
     2009.33607       -23.60647        11.89493
     2009.33880       -11.50391        11.93147
     2009.34154       -15.79036        12.64894
     2009.34428       -12.30180        11.96923
     2009.34702       -13.58724        12.10810
     2009.34976       -16.20969        11.94487
     2009.35249       -22.52313        11.52462
     2009.35523       -28.59958        12.04232
     2009.35797        -5.65202        12.57098
     2009.36071       -11.45347        12.66599
     2009.36344        -4.43891        11.60258
     2009.36618         5.88365        12.86698
     2009.36892       -11.76680        12.19580
     2009.37166       -15.12624        12.26280
     2009.37440       -11.82769        12.22016
     2009.37713         4.13987        12.76466
     2009.37987       -11.58658        12.50520
     2009.38261       -23.93602        13.13619
     2009.38535       -23.44146        12.28838
     2009.38809       -15.41091        12.09957
     2009.39074       -15.55437        12.43212
     2009.40832        13.65020        31.03278
     2009.40999       -14.80746        12.40654
     2009.41273       -16.69891        12.04354
     2009.41546         4.84665        12.20189
     2009.41820        -9.45080        12.52957
     2009.42094       -24.13024        12.05815
     2009.42368       -20.70068        12.83531
     2009.42642       -15.41513        12.31152
     2009.42915        -1.77157        13.02169
     2009.43190       -11.25402        12.19824
     2009.43463       -12.00346        12.53931
     2009.43737       -26.30791        11.55994
     2009.44010       -15.06635        12.54540
     2009.44284       -10.78479        12.98880
     2009.44558       -13.90424        12.24331
     2009.45106       -14.21013        12.65747
     2009.45379       -16.27757        12.67209
     2009.45653        -8.16602        12.30178
     2009.45927         6.36554        12.49911
     2009.46201        -4.92090        12.66599
     2009.46475        -4.43135        12.81704
     2009.46748        -4.95779        12.58560
     2009.47022        -3.87824        12.39314
     2009.48391       -13.07146        12.17266
     2009.48665        -6.54290        13.16177
     2009.48939       -15.96635        13.00463
     2009.49212         1.64221        11.82915
     2009.49486        -5.97224        12.16413
     2009.49760        -1.75268        12.31640
     2009.50034         3.14488        13.02169
     2009.50308       -16.42757        12.84993
     2009.50581       -10.76101        12.74517
     2009.50856       -11.34646        12.80730
     2009.51129         7.83910        13.65145
     2009.51403        -4.59735        12.20067
     2009.51676         8.17221        13.10452
     2009.51950       -16.92523        13.63196
     2009.52224       -19.24668        12.97296
     2009.52498        -1.62112        12.84506
     2009.52772        -1.68057        13.04483
     2009.53045        -0.75201        12.56002
     2009.53319         2.05054        13.63684
     2009.53593        -6.05390        12.29325
     2009.53867        -2.21434        13.08990
     2009.54141         6.20321        12.52469
     2009.54414         2.26477        12.55515
     2009.54689         9.01332        13.14837
     2009.55049        10.21705        23.49141
     2009.55236       -17.97057        12.22747
     2009.55509         7.21799        12.42237
     2009.55783       -12.20145        12.87429
     2009.56057        14.61610        13.02169
     2009.56331        -9.94834        12.58560
     2009.56596        -0.63881        13.32378
     2009.57166         6.72035        14.79648
     2009.57426         3.35588        12.74152
     2009.57700         1.64744        13.43463
     2009.57974        10.97099        13.68434
     2009.58247        15.34455        13.14959
     2009.58522         4.94710        13.05457
     2009.58795        12.68966        12.95591
     2009.59069         9.37121        13.48335
     2009.59342        -6.66523        13.14837
     2009.59616         9.68933        12.68914
     2009.59890        11.59388        13.12279
     2009.60164        -5.82856        13.19953
     2009.60438         4.41299        13.04239
     2009.60711        24.03255        12.24818
     2009.60985        12.17510        12.55758
     2009.61259        16.93266        13.92188
     2009.61533        -4.23178        12.30665
     2009.61807        12.85877        12.36999
     2009.62080        18.09033        12.23478
     2009.62355         3.23888        12.89500
     2009.62628        -0.72056        12.90475
     2009.62902        23.22799        13.52233
     2009.63175        11.77055        12.78415
     2009.63449        15.72311        12.86211
     2009.63723         8.92166        13.42245
     2009.63997        -8.53078        12.44673
     2009.64246         7.48272        13.70140
     2009.64818       -10.35512        13.58933
     2009.65092         8.23144        12.55393
     2009.65366         4.75800        12.27376
     2009.65639         0.87055        12.63554
     2009.65913        27.88311        13.51624
     2009.66188         5.13666        12.93033
     2009.66461        -7.02778        12.72568
     2009.66735       -13.13423        13.46508
     2009.67008       -13.61167        13.55400
     2009.67282        -0.30611        14.35309
     2009.67556        -7.79356        12.72690
     2009.67830         9.98000        13.63196
     2009.68104         8.30655        13.55157
     2009.68377        -4.55289        13.17151
     2009.68651        -1.32234        12.52957
     2009.68925        11.18022        12.97296
     2009.69199        -8.84822        12.98636
     2009.69472         6.25133        13.10574
     2009.69746        -7.42111        13.38956
     2009.70021        -2.62656        13.14350
     2009.70294        -6.01700        13.25678
     2009.70568         8.82355        12.58316
     2009.70841        -6.21389        12.48328
     2009.71115         1.06067        13.12888
     2009.71389       -21.23278        13.39565
     2009.71663        -3.25822        12.72446
     2009.71937        -3.42467        12.10688
     2009.72210       -14.72811        12.20798
     2009.72457       -11.09161        15.51761
     2009.73305        -0.50789        13.39078
     2009.73579         7.51167        12.90231
     2009.73853         6.01922        11.97045
     2009.74127         1.05378        13.02047
     2009.74401        -1.73467        13.86097
     2009.74674         9.83389        11.88153
     2009.74948         7.30845        11.81940
     2009.75222         8.41300        12.36268
     2009.75496       -11.03744        12.89257
     2009.75770         2.79811        12.06668
     2009.76043         1.45067        12.41628
     2009.76317        -4.01678        12.68305
     2009.76591        19.29278        11.60867
     2009.76865        28.69934        12.16048
     2009.77138         1.88389        13.20684
     2009.77412        -0.89355        11.97532
     2009.77687        13.42900        11.07513
     2009.77960        18.87556        11.91198
     2009.78234        17.74911        12.85480
     2009.78597         8.49385        21.22815
     2009.78781        15.66323        12.60022
     2009.79055         1.85278        12.87551
     2009.79329        18.92334        13.24704
     2009.79603        -2.99211        12.64529
     2009.79876        12.09945        12.69767
     2009.80150         1.03100        12.61849
     2009.80424         4.87956        12.93033
     2009.80698        16.16612        12.17997
     2009.80971        25.32267        12.33710
     2009.81245        14.59223        13.51015
     2009.81520        17.11478        12.70985
     2009.82073       -12.05209        13.16421
     2009.82340        12.89745        12.20920
     2009.82614        12.12600        12.49180
     2009.82888         9.50456        12.70376
     2009.83162        20.97612        13.39078
     2009.83436         4.95567        12.25549
     2009.83709         2.86823        12.44917
     2009.83983        11.38478        12.12028
     2009.84257         6.60434        12.26523
     2009.84531        16.07589        11.87665
     2009.84804        10.38745        12.84019
     2009.85078        22.49101        12.89500
     2009.85352         9.85256        12.74152
     2009.85626        31.53712        12.75614
     2009.85900        34.29367        12.45404
     2009.86174        14.85823        12.59900
     2009.86447        21.94678        13.17760
     2009.86721         2.84034        12.44308
     2009.86995         6.63290        12.39070
     2009.87269        12.48045        11.91076
     2009.87542        19.35701        12.83044
     2009.87816        31.05856        12.67209
     2009.88090        -2.60388        12.38096
     2009.88364        20.32167        12.58194
     2009.88637        18.07223        12.42968
     2009.88911        22.85379        12.39679
     2009.89185        11.65434        12.05450
     2009.90554        17.76512        12.10931
     2009.90828         8.04968        12.05694
     2009.91102        -1.97577        11.85595
     2009.91375         4.57579        12.63189
     2009.91649         7.16034        12.38705
     2009.91923         6.59890        11.26394
     2009.92197         5.81845        11.96558
     2009.92470         6.81301        11.46980
     2009.92744         6.37157        12.05937
     2009.93018        -4.95688        11.73170
     2009.93292         7.88268        11.18233
     2009.93566         8.72723        11.09584
     2009.93839        11.97479        11.07757
     2009.94113        -2.20766        11.84133
     2009.94387        14.63290        11.30048
     2009.94661         1.64946        11.05686
     2009.94935        16.49901        10.99961
     2009.95208       -10.41643        11.93147
     2009.95482       -36.00488        11.72317
     2009.96030       -10.19877        13.16664
     2009.96303         2.98179        12.17388
     2009.96577        -7.03465        12.47719
     2009.96851        -7.22910        12.17388
     2009.97125        14.41946        12.15560
     2009.97399        13.96101        11.74875
     2009.97672        -3.82043        11.63059
     2009.97946         2.38612        11.20303
     2009.98220        -3.55432        11.23105
     2009.98484        -2.53278        11.90467
     2009.99863        -6.87599        11.01057
     2010.00410       -14.76687        12.63311
     2010.00684         7.23468        11.42595
     2010.00958        -6.29076        13.21171
     2010.01232         1.63879        12.10931
     2010.01505        -8.38265        11.70003
     2010.01779        -3.88510        11.22983
     2010.02053         0.01446        11.55751
     2010.02327        -8.96198        12.50399
     2010.02600         9.58357        11.86325
