# ================= DQRFIT RESULTS ================
# INPUT FILE: series/IDBB.rad
# OUTPUT: LDETRENDED
# FILTER FUNCTION: f(t)
# f(t)=+line(t)+annual(t)
# line(t)=+P 1+P 2*t
# annual(t)=+P 3*sin(2*pi*t+P 4)
# heav(t)=(t<0?0:1)
# TOTAL OBSERVATIONS MTOT= 2679
# INITIAL TIME INTERVAL= 2022.7488 - 2015.0034 =  7.7454
# TOTAL OBSERVATIONS AFTER PREFILTER M= 2679
# TIME-SPAN= 2022.7488 - 2015.0034 =  7.7454
# OBSERVATIONS: USED M=  2679 REJECTED MTOT-M=     0 %USED=  100.0000
# N=  4 PARAMETERS
# MAXSIG= 175.00000
# MAXRES=  45.09683
# SCALE FACTOR FOR LENGTHS: SCL=  10.00000
# SCALE FACTOR FOR SIGMAS: SCLSIG=   1.00000
# CHI^2=   3331.676 DOF=  2675 CHI^2/DOF=   1.24549
# RMS=      6.266 SDEV=      6.267 MEAN=    0.05235
#  P #       PARAMETER +-    SIGMA %error PARAMETER NAME
# P 1 =      3296.81202 +-  107.898   3.27 YZERO                              
# P 2 =        -1.63666 +-    0.053   3.27 SLOPE                              
# P 3 =         3.57122 +-    0.167   4.69 ANNUAL AMPLITUDE                   
# P 4 =         2.71676 +-    0.060   2.22 ANNUAL PHASE                       
#       T            LDETRENDED       SIG_OBS
     2015.00342        -5.35052         5.91376
     2015.00616       -13.03704         5.94166
     2015.00889        -9.24855         6.01420
     2015.01163        -9.55107         5.98965
     2015.01437       -10.63359         6.01197
     2015.01711       -11.20711         6.15928
     2015.01984        -4.06263         6.05549
     2015.02258        -3.94715         6.20504
     2015.02532        -1.06767         5.99411
     2015.02806        -7.90119         6.04656
     2015.03080        -8.40071         6.24521
     2015.03353        -9.85123         6.03987
     2015.03627        -6.67175         6.09232
     2015.03901        -5.07126         5.98407
     2015.04175        -8.28978         6.07000
     2015.04449        -6.41030         6.13808
     2015.04722        -3.87182         6.09232
     2015.04996        -7.95034         6.11464
     2015.05270        -8.62086         6.09343
     2015.05544        -5.32038         5.96956
     2015.05817        -3.28790         6.01866
     2015.06091        -5.03242         6.07558
     2015.06365        -3.12994         6.19164
     2015.06639        -3.45245         6.07781
     2015.06913        -5.41797         6.07000
     2015.07186       -10.97349         6.03429
     2015.07460        -7.41401         6.07558
     2015.07734       -10.79553         6.10013
     2015.08008       -13.11805         6.09455
     2015.08282        -7.69457         6.09343
     2015.08555        -6.82209         6.06665
     2015.08829        -6.22561         6.09120
     2015.09103        -3.34013         6.06888
     2015.09377        -8.23565         6.04991
     2015.09650        -4.21816         6.11687
     2015.09924         1.56732         6.17714
     2015.10198         6.73880         6.16821
     2015.10472         2.49228         6.11352
     2015.10746         0.76176         6.05772
     2015.11019        -6.65876         6.24521
     2015.11293       -11.95628         6.18272
     2015.11567       -12.94380         6.10459
     2015.11841        -9.98332         6.04656
     2015.12115        -2.45484         6.10683
     2015.12388        -4.22735         6.04991
     2015.12662       -10.30887         6.01643
     2015.12936        -8.18739         6.08227
     2015.13210        -9.37891         6.12022
     2015.13483        -7.99843         6.22959
     2015.13757        -0.25795         6.20727
     2015.14031        -5.05747         6.05437
     2015.14305        -9.13899         6.04991
     2015.14579       -12.38351         6.09790
     2015.14852        -6.86403         6.03875
     2015.15126        -6.28255         6.04768
     2015.15400        -5.19206         6.00862
     2015.15674        -5.20358         5.98853
     2015.15948        -2.20410         6.05437
     2015.16221        -3.26762         6.03652
     2015.16495        -3.23114         6.03317
     2015.16769        -4.22566         6.08116
     2015.17043        -6.53018         6.04879
     2015.17316        -8.28270         6.23628
     2015.17590        -9.07822         6.26865
     2015.17864        -5.02874         6.04991
     2015.18138        -4.18226         6.07669
     2015.18412        -2.57677         6.07781
     2015.18617        -5.15541         9.00177
     2015.18959        -7.93281         6.07223
     2015.19233        -7.67233         6.22289
     2015.19507        -7.72785         6.04879
     2015.19780        -4.60537         6.04210
     2015.20054        -4.71889         6.09009
     2015.20328        -7.89241         6.08897
     2015.20602       -10.75993         6.13138
     2015.20876        -6.76345         6.08004
     2015.21149        -8.33896         6.05326
     2015.21423       -10.49348         6.20838
     2015.21697       -10.61500         6.10125
     2015.21971       -14.16152         6.11799
     2015.22245        -4.11004         6.10571
     2015.22518        -1.95656         6.11129
     2015.22792        -4.41108         6.10236
     2015.23066        -5.84560         6.11799
     2015.23340        -6.62412         6.21731
     2015.23613         1.40536         6.29320
     2015.23887        -3.01416         6.32780
     2015.24161        -6.03467         6.37244
     2015.24435         1.05681         6.36463
     2015.24709         0.33029         6.24968
     2015.24982        -8.35323         6.88580
     2015.25256        -7.58975         6.06665
     2015.25530        -5.63727         6.06888
     2015.25804        -0.75379         6.10794
     2015.26078         0.24169         6.10236
     2015.26351        -1.46683         6.12357
     2015.26625         1.95765         6.12580
     2015.26899        -1.41086         6.15928
     2015.27173        -2.66038         6.26976
     2015.27446         0.53310         6.20504
     2015.27739         1.53689         6.49966
     2015.27994        -4.37494         6.06665
     2015.28268        -0.29746         6.08562
     2015.28542        -1.03298         6.24633
     2015.28747        -4.29362         9.34215
     2015.29089        -4.90202         6.05995
     2015.29363        -6.60054         6.12022
     2015.29637        -2.15206         6.05437
     2015.29911         1.66943         6.07000
     2015.30184        -1.48709         6.03094
     2015.30390        -5.07073         9.01851
     2015.30732        -3.19213         6.02313
     2015.31006        -1.49965         5.99299
     2015.31279        -3.94317         6.00192
     2015.31553        -8.24569         6.11464
     2015.31827       -11.22321         5.96844
     2015.32101       -11.94373         6.02089
     2015.32375        -9.05825         6.06107
     2015.32648        -5.51577         6.22289
     2015.32922       -10.97428         6.20057
     2015.33196        -9.52980         6.11241
     2015.33470        -5.77932         6.12133
     2015.33744        -8.62684         6.06442
     2015.34017        -3.69836         6.08562
     2015.34291        -2.56588         6.05549
     2015.34565        -1.53040         6.08227
     2015.34839        -5.74592         6.05661
     2015.35112        -8.07844         6.05437
     2015.35386        -5.71596         6.06219
     2015.35660       -10.01047         6.06442
     2015.35934        -9.60099         6.30771
     2015.36208        -6.43151         6.18495
     2015.36413       -14.11915         8.89686
     2015.36755         0.38045         6.09120
     2015.36961         2.14181         8.84329
     2015.37303       -12.20559         6.04991
     2015.37577       -11.48211         6.03987
     2015.37850       -14.39763         6.22736
     2015.38056       -11.07527         8.58549
     2015.38398        -7.98367         6.02647
     2015.38672        -6.26618         6.08004
     2015.38945        -6.06270         6.06888
     2015.39219        -7.25722         6.03763
     2015.39493        -7.74874         6.07558
     2015.39767       -14.16826         6.10683
     2015.40041        -5.20078         6.18606
     2015.40314        -7.56830         6.23294
     2015.40588       -17.07282         6.05103
     2015.40862       -15.58534         6.11017
     2015.41136       -13.67386         6.09009
     2015.41410        -9.08937         6.29097
     2015.41683        -7.90389         6.07893
     2015.41957        -9.03041         6.03540
     2015.42231       -10.04893         6.27981
     2015.42505       -11.02045         6.53872
     2015.42778       -12.62397         6.17044
     2015.43052        -9.67349         6.12022
     2015.43326       -13.65801         6.05884
     2015.43600        -9.96253         6.12245
     2015.43874        -6.03005         6.26976
     2015.44147        -9.13657         6.38137
     2015.44421       -12.39408         6.13696
     2015.44695       -11.25060         6.08116
     2015.44969        -9.27612         5.98518
     2015.45243       -11.29964         6.29432
     2015.45516        -6.34216         6.24075
     2015.45790       -11.77768         6.18495
     2015.46132        -3.80308         9.18702
     2015.46338        -7.42472         6.19499
     2015.46611        -5.31324         6.09120
     2015.46885        -4.44876         6.05772
     2015.47159        -3.86528         6.03987
     2015.47433       -10.01879         6.26865
     2015.47707        -7.74231         6.17267
     2015.47980        -9.37683         6.27758
     2015.48254        -7.22535         6.11464
     2015.48528       -10.61187         6.07335
     2015.48802       -10.53039         6.02424
     2015.49076       -10.73591         5.99857
     2015.49349       -12.56343         6.27088
     2015.49623        -7.97395         6.38248
     2015.49897        -7.63847         6.22624
     2015.50171        -5.12398         5.97179
     2015.50444        -6.65550         6.03094
     2015.50650        -4.51714         8.38796
     2015.50992        -7.37854         6.20950
     2015.51266        -5.18806         6.04321
     2015.51540        -7.26258         5.97514
     2015.51813        -8.58810         6.01085
     2015.52087         1.87738         6.11575
     2015.52361        -3.01914         6.09678
     2015.52635        -3.34566         5.99523
     2015.52908         1.17182         6.13808
     2015.53182        -3.15269         5.98630
     2015.53456        -1.93921         6.15035
     2015.53730        -5.50173         6.09343
     2015.54004        -3.28425         6.18495
     2015.54277        -6.65277         6.11017
     2015.54551         0.60771         6.12915
     2015.54825        -2.16281         6.14366
     2015.55099        -1.88633         6.17156
     2015.55373        -6.43185         6.15035
     2015.55646         1.87963         6.27981
     2015.55920         2.28412         6.23740
     2015.56194         0.18560         6.13138
     2015.56468        -2.94692         6.09901
     2015.56741        -2.94044         6.13138
     2015.57015        -3.80796         6.27869
     2015.57289        -2.10248         6.30548
     2015.57563        -3.61900         6.12245
     2015.57837        -7.17852         6.15928
     2015.58110        -0.67204         6.03987
     2015.58384        -3.34956         5.99076
     2015.58658        -3.20308         6.24968
     2015.58932        -6.39959         6.24298
     2015.59206         0.45889         6.33449
     2015.59479        -5.20863         7.23400
     2015.59753         4.41785         6.17490
     2015.60027         3.86833         6.35905
     2015.60301        -4.45619         6.34789
     2015.60574         1.20529         6.22066
     2015.60848         1.32377         6.22624
     2015.61122        -0.89475         6.16374
     2015.61396        -2.53727         6.26084
     2015.61670        -3.09279         6.12468
     2015.61943         4.79670         6.13473
     2015.62217         3.78818         6.02982
     2015.62491         5.82866         5.96844
     2015.62765        -1.84686         5.97514
     2015.63039        -0.69238         5.97067
     2015.63312         0.40310         5.95170
     2015.63586         3.25458         5.97960
     2015.63860        -2.72894         6.01643
     2015.64134        -1.60646         5.93608
     2015.64407        -5.92998         6.04433
     2015.64681        -1.81549         6.17825
     2015.64955        -6.21501         6.03317
     2015.65229        -1.25153         6.06107
     2015.65503         2.43895         6.09567
     2015.65776         0.74743         6.02089
     2015.66050         1.10291         6.18383
     2015.66324         5.04339         6.04991
     2015.66529         2.06775         8.39465
     2015.66872         1.86335         6.16263
     2015.67145         2.52083         6.05326
     2015.67419         1.27031         6.08451
     2015.67693        11.06780         6.07781
     2015.67967         3.47728         5.99188
     2015.68240        -0.08424         6.01085
     2015.68514        -2.99976         5.98183
     2015.68788         2.06972         5.93384
     2015.69062         1.21220         5.95728
     2015.69336        -0.40932         6.19276
     2015.69609        -2.57184         5.99746
     2015.69883         2.57364         6.02089
     2015.70157         5.45212         6.03429
     2015.70431         5.34861         6.05661
     2015.70705         9.42109         6.02536
     2015.70978         7.22657         5.99076
     2015.71252        -7.15095         6.04210
     2015.71526        -1.66047         6.02647
     2015.71800         2.73001         6.00973
     2015.72073         0.41149         6.59118
     2015.72347         0.11697         5.97960
     2015.72621        -3.27055         6.00415
     2015.72895        -7.84707         6.05214
     2015.73169        -3.18159         6.04879
     2015.73442        -1.56610         6.46284
     2015.73716         0.54338         6.06665
     2015.73990         1.49686         6.19611
     2015.74264        -6.95766         6.25749
     2015.74538         2.35082         6.29097
     2015.74811         2.87630         6.36686
     2015.75085         0.33478         6.22959
     2015.75359        -4.26174         6.01978
     2015.75633        -1.73726         6.55770
     2015.75906        -4.79578         6.05884
     2015.76180        -5.15830         6.73179
     2015.76454        -4.88781         6.05884
     2015.76728        -6.43933         6.01308
     2015.77002        -4.72485         6.04433
     2015.77275        -1.66537         6.02089
     2015.77549        -3.52489         6.08562
     2015.77823         0.91959         5.98407
     2015.78097        -1.11793         5.99969
     2015.78371        -0.72145         5.96398
     2015.78644        -0.84997         5.90036
     2015.78918        -5.04449         5.97849
     2015.79192        -2.12800         5.98183
     2015.79466         0.25248         5.99969
     2015.79739         6.47296         6.01308
     2015.80013         6.38844         6.13808
     2015.80287        -3.33008         5.94724
     2015.80561        -3.58160         5.99299
     2015.80835        -5.45112         6.03205
     2015.81108        -7.15264         5.95840
     2015.81382        -4.48016         5.96509
     2015.81656        -4.90268         6.02424
     2015.81930        -2.02920         6.06107
     2015.82203         0.61729         5.96286
     2015.82477         6.86877         6.07000
     2015.82751         3.29925         6.05884
     2015.83025         0.92573         6.11241
     2015.83299        -4.39279         6.09009
     2015.83572         2.52369         6.41596
     2015.83846         2.59117         6.27981
     2015.84120         2.99065         6.17825
     2015.84394        -3.03787         6.20169
     2015.84668        -6.34239         6.22066
     2015.84941        -1.67991         6.17825
     2015.85215         1.50458         6.18606
     2015.85489         6.25406         6.17379
     2015.85763         2.53054         6.18383
     2015.86036        -2.18798         6.16486
     2015.86310        -0.29550         6.11241
     2015.86584        -0.12302         6.12357
     2015.86858        -3.15954         6.15370
     2015.87132         2.79894         6.15258
     2015.87405         2.69642         6.16709
     2015.87679        -4.51110         6.12580
     2015.87953         2.45439         6.21285
     2015.88227         3.77387         6.09343
     2015.88501        -0.09965         6.72956
     2015.88774       -11.43217         6.16486
     2015.89048        -6.32369         6.21731
     2015.89322        -0.34521         6.10906
     2015.89596         5.38427         6.17044
     2015.89869         5.60575         6.13808
     2015.90143        -1.11377         6.09790
     2015.90417        -2.36229         6.12245
     2015.90691        -3.97481         6.16151
     2015.90965         1.33368         6.12357
     2015.91238         0.39116         6.15928
     2015.91512        -2.52236         6.18383
     2015.91786        -0.90188         6.18495
     2015.92056         0.73255         6.36463
     2015.92334         8.51508         6.18048
     2015.92607         9.25656         6.18160
     2015.92881         8.58904         6.18160
     2015.93155         5.75952         6.30325
     2015.93429         8.90900         6.31552
     2015.93702        17.66649         6.28762
     2015.93976        15.71797         6.32557
     2015.94250        17.68045         6.34789
     2015.94524        12.40093         6.16932
     2015.94798        15.88541         6.17156
     2015.95071        13.59689         6.08227
     2015.95345        13.94837         6.06553
     2015.95619        12.70385         6.19946
     2015.95893        11.98933         6.35570
     2015.96167        13.31981         6.23852
     2015.96440        15.32529         6.02871
     2015.96714        12.29978         6.11910
     2015.96988        18.40426         6.10348
     2015.97262        17.63374         6.10125
     2015.97535        17.25022         6.04879
     2015.97809        10.43570         6.01420
     2015.98083         9.39118         6.06777
     2015.98357         1.63866         6.05437
     2015.98631         1.07314         6.07223
     2015.98904         7.65662         6.06888
     2015.99178         5.92210         6.03094
     2015.99452         4.32158         6.02871
     2015.99726         7.54207         6.03429
     2016.00000         5.78255         6.04768
     2016.00273         1.15503         6.10125
     2016.00547         4.73951         6.04656
     2016.00821         8.79099         6.07893
     2016.01095        12.30247         6.06442
     2016.01368         6.47995         6.09455
     2016.01642         7.08843         6.22512
     2016.01916         8.87891         6.38806
     2016.02190        12.70139         6.25526
     2016.02464         9.18888         6.20838
     2016.02737         2.51336         6.00192
     2016.03011         3.92784         6.02982
     2016.03285        12.20132         6.05772
     2016.03559        14.22480         6.04098
     2016.03833        12.73428         6.16486
     2016.04106         7.95276         6.06219
     2016.04380        12.60324         5.97737
     2016.04654         8.08972         6.02201
     2016.04928        10.32320         5.99634
     2016.05201         9.12568         6.02201
     2016.05475         6.00017         5.97402
     2016.05749         5.84265         6.03094
     2016.06023        11.58413         5.97625
     2016.06297         7.98361         5.95728
     2016.06570         9.52509         6.06330
     2016.06844         8.59557         6.09455
     2016.07118         4.09105         6.10236
     2016.07392         8.61853         6.14700
