# ================= DQRFIT RESULTS ================
# INPUT FILE: series/IDBY.rad
# OUTPUT: LDETRENDED
# FILTER FUNCTION: f(t)
# f(t)=+line(t)+annual(t)
# line(t)=+P 1+P 2*t
# annual(t)=+P 3*sin(2*pi*t+P 4)
# heav(t)=(t<0?0:1)
# TOTAL OBSERVATIONS MTOT= 2662
# INITIAL TIME INTERVAL= 2022.7488 - 2015.0007 =  7.7481
# TOTAL OBSERVATIONS AFTER PREFILTER M= 2661
# TIME-SPAN= 2022.7488 - 2015.0007 =  7.7481
# OBSERVATIONS: USED M=  2661 REJECTED MTOT-M=     1 %USED=   99.9624
# N=  4 PARAMETERS
# MAXSIG= 175.00000
# MAXRES=  35.19538
# SCALE FACTOR FOR LENGTHS: SCL=  10.00000
# SCALE FACTOR FOR SIGMAS: SCLSIG=   1.00000
# CHI^2=   2736.778 DOF=  2657 CHI^2/DOF=   1.03003
# RMS=      5.650 SDEV=      5.651 MEAN=    0.07054
#  P #       PARAMETER +-    SIGMA %error PARAMETER NAME
# P 1 =      3701.21737 +-   99.840   2.70 YZERO                              
# P 2 =        -1.83759 +-    0.049   2.69 SLOPE                              
# P 3 =         2.69440 +-    0.154   5.70 ANNUAL AMPLITUDE                   
# P 4 =         3.09257 +-    0.081   2.61 ANNUAL PHASE                       
#       T            LDETRENDED       SIG_OBS
     2015.00068        -0.11766         5.35868
     2015.00342        -6.69663         5.35564
     2015.00616        -7.83260         5.44901
     2015.00889        -8.54157         5.63474
     2015.01163        -5.76854         5.51701
     2015.01437        -8.17450         5.56674
     2015.01711        -6.54447         5.63068
     2015.01984        -1.15444         5.56674
     2015.02258         1.84959         5.73623
     2015.02532         0.14162         5.52817
     2015.02806        -3.19235         5.51092
     2015.03080         0.56568         5.51193
     2015.03353        -4.37529         5.56065
     2015.03627        -3.08426         5.60632
     2015.03901        -3.58323         5.61545
     2015.04175         1.19381         5.56268
     2015.04449         0.33084         5.59008
     2015.04722         4.59487         5.66518
     2015.04996        -0.36410         5.63778
     2015.05270        -1.56707         5.56166
     2015.05544        -1.10004         5.59921
     2015.05817        -0.35801         5.57689
     2015.06091        -0.30198         5.63068
     2015.06365         0.35405         5.65808
     2015.06639        -1.04391         5.57486
     2015.06913         0.87712         5.64387
     2015.07186        -5.48485         5.58906
     2015.07460         3.59218         5.66518
     2015.07734        -2.02679         5.66417
     2015.08008        -8.57576         5.59921
     2015.08282        -4.97273         5.62865
     2015.08555        -5.69470         5.63575
     2015.08829        -1.64767         5.62763
     2015.09103        11.62336         5.74637
     2015.09377         3.23740         5.76769
     2015.09650         1.68243         5.65605
     2015.09924         3.98746         5.70984
     2015.10198         7.42349         5.68244
     2015.10472         6.83652         5.59008
     2015.10746         5.57055         5.58298
     2015.11019        -1.29342         5.80016
     2015.11293        -4.85139         5.77987
     2015.11567        -6.03136         5.58703
     2015.11841        -2.14732         5.60327
     2015.12115         0.95971         5.66315
     2015.12388        -0.27826         5.60632
     2015.12662        -5.46923         5.59921
     2015.12936        -3.62220         5.57181
     2015.13210        -3.89017         5.61850
     2015.13483         0.60486         5.69969
     2015.13757         4.10089         5.75145
     2015.14031        -1.91408         5.60327
     2015.14305        -1.23405         5.62966
     2015.14579        -4.06501         5.64793
     2015.14852        -1.05598         5.53426
     2015.15126         1.71105         5.65097
     2015.15400         2.71308         5.60327
     2015.15674         4.43111         5.56268
     2015.15948         5.82114         5.63575
     2015.16221        -0.54883         5.53933
     2015.16495         2.72820         5.56065
     2015.16769         4.88123         5.61241
     2015.17043        -1.11073         5.68954
     2015.17316        -3.94470         5.77784
     2015.17590        -4.59267         5.75348
     2015.17864         1.54236         5.57486
     2015.18138         5.53539         5.62053
     2015.18412         5.57742         5.67635
     2015.18685         1.03945         5.65199
     2015.18959        -3.03852         5.56572
     2015.19233         2.11451         5.78799
     2015.19507        -1.15946         5.55557
     2015.19780         2.97558         5.60936
     2015.20054         1.43161         5.65503
     2015.20328        -2.07136         6.50451
     2015.20602        -1.93733         5.69258
     2015.20876         4.57470         5.60835
     2015.21149        -2.50727         5.60429
     2015.21423        -5.54024         5.75957
     2015.21697        -2.18721         5.61241
     2015.21971        -0.40518         5.59008
     2015.22245         0.31686         5.64691
     2015.22518         5.55889         5.63676
     2015.22792        -2.28208         5.70273
     2015.23066         1.89495         5.64793
     2015.23340         1.42998         5.71593
     2015.23613         8.64101         5.74637
     2015.23887        -3.12696         5.84178
     2015.24161         0.84907         5.85801
     2015.24435         1.72210         5.86512
     2015.24709         4.84213         5.74942
     2015.24982         2.00817         5.60023
     2015.25256        -0.21980         5.61850
     2015.25530         0.53023         5.59414
     2015.25804        -0.67074         5.62256
     2015.26078        12.96829         5.67127
     2015.26351         6.55032         5.63169
     2015.26625         9.74335         5.68345
     2015.26899         0.43138         5.61342
     2015.27173         4.65941         5.71897
     2015.27446        10.70145         5.75551
     2015.27720        13.20348         5.62459
     2015.27994         3.87551         6.96121
     2015.28268         7.16954         5.60835
     2015.28542         5.33157         5.70172
     2015.28815         1.64460         5.80321
     2015.29089         6.62863         5.67432
     2015.29363         6.25966         5.67939
     2015.29637         2.82769         5.56572
     2015.29911         6.56373         5.56166
     2015.30184        10.64376         5.58805
     2015.30458         9.04079         5.57486
     2015.30732         1.04782         5.57892
     2015.31006         5.57285         5.52208
     2015.31279         1.65688         5.51092
     2015.31553         6.15591         5.53426
     2015.31827        -4.54806         5.45916
     2015.32101         0.30497         5.55050
     2015.32375         1.42900         5.55151
     2015.32648         2.94504         5.71694
     2015.32922         1.16407         5.65808
     2015.33196         2.10010         5.60835
     2015.33470         2.65013         5.64793
     2015.33744         2.93516         5.56674
     2015.34017         3.99219         5.54948
     2015.34291         6.25622         5.56268
     2015.34565         4.78925         5.60327
     2015.34839        -0.77672         5.58906
     2015.35112         3.61232         5.61139
     2015.35386         5.20535         5.52716
     2015.35660         0.63638         5.53832
     2015.35934         9.11441         5.80828
     2015.36208         1.93644         5.74840
     2015.36481         3.77547         5.60023
     2015.36755         7.15450         5.64082
     2015.37029        14.14753         5.64488
     2015.37303        -1.84644         5.54238
     2015.37577         1.65559         5.59312
     2015.37850        -2.85637         5.74333
     2015.38124         4.05366         5.70781
     2015.38398        -2.19631         5.60530
     2015.38672         1.37372         5.53527
     2015.38945         7.85175         5.60226
     2015.39219         2.26078         5.54238
     2015.39493        -0.39819         5.61139
     2015.39767        -3.39816         5.62966
     2015.40041         6.64187         5.74130
     2015.40314         4.60191         5.75449
     2015.40588        -5.00706         5.61342
     2015.40862        -3.30903         5.68041
     2015.41136        -3.64800         5.62154
     2015.41410         1.98503         5.70172
     2015.41683         2.44606         5.64894
     2015.41957         3.55509         5.56268
     2015.42231         1.40812         6.59686
     2015.42505        -5.12085         5.80219
     2015.42778        -3.11182         5.55151
     2015.43052         1.46922         5.55151
     2015.43326        -3.70575         5.50178
     2015.43600         2.21028         5.54238
     2015.43874         5.91731         5.60429
     2015.44147         7.00834         5.87425
     2015.44421         0.74437         5.50178
     2015.44695        -0.32760         5.58196
     2015.44969         4.74543         5.54948
     2015.45243         1.83646         5.72608
     2015.45516         0.17050         5.80118
     2015.45790        -4.29147         5.64793
     2015.46064         3.73656         5.69055
     2015.46338         3.98459         5.61951
     2015.46611         6.45462         5.56572
     2015.46885         7.46565         5.61545
     2015.47159         1.58668         5.56877
     2015.47433        -1.72729         5.69360
     2015.47707        -5.00426         5.75043
     2015.47980         1.75977         5.72912
     2015.48254        -1.12719         5.65097
     2015.48528         0.32384         5.54441
     2015.48802         5.24387         5.51904
     2015.49076        -2.71710         5.52817
     2015.49349         1.33693         5.78596
     2015.49623         4.92596         5.80828
     2015.49897         6.90799         5.72100
     2015.50171         5.26702         5.54238
     2015.50444         2.94105         5.54745
     2015.50718         0.26409         5.54238
     2015.50992        -3.64288         5.68751
     2015.51266         7.23715         5.57892
     2015.51540         2.15218         5.55557
     2015.51813         5.49421         5.57993
     2015.52087         4.72624         5.57384
     2015.52361        -0.14673         5.57993
     2015.52635        -1.53970         5.56978
     2015.52908         8.01733         5.68345
     2015.53182         8.20736         5.54847
     2015.53456        12.29340         5.60936
     2015.53730         1.87543         5.68447
     2015.54004         0.86346         5.67432
     2015.54277        -3.58451         5.70070
     2015.54551         7.52752         5.68650
     2015.54825         3.36555         5.60124
     2015.55099         5.79658         5.63474
     2015.55373         7.47561         5.63778
     2015.55646         6.64964         5.82249
     2015.55920         3.75668         5.69664
     2015.56194         4.20871         5.64082
     2015.56468        12.91074         5.61951
     2015.56741         9.34277         5.81133
     2015.57015         2.94180         5.75348
     2015.57289        -0.21117         6.10971
     2015.57563         0.41686         5.68548
     2015.57837         5.21689         5.65402
     2015.58110         6.12692         5.57486
     2015.58384         7.49796         5.59109
     2015.58658         2.46199         5.64996
     2015.58932         2.25602         5.78393
     2015.59206         3.32505         5.76363
     2015.59479        10.50408         5.71593
     2015.59753        14.68511         5.71897
     2015.60027        12.40614         5.82046
     2015.60301         3.43517         5.79712
     2015.60574         7.16420         5.70070
     2015.60848         6.29423         5.70476
     2015.61122         8.76927         5.65706
     2015.61396         8.77230         5.63068
     2015.61670         7.16133         5.57080
     2015.61943         5.69036         5.60936
     2015.62217        10.49039         5.52716
     2015.62491        16.64942         6.02649
     2015.62761         5.68638         5.61241
     2015.63039         9.65548         5.70679
     2015.63312         8.63951         5.50584
     2015.63586         8.56055         5.52716
     2015.63860        12.97258         5.58298
     2015.64134         3.81761         5.48250
     2015.64407         4.94564         5.54035
     2015.64681         2.94267         5.64996
     2015.64955         2.90770         5.53426
     2015.65229         6.09773         5.62662
     2015.65503         8.47476         5.53426
     2015.65776        10.54079         5.58095
     2015.66050        10.03782         5.75449
     2015.66324        12.92586         5.55760
     2015.66598         7.51489         5.67026
     2015.66872        11.78492         5.64387
     2015.67145        13.50595         5.54847
     2015.67419        14.33198         5.50483
     2015.67693        12.81801         5.64590
     2015.67967         7.89504         5.54238
     2015.68240         8.56507         5.50077
     2015.68514         3.52410         5.52919
     2015.68788         5.93014         5.50178
     2015.69062         8.22817         5.50584
     2015.69336         4.44720         5.70984
     2015.69609         8.81123         5.54238
     2015.69883         7.68026         5.53832
     2015.70157        10.21329         5.56471
     2015.70431        17.02432         5.61038
     2015.70705        13.00835         5.61545
     2015.70978        13.64838         5.54847
     2015.71252        -0.65459         5.56268
     2015.71526         7.05745         5.53730
     2015.71800        12.79448         5.51701
     2015.72073        11.57451         5.50584
     2015.72347         7.12854         5.53426
     2015.72621         6.48757         5.53629
     2015.72895         1.32660         5.55456
     2015.73169         7.61363         5.54441
     2015.73442         7.85666         5.51904
     2015.73716         4.75969         5.54339
     2015.73990         8.20373         5.65402
     2015.74264         5.88376         5.67635
     2015.74538         9.96879         5.78393
     2015.74811        13.04782         5.82046
     2015.75085         6.26385         5.59312
     2015.75359         6.34888         5.56471
     2015.75633         8.40091         5.51701
     2015.75906         6.12194         5.61241
     2015.76180         0.09797         5.59312
     2015.76454         6.20000         5.60632
     2015.76728         5.70104         5.55760
     2015.77002         0.00307         5.47235
     2015.77275        12.17210         5.55354
     2015.77549         9.24713         5.63676
     2015.77823        13.05016         5.53426
     2015.78097         9.39619         5.49874
     2015.78371         9.80322         5.47337
     2015.78644         8.13825         5.48047
     2015.78918         4.10128         5.51396
     2015.79192        11.63332         5.52513
     2015.79466        12.70835         5.52513
     2015.79739        15.57538         5.59617
     2015.80013        12.93641         5.70984
     2015.80287        14.02744         5.58399
     2015.80561         8.87447         5.50584
     2015.80835         6.24250         5.53730
     2015.81108         0.77553         5.52208
     2015.81382        -0.60644         5.51396
     2015.81656         1.90859         5.61342
     2015.81930        10.08863         5.54035
     2015.82203         7.20566         5.60530
     2015.82477        17.60969         5.60327
     2015.82751        11.27772         5.62459
     2015.83025        15.17375         5.57993
     2015.83299         8.58078         5.61748
     2015.83572        10.92481         5.66315
     2015.83846         9.97684         5.76058
     2015.84120         7.11287         5.71288
     2015.84394         4.50791         5.73623
     2015.84668         3.75594         5.72912
     2015.84941        10.39597         5.72811
     2015.85215        11.15000         5.61850
     2015.85489        11.12803         5.65706
     2015.85763         6.82706         5.62053
     2015.86036         5.23309         5.72709
     2015.86310         8.69112         5.66518
     2015.86584        11.32115         5.63676
     2015.86858         2.31519         5.65808
     2015.87132         6.50122         5.67838
     2015.87405         8.52425         5.64488
     2015.87679         2.58128         5.70578
     2015.87953        13.14931         5.62662
     2015.88227         8.45134         5.62560
     2015.88501         3.37937         5.67229
     2015.88774         1.27040         5.66620
     2015.89048         8.69143         5.70476
     2015.89322         6.99546         5.68244
     2015.89596         5.32450         5.69055
     2015.89869         7.18753         5.66924
     2015.90143         5.51956         5.64488
     2015.90417         1.51459         5.68650
     2015.90691         6.87762         5.70375
     2015.90965         4.11765         5.67026
     2015.91238         5.95668         5.71187
     2015.91512         3.24771         5.72709
     2015.91786        -0.78426         5.72303
     2015.92060         5.45578         5.70375
     2015.92334         4.59281         5.70375
     2015.92607         4.61184         5.70070
     2015.92881        -5.22913         5.78291
     2015.93155         1.90790         5.83873
     2015.93429         6.58293         5.81742
     2015.93702        11.56996         5.73927
     2015.93976         9.90099         5.85192
     2015.94250         5.60702         5.83670
     2015.94524         4.23405         5.76058
     2015.94798        10.76409         5.69867
     2015.95071        15.35612         6.00416
     2015.95345         6.15815         5.68244
     2015.95619         8.63018         5.72608
     2015.95893        -0.26979         5.86410
     2015.96167         5.00424         5.76870
     2015.96440         3.94127         5.62763
     2015.96714         7.91630         5.61951
     2015.96988         8.38033         5.65199
     2015.97535        11.46840         5.63575
     2015.97809         6.57943         5.54441
     2015.98083         4.49246         5.48554
     2015.98357        -2.16051         5.56268
     2015.98631        -5.77948         5.56369
     2015.98904        -1.93845         5.58805
     2015.99178         2.77958         5.52614
     2015.99452         1.93261         5.46322
     2015.99726        -0.87936         5.52208
     2016.00000        -2.86732         5.53324
     2016.00273        -1.87929         5.53324
     2016.00547         2.87574         5.50280
     2016.00821         5.75977         5.48047
     2016.01095         3.45380         5.52411
     2016.01368         3.62883         5.65199
     2016.01642         8.70986         5.81133
     2016.01916         6.06389         5.94834
     2016.02190         3.17492         5.86106
     2016.02464         3.10096         5.59109
     2016.02737        -3.34001         5.63474
     2016.03011         1.49802         5.61850
     2016.03285         1.42405         5.62662
     2016.03559         4.72308         5.58906
     2016.03833         7.07911         5.68650
     2016.04106         3.68914         5.59312
     2016.04380         3.80017         5.43378
     2016.04654        19.63920         5.88846
     2016.04928        12.37923         6.43955
     2016.05201         6.87527         5.56471
     2016.05475         2.41530         5.46829
     2016.05749        -3.05667         5.47743
     2016.06023         3.98536         5.49366
     2016.06297         7.00639         5.49062
     2016.06570         4.21242         5.62154
     2016.06844        -0.12355         5.59515
     2016.07118        -3.72252         5.61038
     2016.07392         1.02251         5.63879
