# ================= DQRFIT RESULTS ================
# INPUT FILE: series/IDDR.rad
# OUTPUT: LDETRENDED
# FILTER FUNCTION: f(t)
# f(t)=+line(t)+annual(t)
# line(t)=+P 1+P 2*t
# annual(t)=+P 3*sin(2*pi*t+P 4)
# heav(t)=(t<0?0:1)
# TOTAL OBSERVATIONS MTOT= 2475
# INITIAL TIME INTERVAL= 2022.7488 - 2015.0034 =  7.7454
# TOTAL OBSERVATIONS AFTER PREFILTER M= 2473
# TIME-SPAN= 2022.7488 - 2015.0034 =  7.7454
# OBSERVATIONS: USED M=  2473 REJECTED MTOT-M=     2 %USED=   99.9192
# N=  4 PARAMETERS
# MAXSIG= 175.00000
# MAXRES=  22.38422
# SCALE FACTOR FOR LENGTHS: SCL=  10.00000
# SCALE FACTOR FOR SIGMAS: SCLSIG=   1.00000
# CHI^2=   2505.018 DOF=  2469 CHI^2/DOF=   1.01459
# RMS=      5.849 SDEV=      5.850 MEAN=   -0.06357
#  P #       PARAMETER +-    SIGMA %error PARAMETER NAME
# P 1 =      3119.41861 +-   99.837   3.20 YZERO                              
# P 2 =        -1.54861 +-    0.049   3.19 SLOPE                              
# P 3 =         6.92233 +-    0.158   2.28 ANNUAL AMPLITUDE                   
# P 4 =         3.05431 +-    0.032   1.05 ANNUAL PHASE                       
#       T            LDETRENDED       SIG_OBS
     2015.00342        -8.39786         5.44529
     2015.00616       -14.54362         5.41608
     2015.00889       -12.67038         5.52184
     2015.01163        -4.30514         5.44529
     2015.01437       -10.92090         5.52889
     2015.01711       -11.17166         5.60847
     2015.01984        -4.24542         5.49364
     2015.02258        -3.56218         5.62257
     2015.02532         2.49106         5.49364
     2015.02806        -3.66270         5.47249
     2015.03080        -1.37846         5.49364
     2015.03353        -7.06522         5.47349
     2015.03627        -4.44398         5.50170
     2015.03901        -3.79374         5.46040
     2015.04175         3.16250         5.49968
     2015.04449        -1.77926         5.49162
     2015.04722         2.36198         5.47047
     2015.04996        -1.28578         5.52184
     2015.05270        -5.62354         5.49263
     2015.05544        -6.53830         5.49968
     2015.05817         0.68694         5.49162
     2015.06091        -4.63782         5.51479
     2015.06365        -0.35558         5.59436
     2015.06639        -5.62534         5.46644
     2015.06913        -7.10110         5.52386
     2015.07186       -10.60986         5.50170
     2015.07460        -3.60462         5.57523
     2015.07734       -14.56438         5.53494
     2015.08008       -15.72814         5.51177
     2015.08282        -4.65890         5.50572
     2015.08555        -7.12466         5.54501
     2015.08829        -3.64542         5.54400
     2015.09103         3.20482         5.59034
     2015.09377       -16.09194         5.65077
     2015.09650        -1.24770         5.56818
     2015.09924         3.64154         5.65178
     2015.10198         9.51878         5.67495
     2015.10472         2.36702         5.51177
     2015.10746         0.27626         5.56112
     2015.11019        -8.14950         5.62458
     2015.11293       -10.06726         5.69711
     2015.11567       -10.75802         5.53997
     2015.11841       -11.43378         5.49162
     2015.12115        -4.41054         5.53997
     2015.12388        -9.30930         5.56314
     2015.12662       -10.69606         5.52486
     2015.12936        -5.12482         5.57321
     2015.13210        -8.05058         5.56918
     2015.13483        -7.90234         5.63868
     2015.13757        -0.35810         5.64976
     2015.14031        -9.28486         5.59638
     2015.14305        -9.12362         5.53494
     2015.14579       -11.21238         5.55105
     2015.14852        -9.71514         5.56112
     2015.15126        -6.95990         5.55307
     2015.15400       -10.29666         5.50371
     2015.15674        -4.85242         5.48356
     2015.15948        -0.96918         5.52486
     2015.16221        -5.79994         5.56918
     2015.16495       -10.15770         5.59739
     2015.16769        -4.04046         5.47148
     2015.17043        -5.67022         5.40903
     2015.17316       -10.41798         5.60041
     2015.17590       -13.99874         5.75754
     2015.17864       -10.32851         5.55307
     2015.18138        -8.13527         5.54501
     2015.18412        -4.99103         5.54602
     2015.18685        -9.69279         5.50069
     2015.18959        -9.05255         5.50371
     2015.19233       -10.03831         5.72229
     2015.19507       -12.77007         5.51479
     2015.19780        -7.68683         5.55911
     2015.20054        -3.28759         5.54803
     2015.20328        -6.42935         5.49968
     2015.20602       -11.15911         5.64372
     2015.20876        -8.15087         5.61350
     2015.21149       -13.60063         5.53695
     2015.21423       -14.14739         5.62962
     2015.21697        -6.66015         5.57422
     2015.21971        -9.06991         5.64473
     2015.22245        -7.17667         5.52688
     2015.22518        -1.81743         5.61652
     2015.22747        -6.10089         6.75675
     2015.28365         9.28311        10.39802
     2015.28542        -3.16115         5.71221
     2015.28815        -6.17491         5.63466
     2015.29089        -2.53967         5.54904
     2015.29363        -6.20043         5.54702
     2015.29637        -6.96519         5.52587
     2015.29911        -1.12395         5.51076
     2015.30184         0.48229         5.48860
     2015.30458        -4.17147         5.46946
     2015.30732        -7.16723        10.13009
     2015.31006        -1.33399         5.41306
     2015.31279        -5.61775         5.42011
     2015.31553        -7.14251         5.45536
     2015.31827        -7.87427         5.44730
     2015.32101        -8.67603         5.45033
     2015.32375        -6.80879         5.53494
     2015.32648        -4.96355         5.83510
     2015.32922        -9.69031         5.60746
     2015.33196        -2.76907         5.50472
     2015.33470         2.66117         5.44025
     2015.33744        -1.65959         5.55206
     2015.34017        -8.11235         5.46745
     2015.34291        16.29889         5.90158
     2015.34565        -1.76587         5.46946
     2015.34839        -0.14263         5.54400
     2015.35112        -8.56839         5.48356
     2015.35386        -4.95315         5.49162
     2015.35660        -6.30891         5.48457
     2015.35934        -5.81967         5.62156
     2015.36208         1.53157         5.62358
     2015.36481        -0.79619         5.50270
     2015.36755        -3.20595         5.48659
     2015.37029        -1.96671         5.48860
     2015.37303        -6.91548         5.50472
     2015.37577        -7.54024         5.47551
     2015.37850        -7.98300         5.66890
     2015.38124        -9.55776         5.54501
     2015.38398        -7.45152         5.51278
     2015.38672        -7.02028         5.50270
     2015.38945        -6.20304         5.46846
     2015.39219        -5.04080         5.47450
     2015.39493        -5.41556         5.49464
     2015.39767        -8.07532         5.50572
     2015.40041       -11.29708         5.55206
     2015.40314       -11.30284         5.72934
     2015.40588       -12.57860         5.52184
     2015.40862        -9.97736         5.57321
     2015.41136       -14.17212         5.56012
     2015.41410        -0.22688         5.59336
     2015.41683        -0.88864         5.62660
     2015.41957        -9.58540         5.45536
     2015.42231        -3.44616         5.59436
     2015.42505        -5.06092         5.66890
     2015.42778        -3.34168         5.42514
     2015.43052        -3.05444         5.42716
     2015.43326        -7.30220         5.41104
     2015.43600        -4.07796         5.47551
     2015.43874         6.74028         5.69005
     2015.44147        -6.63748         5.64775
     2015.44421        -1.99024         5.52889
     2015.44695        -1.62300         5.44327
     2015.44969         0.00624         5.45335
     2015.45243        -2.12052         5.61753
     2015.45516         1.49772         5.58933
     2015.45716        -9.13019         8.07124
     2015.46338         4.27044         5.56515
     2015.46611         6.52668         5.46745
     2015.46885        -0.04508         5.46342
     2015.47159         2.28016         5.41910
     2015.47433        -1.81860         5.52486
     2015.47707         6.26364         5.61955
     2015.47980        -1.28312         5.60947
     2015.48254        -5.67688         5.47047
     2015.48528        -7.86864         5.42514
     2015.48802        -4.84840         5.45536
     2015.49076        -1.57416         5.44831
     2015.49349        -0.74792         5.61048
     2015.49623        -3.03868         5.66487
     2015.49897        -0.01344         5.63566
     2015.50171         0.19180         5.37982
     2015.50444         2.36004         5.40500
     2015.50718        -0.75772         5.50270
     2015.50992        -5.25048         5.49364
     2015.51266         4.31276         5.46644
     2015.51540        -1.86400         5.42917
     2015.51813         0.95824         5.35967
     2015.52087         5.81848         5.46846
     2015.52361        -0.65928         5.61753
     2015.52635         3.50396         5.45133
     2015.52908         4.24820         5.48860
     2015.53182         0.08644         5.42313
     2015.53456         3.81268         5.45133
     2015.53730         1.74992         5.60746
     2015.54004        14.97216         5.66387
     2015.54277        -1.15060         5.57825
     2015.54551         7.05664         5.63667
     2015.54825         4.09888         5.52285
     2015.55099         6.05212         5.60544
     2015.55373         2.23236         5.57220
     2015.55646        10.85560         5.65480
     2015.55920        11.18684         5.64876
     2015.56194         5.90808         5.60242
     2015.56468         7.53431         5.57019
     2015.56741         5.83455         5.71423
     2015.57015         1.25079         5.72833
     2015.57289         0.02303         5.70919
     2015.57563         0.78427         5.55810
     2015.57837        -5.06049         5.64372
     2015.58110         8.76675         5.60343
     2015.58384         1.95099         5.61250
     2015.58658         9.23023         5.58429
     2015.58932        -1.00953         5.68703
     2015.59206         9.14471         5.80690
     2015.59479         4.44895         5.60847
     2015.59753        16.34819         5.65077
     2015.60027         3.58043         5.77164
     2015.60301         1.24067         5.77668
     2015.60574         4.48791         5.65178
     2015.60848         7.24015         5.56415
     2015.61122         6.23839         5.63163
     2015.61396         3.65963         5.67293
     2015.61670         4.97587         5.74243
     2015.61943        15.63711         5.85525
     2015.62217        11.33535         5.58631
     2015.62491        17.51259         5.53695
     2015.62765         5.62083         5.50875
     2015.63039         3.76907         5.44831
     2015.63312         6.45931         5.51278
     2015.63586        11.53555         5.53997
     2015.63860        10.73779         5.52184
     2015.64134         3.49403         5.42212
     2015.64407         9.53827         5.56616
     2015.64681        11.62451         5.59436
     2015.64955         1.97075         5.49666
     2015.65229         7.13999         5.50472
     2015.65503        11.14223         5.52990
     2015.65776         9.89647         5.50774
     2015.66050        19.75771         5.63365
     2015.66324        16.27195         5.52990
     2015.66598        10.16919         5.64574
     2015.66872        15.63043         5.68603
     2015.67145        14.08867         5.60041
     2015.67419        15.55391         5.63667
     2015.67693        15.98415         5.69610
     2015.67967        10.28139         5.49767
     2015.68240         9.26663         5.47752
     2015.68514         5.94087         5.56717
     2015.68788         8.61311         5.46040
     2015.69062         7.54135         5.49565
     2015.69336         4.76159         5.65681
     2015.69609         7.97083         5.55105
     2015.69883        13.24707         5.54702
     2015.70157        13.08331         5.52889
     2015.70431        16.65455         5.57523
     2015.70705        12.33179         5.53292
     2015.70978        13.43103         5.49062
     2015.71252         5.13227         5.56012
     2015.71526         8.71251         5.49666
     2015.71800        10.63175         5.50371
     2015.72073         9.69799         5.49767
     2015.72347         8.31623         5.51882
     2015.72621        -0.00153         5.47450
     2015.72895         1.66371         5.53594
     2015.73169         3.81895         5.50472
     2015.73442        10.24019         5.50572
     2015.73716        16.60143         5.54702
     2015.73990        17.51667         5.69005
     2015.74264         2.19791         5.62760
     2015.74538        10.18015         5.78071
     2015.74811        12.65439         5.74948
     2015.75085         5.51763         5.53695
     2015.75359         8.78287         5.50774
     2015.75633         6.25911         5.48356
     2015.75906         3.94834         5.52688
     2015.76180         0.95658         5.50572
     2015.76454         2.30482         5.46543
     2015.76728         4.17606         5.50371
     2015.77002        -1.83470         5.50774
     2015.77275         8.01654         5.50774
     2015.77549        15.92378         5.58933
     2015.77823        13.49002         5.50270
     2015.78097         9.39426         5.46141
     2015.78371         8.92550         5.49767
     2015.78644         8.13374         5.43421
     2015.78918         0.82398         5.43824
     2015.79192         5.34122         5.49162
     2015.79466         8.58546         5.48659
     2015.79739         7.41070         5.48356
     2015.80013         6.61994         5.64171
     2015.80287        -0.64582         5.41306
     2015.80561         4.99342         5.46241
     2015.80835         2.59666         5.49968
     2015.81108         1.30690         5.45637
     2015.81382         3.53514         5.48860
     2015.81656        -1.44162         5.47551
     2015.81930         8.65262         5.51378
     2015.82203         4.70086         5.57120
     2015.82477        12.27210         5.57523
     2015.82751        10.60634         5.59940
     2015.83025        15.46058         5.62257
     2015.83299         9.84182         5.47450
     2015.83572        10.29906         5.64976
     2015.83846         5.13830         5.78172
     2015.84120        11.13254         5.75956
     2015.84394         6.49178         5.69207
     2015.84668         2.80302         5.56012
     2015.84941         6.76226         5.61149
     2015.85215         7.32450         5.66387
     2015.85489        13.52774         5.76359
     2015.85763         4.12398         5.71927
     2015.86036         5.61122         5.64976
     2015.86310         6.25846         5.56213
     2015.86584         7.22570         5.63466
     2015.86858         3.11294         5.63969
     2015.87132         6.24718         5.70617
     2015.87405         8.75742         5.66387
     2015.87679         3.33366         5.50673
     2015.87953        12.36790         5.61250
     2015.88227         6.22314         5.62055
     2015.88501        -3.71462         5.53796
     2015.88774        -4.13438         5.56012
     2015.89048         6.30586         5.58228
     2015.89322         7.72210         5.51378
     2015.89596         9.09934         5.64372
     2015.89869        11.11858         5.68804
     2015.90143         5.26182         5.67696
     2015.90417         1.36706         5.62660
     2015.90691         3.99430         5.52285
     2015.90965         4.62754         5.51781
     2015.91238         2.68978         5.61149
     2015.91512         1.60302         5.62760
     2015.91786         1.95326         5.59940
     2015.92060         5.32550         5.60746
     2015.92334         3.19274         5.52083
     2015.92607        -2.38502         5.60847
     2015.92881        -1.21178         5.61350
     2015.93155         1.78446         5.74042
     2015.93429         3.56570         5.81193
     2015.93702        10.22394         5.74344
     2015.93976        12.29318         5.85928
     2015.94250         8.71142         5.83812
     2015.94524         6.69766         5.76963
     2015.94798        13.57790         5.69509
     2015.95071        13.07713         5.52386
     2015.95345         8.61837         5.40097
     2015.95619         8.46161         5.52889
     2015.95893         9.00585         5.67696
     2015.96167         7.63309         5.66890
     2015.96440        14.95433         5.47853
     2015.96714         9.90357         5.51781
     2015.96988        10.44681         5.48457
     2015.97262        15.45705         5.51580
     2015.97535         8.89129         5.51378
     2015.97809         3.47053         5.49968
     2015.98083         2.49877         5.49968
     2015.98357        -4.91699         5.48054
     2015.98631        -6.57575         5.44730
     2015.98864         1.13387         6.74567
     2016.01728         4.09322         8.87201
     2016.01916         2.58513         5.89050
     2016.02190         1.00637         5.58631
     2016.02464        -1.49039         5.50673
     2016.02737        -4.94615         5.48961
     2016.03011         0.26909         5.46946
     2016.03285         3.20233         5.45435
     2016.03559         3.78857         5.44126
     2016.03833         0.58181         5.53796
     2016.04106        -1.10195         5.46241
     2016.04380        -2.86971         5.46141
     2016.04654         6.81953         5.44126
     2016.04928         1.79277         5.44630
     2016.05201        -2.17899         5.41507
     2016.05475        -1.95575         5.39291
     2016.05749        -2.91251         5.47651
     2016.06023        -0.99727         5.42514
     2016.06297         1.60897         5.41205
     2016.06570        -0.64979         5.51882
     2016.06844        -2.94255         5.49867
     2016.07118        -6.83831         5.53494
     2016.07392        -2.76307         5.54199
     2016.07666         3.67317         5.58631
     2016.07939         8.85341         5.62458
     2016.08213        -0.17435         5.65077
     2016.08487         2.17189         5.47954
     2016.08761        -4.14687         5.50472
     2016.09034        -4.97063         5.53091
     2016.09308         2.09061         5.53997
     2016.09582        -4.40815         5.47853
     2016.09856        -4.74891         5.52688
     2016.10130        -9.03167         5.49162
     2016.10403       -10.79143         5.47954
     2016.10677       -11.07719         5.47551
     2016.10951        -5.12695         5.55004
     2016.11225        -6.15271         5.55105
     2016.11498        -5.80947         5.54501
     2016.11772        -5.74723         5.56918
     2016.12046         4.16001         5.51479
     2016.12320         2.53825         5.56818
     2016.12594         0.02549         5.63969
     2016.12867         1.99773         5.55105
     2016.13141        11.35997         5.54299
     2016.13415        14.08121         5.55407
     2016.13689         3.87245         5.53494
     2016.13963        -4.31831         5.45435
     2016.14236        -8.52007         5.48860
     2016.14510        -6.94784         5.48155
     2016.14784        -8.56460         5.52386
     2016.15058        -5.64536         5.49364
     2016.15331        -5.06612         5.63667
