# ================= DQRFIT RESULTS ================
# INPUT FILE: series/IDIF.rad
# OUTPUT: LDETRENDED
# FILTER FUNCTION: f(t)
# f(t)=+line(t)+annual(t)
# line(t)=+P 1+P 2*t
# annual(t)=+P 3*sin(2*pi*t+P 4)
# heav(t)=(t<0?0:1)
# TOTAL OBSERVATIONS MTOT= 2532
# INITIAL TIME INTERVAL= 2022.7488 - 2015.0007 =  7.7481
# TOTAL OBSERVATIONS AFTER PREFILTER M= 2526
# TIME-SPAN= 2022.7488 - 2015.0007 =  7.7481
# OBSERVATIONS: USED M=  2526 REJECTED MTOT-M=     6 %USED=   99.7630
# N=  4 PARAMETERS
# MAXSIG= 175.00000
# MAXRES=  20.54922
# SCALE FACTOR FOR LENGTHS: SCL=  10.00000
# SCALE FACTOR FOR SIGMAS: SCLSIG=   1.00000
# CHI^2=   2567.439 DOF=  2522 CHI^2/DOF=   1.01802
# RMS=      5.737 SDEV=      5.738 MEAN=    0.01510
#  P #       PARAMETER +-    SIGMA %error PARAMETER NAME
# P 1 =      3539.09443 +-  102.223   2.89 YZERO                              
# P 2 =        -1.75678 +-    0.051   2.88 SLOPE                              
# P 3 =         3.17443 +-    0.159   5.02 ANNUAL AMPLITUDE                   
# P 4 =         2.69927 +-    0.064   2.36 ANNUAL PHASE                       
#       T            LDETRENDED       SIG_OBS
     2015.00068         2.75436         5.59876
     2015.00342        -0.71683         5.64114
     2015.00616        -8.07702         5.62298
     2015.00889        -2.08621         5.72791
     2015.01163        -2.60140         5.62702
     2015.01437        -5.63759         5.66435
     2015.01711        -5.28378         5.78038
     2015.01984         1.01303         5.70572
     2015.02258         5.24184         5.80762
     2015.02532         2.72865         5.61894
     2015.02806        -7.25454         5.69260
     2015.03353        -6.29792         5.67141
     2015.03627         0.88589         5.70874
     2015.03901         0.77570         5.63307
     2015.04175         5.15451         5.76323
     2015.04449         1.92732         5.83184
     2015.04722         0.90913         5.78139
     2015.04996        -1.74906         5.71480
     2015.05270        -3.73025         5.71782
     2015.05544        -4.19944         5.60179
     2015.05817         6.43137         5.76323
     2015.06091         2.89018         5.70672
     2015.06365         2.20999         5.82881
     2015.06639        -2.75120         5.75213
     2015.06913        -1.56239         5.74002
     2015.07186        -3.26758         5.71681
     2015.07460        -2.59177         5.75616
     2015.07734        -5.00496         5.75717
     2015.08008        -4.61615         5.75616
     2015.08282         2.24466         5.75314
     2015.08555         1.75847         5.78441
     2015.08829         3.63028         5.74204
     2015.09103         0.74708         5.85101
     2015.09377         2.79489         5.79450
     2015.09650         4.13270         5.76323
     2015.09924         8.68851         5.91154
     2015.10198        16.68632         5.85706
     2015.10472         7.80613         5.82881
     2015.10746         1.45594         5.76424
     2015.11019        -0.42525         5.82578
     2015.11293        -3.15744         5.87522
     2015.11567        -0.28663         5.74607
     2015.11841        -4.20982         5.67746
     2015.12115        -2.76201         5.75011
     2015.12388        -3.60720         5.79551
     2015.12662        -2.58339         5.69462
     2015.12936         2.97142         5.72589
     2015.13210         2.30523         5.67948
     2015.13483        -1.21896         5.80762
     2015.13757        -2.92515         5.90650
     2015.14031         1.18266         5.72589
     2015.14305         2.78247         5.74708
     2015.14579         2.48128         5.75616
     2015.14852         2.80909         5.65224
     2015.15126         0.53590         5.71782
     2015.15400         3.95371         5.71681
     2015.15674         4.09552         5.69966
     2015.15948         6.33733         5.71480
     2015.16221         3.66814         5.68755
     2015.16495         4.74695         5.71076
     2015.16769         4.56576         5.73094
     2015.17043         1.07457         5.74204
     2015.17316         1.76638         5.88733
     2015.17590         1.28119         5.88430
     2015.17864         3.94400         5.72589
     2015.18138         4.11681         5.74305
     2015.18412         2.49162         5.70874
     2015.18685         0.05643         5.76726
     2015.18959         1.09124         5.73397
     2015.19233         4.37405         5.93273
     2015.19507        -4.16014         5.70672
     2015.19780         4.44267         5.74507
     2015.20054        -3.74252         5.79249
     2015.20328        -2.55271         5.77029
     2015.20602        -2.64290         5.76222
     2015.20876        -2.04109         5.85202
     2015.21149        -5.70428         5.75818
     2015.21423       -10.07147         5.68352
     2015.21697        -6.03266         5.75616
     2015.21971        -3.81985         5.72690
     2015.22245         8.02496         5.91457
     2015.22518         1.86676         5.79854
     2015.22792         0.16457         5.78240
     2015.23066        -0.10762         5.70168
     2015.23340         2.05719         5.88531
     2015.23613         9.60400         6.02354
     2015.23887         3.42481         5.90549
     2015.24161         0.08862         5.91054
     2015.24435         5.80543         5.87623
     2015.24709         9.56324         5.72892
     2015.24982         4.27705         5.84495
     2015.25256         1.48686         5.75011
     2015.25530        -3.20433         5.73598
     2015.25804         4.37048         5.83688
     2015.26078        10.79729         5.80560
     2015.26351        10.94110         5.83789
     2015.26625         6.51091         5.77433
     2015.26899        -5.95728         5.81166
     2015.27173        10.49053         5.92870
     2015.27446         9.17434         5.82679
     2015.27720        13.65015         5.77735
     2015.27994         1.84296         5.80258
     2015.28268         4.60877         5.76827
     2015.28542        -8.98142         5.95897
     2015.28815         6.06939         5.82477
     2015.29089         4.75020         5.75515
     2015.29363         2.21801         5.77029
     2015.29637         1.18382         5.75818
     2015.29911         6.20463         5.74607
     2015.30184         7.63144         5.73296
     2015.30458         4.81225         5.73296
     2015.30732        -0.45694         5.70370
     2015.31006        -0.25213         5.69058
     2015.31279         1.76968         5.61491
     2015.31553        -1.59651         5.72388
     2015.31827        -4.27670         5.58867
     2015.32101        -2.85589         5.69462
     2015.32375         0.22792         5.82982
     2015.32648        -4.06927         5.95392
     2015.32922        -3.38546         5.84596
     2015.33196         0.77335         5.80459
     2015.33470         8.58716         5.75616
     2015.33744         0.25597         5.72489
     2015.34017         0.94078         5.79350
     2015.34291        -0.60741         5.78542
     2015.34565        -3.14660         5.85605
     2015.34839         0.68121         5.66233
     2015.35112         0.15602         5.70370
     2015.35386         1.58283         5.71278
     2015.35660        -5.45336         5.73800
     2015.35934        -3.64056         5.91962
     2015.36208        -2.89875         5.86917
     2015.36481        -2.77494         5.92668
     2015.36755        -3.31513         5.76524
     2015.37029        -8.46332         5.78341
     2015.37303        -8.61251         5.71681
     2015.37577        -0.43170         5.79047
     2015.37850       -10.47489         5.92567
     2015.38124        -7.18008         5.73498
     2015.38398        -5.61027         5.80459
     2015.38672         2.32954         5.84899
     2015.38945         0.30135         5.84293
     2015.39219        -5.11584         5.69663
     2015.39493        -1.55503         5.77836
     2015.39767        -4.00422         5.84596
     2015.40041        -5.73041         5.99125
     2015.40314        -8.31460         5.91457
     2015.40588       -12.04279         5.79249
     2015.40862        -8.67098         5.83486
     2015.41136        -3.36917         5.80056
     2015.41410         7.00464         5.95392
     2015.41683       -10.38755         5.87522
     2015.41957        -1.76274         5.65325
     2015.42231         2.13207         5.89944
     2015.42505         3.43488         5.98621
     2015.42778         0.15969         5.78744
     2015.43052         1.95450         5.71278
     2015.43326        -2.51769         5.67242
     2015.43600         0.26612         5.72791
     2015.43874         2.63093         5.83789
     2015.44147        -0.74626         6.08912
     2015.44421         1.97955         5.78038
     2015.44695         2.04736         5.63711
     2015.44969         2.98317         5.72589
     2015.45243        -4.03402         5.98520
     2015.45516        -1.01621         5.89439
     2015.45790        -5.51740         5.86715
     2015.46064         4.14041         5.84697
     2015.46338         2.56822         5.82982
     2015.46611         9.46703         5.75919
     2015.46885         3.23684         5.75616
     2015.47159        -2.37035         5.77937
     2015.47433        -5.69154         5.89843
     2015.47707        -2.75473         5.79652
     2015.47980         1.21908         5.85605
     2015.48254        -1.96311         5.83587
     2015.48528        -1.53930         5.70269
     2015.48802        -0.61849         5.72489
     2015.49076         0.58032         5.66536
     2015.49349         2.34012         5.88228
     2015.49623         6.16093         6.06289
     2015.49897        -4.83426         5.84394
     2015.50171         2.20155         5.72287
     2015.50444         3.81836         5.76323
     2015.50718        -2.10183         5.63105
     2015.50992        -2.02002         5.73296
     2015.51266         4.91779         5.72690
     2015.51540        -2.77140         5.63912
     2015.51813         4.47441         5.74507
     2015.52087         5.78322         5.85504
     2015.52361         4.55103         5.72186
     2015.52635         2.90284         5.69865
     2015.52908         8.66765         5.72892
     2015.53182        11.09146         5.73094
     2015.53456         7.48727         5.87522
     2015.53730        -3.65492         5.83991
     2015.54004         0.10889         5.78542
     2015.54277         0.75670         5.81973
     2015.54551         0.36051         5.83587
     2015.54825        10.19632         5.82982
     2015.55099         8.32413         5.83587
     2015.55373         3.49894         5.80359
     2015.55646         3.72675         5.92365
     2015.55920         8.18356         5.97612
     2015.56194         7.32937         5.84495
     2015.56468         8.05118         5.74910
     2015.56741        13.23899         5.82175
     2015.57015        -1.58120         6.06188
     2015.57289         3.90361         5.91054
     2015.57563         2.02642         5.80560
     2015.57837         2.08523         5.83890
     2015.58110         5.56704         5.75112
     2015.58384         4.47985         5.79047
     2015.58658         7.04566         5.80056
     2015.58932        -2.66653         5.95089
     2015.59206        11.67128         5.99630
     2015.59479         2.58709         5.87522
     2015.59753        21.08890         5.83385
     2015.60027         4.31571         5.97006
     2015.60301         6.02652         5.96906
     2015.60574         6.66833         5.89742
     2015.60848         5.86814         5.89439
     2015.61122         8.31795         5.84899
     2015.61396         4.78576         5.85807
     2015.61670         9.61457         5.75717
     2015.61943         4.66438         5.79350
     2015.62217         6.08919         5.76524
     2015.62491        13.64100         5.77533
     2015.62765         7.02980         5.69563
     2015.63039         6.47061         5.60179
     2015.63312         8.81342         5.63509
     2015.63586        10.54623         5.65728
     2015.63860         5.54204         5.68049
     2015.64134         5.57685         5.61289
     2015.64407         7.11466         5.73699
     2015.64681         5.50747         5.90045
     2015.64955         8.25228         5.65628
     2015.65229         5.25709         5.79047
     2015.65503        11.37390         5.77735
     2015.65776        10.93371         5.75213
     2015.66050        10.19052         6.01749
     2015.66324        14.09433         5.66435
     2015.66598        13.05814         5.78240
     2015.66872        11.11095         5.75919
     2015.67145        10.65576         5.93576
     2015.67419        12.15457         5.72993
     2015.67693        19.48538         5.72791
     2015.67967        10.54019         5.67646
     2015.68240        10.11800         5.66132
     2015.68514         2.60881         5.75717
     2015.68788         8.03562         5.73094
     2015.69062         4.47443         5.63307
     2015.69336         3.39124         5.80560
     2015.69609         6.84605         5.64417
     2015.69883         7.67186         5.69966
     2015.70157         8.37067         5.75919
     2015.70431         2.50348         5.72085
     2015.70705        11.46229         5.74406
     2015.70978        16.71010         5.66233
     2015.71252         0.06091         5.74607
     2015.71526         4.56772         5.78643
     2015.71800        14.36853         5.68251
     2015.72073         7.33134         5.64720
     2015.72347        11.67715         5.60482
     2015.72621         3.49796         5.65325
     2015.72895         0.92077         5.69260
     2015.73169         4.66358         5.67948
     2015.73442         6.22339         5.73094
     2015.73716         8.76620         5.74204
     2015.73990        14.71601         5.72388
     2015.74264         4.78682         5.84798
     2015.74538         5.92063         5.96603
     2015.74811         6.64244         6.15168
     2015.75085         5.24425         5.94080
     2015.75359        -9.60694         5.68150
     2015.75633         8.51287         5.63408
     2015.75906        -5.51932         5.70471
     2015.76180        -5.24552         5.73296
     2015.76454        -8.00671         5.75213
     2015.76728         1.24810         5.69663
     2015.77002        -1.87309         5.57253
     2015.77275         3.14472         5.63408
     2015.77549         5.36753         5.75717
     2015.77823         5.25934         5.66132
     2015.78097        11.19715         5.72085
     2015.78371         8.97296         5.67646
     2015.78644         7.06477         5.57556
     2015.78918        -0.73242         5.64013
     2015.79192         1.24339         5.70773
     2015.79466        -6.16280         5.68856
     2015.79739         2.61701         5.75515
     2015.80013         0.75682         5.95594
     2015.80287        -6.86737         5.63811
     2015.80561        -5.01156         5.62399
     2015.80835        -5.47875         5.72690
     2015.81108        -3.21694         5.69462
     2015.81382         3.64787         5.67746
     2015.81656         2.12468         5.68957
     2015.81930         7.36949         5.76928
     2015.82203        -0.11470         5.72388
     2015.82477         2.96311         5.73296
     2015.82751         3.94592         5.74406
     2015.83025        12.88373         5.74507
     2015.83299         6.71854         5.72892
     2015.83572        -4.67765         5.69865
     2015.83846        -7.20684         5.90953
     2015.84120         8.25797         5.83184
     2015.84394         6.73778         5.82679
     2015.84668        -0.28341         5.79652
     2015.84941         3.77740         5.80661
     2015.85215         5.40721         5.89338
     2015.85489        10.11402         5.80359
     2015.85763         7.83083         5.80056
     2015.86036         1.12064         5.76827
     2015.86310         3.66045         5.77231
     2015.86584         6.21626         5.72085
     2015.86858        -3.31893         5.78946
     2015.87132         6.63188         5.77836
     2015.87405        11.01069         5.79047
     2015.87679         1.93650         5.80258
     2015.87953         3.64131         5.81670
     2015.88227         3.05512         5.72489
     2015.88501       -18.86607         6.27376
     2015.88774         2.53574         5.81367
     2015.89048         7.19955         5.84596
     2015.89322         7.30636         5.81670
     2015.89596         9.54516         5.78946
     2015.89869         7.26997         5.79350
     2015.90143         6.66178         5.79047
     2015.90417         3.64659         5.79148
     2015.90691         4.41840         5.81065
     2015.90965        -0.65279         5.77231
     2015.91238        -0.05198         5.77029
     2015.91512         5.20283         5.80661
     2015.91786         0.48864         5.81872
     2015.92060         3.98845         5.85504
     2015.92334         5.42026         5.81166
     2015.92607        -1.59493         5.73498
     2015.92881        -0.51112         5.79854
     2015.93155         2.57269         5.98419
     2015.93429         8.63450         5.90146
     2015.93702        15.69431         5.94787
     2015.93976         7.52012         6.09518
     2015.94250         4.80493         5.91054
     2015.94524         5.59674         5.87522
     2015.94798        13.21055         5.88228
     2015.95071         4.69636         5.75919
     2015.95345         7.13217         5.69764
     2015.95619         2.75398         5.84394
     2015.95893         9.85079         5.91154
     2015.96167         8.47160         5.80762
     2015.96440        12.07841         5.74103
     2015.96714        11.56622         5.71883
     2015.96988         9.52603         5.76726
     2015.97262        12.47484         5.72892
     2015.97535        12.82965         5.70672
     2015.97809         6.30546         5.65527
     2015.98083         3.50427         5.66334
     2015.98357        -4.80192         5.68049
     2015.98631        -6.30411         5.66536
     2015.98904         3.53670         5.67948
     2015.99178         4.67751         5.65224
     2015.99452        -1.75668         5.61188
     2015.99726        -5.86287         5.65022
     2016.00000        -5.88706         5.65123
     2016.00273        -7.36725         5.69260
     2016.00547        -9.35844         5.73195
     2016.00821        -1.59863         5.65527
     2016.01095         0.76618         5.69865
     2016.01368        -4.08301         5.63509
     2016.01642       -16.92020         5.83789
     2016.01916         0.97661         5.96603
     2016.02190        -0.26158         5.85403
     2016.02464         1.98723         5.78341
     2016.02737        -3.63196         5.60381
     2016.03011        -1.58716         5.64720
     2016.03285        -4.31035         5.69563
     2016.03559         0.64746         5.65325
     2016.03833         2.98227         5.77231
     2016.04106         1.39508         5.66031
     2016.04380        -0.06711         5.63509
     2016.04654         6.86770         5.78139
     2016.04928         5.43551         5.54933
     2016.05201         5.80532         5.58464
     2016.05475         0.83113         5.54226
     2016.05749        -0.88706         5.59977
     2016.06023         2.49975         5.60179
     2016.06297        -8.30544         5.56749
     2016.06570         1.09337         5.58666
     2016.06844         2.16818         5.55336
     2016.07118        -6.49001         5.56042
     2016.07392         0.99580         5.56950
