# ================= DQRFIT RESULTS ================
# INPUT FILE: series/IDIR.rad
# OUTPUT: LDETRENDED
# FILTER FUNCTION: f(t)
# f(t)=+line(t)+annual(t)
# line(t)=+P 1+P 2*t
# annual(t)=+P 3*sin(2*pi*t+P 4)
# heav(t)=(t<0?0:1)
# TOTAL OBSERVATIONS MTOT= 2354
# INITIAL TIME INTERVAL= 2022.7488 - 2015.0007 =  7.7481
# TOTAL OBSERVATIONS AFTER PREFILTER M= 2310
# TIME-SPAN= 2022.7488 - 2015.0007 =  7.7481
# OBSERVATIONS: USED M=  2310 REJECTED MTOT-M=    44 %USED=   98.1308
# N=  4 PARAMETERS
# MAXSIG= 175.00000
# MAXRES=  86.42191
# SCALE FACTOR FOR LENGTHS: SCL=  10.00000
# SCALE FACTOR FOR SIGMAS: SCLSIG=   1.00000
# CHI^2=   3464.772 DOF=  2306 CHI^2/DOF=   1.50250
# RMS=      7.778 SDEV=      7.774 MEAN=    0.29971
#  P #       PARAMETER +-    SIGMA %error PARAMETER NAME
# P 1 =      3487.60073 +-  131.103   3.76 YZERO                              
# P 2 =        -1.73152 +-    0.065   3.75 SLOPE                              
# P 3 =         5.74256 +-    0.205   3.57 ANNUAL AMPLITUDE                   
# P 4 =         2.70262 +-    0.046   1.69 ANNUAL PHASE                       
#       T            LDETRENDED       SIG_OBS
     2015.00068         8.89995         6.58359
     2015.00342         4.10769         6.59830
     2015.00616        -0.06957         6.54191
     2015.00889         2.04817         6.61056
     2015.01163         1.93991         6.70249
     2015.01437        13.86365         6.91087
     2015.01711        -3.32861         6.81158
     2015.01984         3.22313         6.68165
     2015.02258         5.89187         6.78707
     2015.02532         7.37761         6.64856
     2015.02806         1.34935         6.96603
     2015.03080        16.33609         6.96235
     2015.03353        -1.78617         6.63140
     2015.03627         3.59057         6.57133
     2015.03901         1.31631         6.57869
     2015.04175         7.18806         6.67062
     2015.04449         8.65580         6.69391
     2015.04722         9.37954         6.68533
     2015.04996        11.39628         6.66939
     2015.05270         2.65802         6.62159
     2015.05544         1.15976         6.60933
     2015.05817         4.44950         6.63140
     2015.06091         0.55124         6.68043
     2015.06365         5.37498         6.77604
     2015.06639         7.75672         6.60320
     2015.06913         2.18446         6.67675
     2015.07186        -8.33180         6.69636
     2015.07460         6.22594         6.69514
     2015.07734        -4.20032         6.67797
     2015.08008        -5.83158         6.65101
     2015.08282         2.29717         6.68043
     2015.08555         2.06591         6.68778
     2015.08829         0.48765         6.68533
     2015.09102        20.29337         6.73804
     2015.09377        19.66213         7.57278
     2015.09650        15.76487         6.72210
     2015.09924         8.99361         6.85694
     2015.10198         6.02035         6.93416
     2015.10472         7.57809         6.59585
     2015.10746         7.40683         6.67062
     2015.11019        -5.30943         6.82507
     2015.11293        -4.18569         6.85326
     2015.11567        -2.97395         6.71965
     2015.11841        -5.23321         6.59830
     2015.12115        -1.74147         6.68288
     2015.12388        -6.08273         6.72701
     2015.12662        -3.09398         6.68043
     2015.12936         0.23676         6.67430
     2015.13210         0.65150         6.64120
     2015.13483        -2.25776         6.87287
     2015.13757        -0.45302         6.81649
     2015.14031        -2.52228         6.69268
     2015.14305         1.72746         6.70984
     2015.14579         0.14220         6.65714
     2015.14852         0.51194         6.66327
     2015.15126         0.86068         6.69759
     2015.15400        -3.61958         6.75275
     2015.15674         3.48116         6.63875
     2015.15948         7.82790         6.65223
     2015.16221        -2.79736         6.61546
     2015.16495        -0.99662         6.71352
     2015.16769        -0.01488         6.67797
     2015.17043        -0.17613         6.65469
     2015.17316         1.83261         6.78952
     2015.17590         0.41035         6.87165
     2015.17864        -1.69191         6.78707
     2015.18138         0.71983         6.69268
     2015.18412         0.24457         6.68901
     2015.18685        -0.38169         6.64733
     2015.18959        -1.45895         6.64488
     2015.19233         0.29479         6.89003
     2015.19507        -4.17947         6.76623
     2015.19780         2.70527         6.71230
     2015.20054         2.58201         6.65469
     2015.20328         2.06775         6.68778
     2015.20602        -5.66551         6.80545
     2015.20876        -6.25177         7.04080
     2015.21149        -2.95003         6.72455
     2015.21423        -3.80728         6.79687
     2015.21697        -1.64154         6.81526
     2015.21971        -0.31180         6.94887
     2015.22245         3.79694         6.71597
     2015.22518         6.28468         6.75765
     2015.22792         5.08342         6.67920
     2015.23066         0.04416         7.35828
     2015.23340        -2.42010         6.89861
     2015.23613         5.08464         6.97706
     2015.23887         0.88538         6.98932
     2015.26984        15.20001        10.90564
     2015.27173         4.05627         6.84590
     2015.27446         6.63801         6.85571
     2015.27720         5.99075         6.68288
     2015.27994        -0.68151         6.70494
     2015.28268         5.10923         6.70984
     2015.28542        10.14897        10.38469
     2015.28815         1.30871         6.78339
     2015.29089         2.32245         6.63998
     2015.29363        -1.17581         6.65959
     2015.29637         5.29893         6.73191
     2015.29911         6.01667         6.67675
     2015.30184         8.07642         6.63875
     2015.30458         0.28516         6.73681
     2015.30732         4.48190         6.59585
     2015.30989         5.30134         7.21731
     2015.32184         1.37005        10.40553
     2015.32375        -1.80366         6.68043
     2015.32648         0.77408         6.89494
     2015.32922         3.44482         6.80055
     2015.33196         6.25056         6.67307
     2015.33470         6.64330         6.66694
     2015.33744         8.09404         6.73191
     2015.34017        -0.50722         6.70862
     2015.34291        15.45652         6.65836
     2015.34565        15.91827         6.57256
     2015.34839        -3.49199         6.69881
     2015.35112         6.72275         6.66694
     2015.35386        12.60649         6.66449
     2015.35660        -1.22577         6.61301
     2015.35934        -5.31703         6.91945
     2015.36208        -2.34429         6.80791
     2015.36481        -1.20255         6.68410
     2015.36755        13.01419         6.77849
     2015.37303        10.59567         6.56766
     2015.37577        -0.31059         6.64488
     2015.37850        18.51715         6.92068
     2015.38124        20.13989         6.67430
     2015.38398        -5.95037         6.69146
     2015.38672        10.06938         6.66939
     2015.38945        23.83312         6.66939
     2015.39219        -0.76114         6.59707
     2015.39492        -4.95543         6.72210
     2015.39767         6.59234         6.69759
     2015.40041        -1.51992         6.71230
     2015.40314        13.27882         6.94887
     2015.40588       -11.50144         6.71720
     2015.40862        -1.46270         6.73559
     2015.41136        -8.20396         6.78584
     2015.41410         4.72378         6.86552
     2015.41683         2.21752         6.70494
     2015.41957        -3.99374         6.64365
     2015.42231         4.91700         6.73436
     2015.42505        -2.19626         6.95868
     2015.42778         1.08348         6.70004
     2015.43052        15.33223         6.77971
     2015.43326        -3.62603         6.71597
     2015.43600        -4.22429         6.71597
     2015.43874        19.68245         6.96235
     2015.44147         7.04519         7.04693
     2015.44421        -8.03907         6.70126
     2015.44695        -3.94733         6.72578
     2015.44969        -2.58759         6.63752
     2015.45243        -7.81985         6.79197
     2015.45516        -3.65811         6.86184
     2015.45716        -6.67865        10.25721
     2015.46338        -4.48989         6.82507
     2015.46529         6.27442        10.47662
     2015.47781         1.56710        10.69971
     2015.47980        -2.45844         6.78094
     2015.48254        -9.51270         6.74171
     2015.48528        -7.86496         6.78217
     2015.48802        -1.00422         6.71107
     2015.49076        -3.85048         6.56275
     2015.49349         3.33726         6.97216
     2015.49623        -7.88300         7.01383
     2015.49897        -9.22426         6.91455
     2015.50171         1.22548         6.73559
     2015.50444        -0.27278         6.70984
     2015.50718         3.23796         6.61178
     2015.50992         6.21570         6.82629
     2015.51266         1.18944         7.59975
     2015.51499        -9.73752        26.99750
     2015.51829        -1.69280        13.47485
     2015.52104        15.18295         7.10944
     2015.52344         3.06512         8.73113
     2015.53230        -9.11454        23.45872
     2015.54591        12.79302        20.51443
     2015.55189         4.81237        31.31098
     2015.55392        10.59688        13.52878
     2015.55646        16.10429        12.10812
     2015.56227        17.10235        59.53425
     2015.56523        73.28348       101.73493
     2015.56834        12.47886        37.32704
     2015.57004         4.75281        18.50662
     2015.57329         1.24242        18.47107
     2015.57601        16.01814        23.42072
     2015.57875        17.51588        29.88418
     2015.58410       -20.98485        32.08566
     2015.59230        45.86835        33.86425
     2015.59511        55.30521        27.57729
     2015.59753         4.86940        17.24653
     2015.60031        44.50522        22.09199
     2015.60301        12.14988        16.86287
     2015.60562        19.78640        25.05466
     2015.63141       -22.73493        49.08826
     2015.63312         9.21703        11.16918
     2015.63586        13.12077        11.21454
     2015.63860        -5.84849        11.42782
     2015.64134        13.53625        11.10544
     2015.64361         9.39420        12.08483
     2015.64812        89.13501       150.26179
     2015.64955         9.58448         6.72333
     2015.65229         6.57422         6.84100
     2015.65503         9.97696         6.79320
     2015.65662        10.39872        17.02467
     2015.66062        13.25264         7.41589
     2015.66291        11.08460         7.77871
     2015.66729       -20.07780        88.02718
     2015.66872         6.99866         6.96480
     2015.67145        15.98940         6.85939
     2015.67419         9.13214         6.83610
     2015.67567         7.29371        21.73284
     2015.68879         8.31542        12.97964
     2015.69062         4.38359         6.61791
     2015.69336         3.43233         6.79320
     2015.69609         5.25107         6.68043
     2015.69883         9.07381         6.71720
     2015.70094        14.97345         8.96893
     2015.70796        17.61062        13.28118
     2015.70978        16.35077         6.72701
     2015.71252         0.11351         6.81771
     2015.71526         9.54625        12.96370
     2015.71800        10.51499         6.65714
     2015.72073        12.76373         6.66817
     2015.72250         7.49379        11.95735
     2015.72718        11.05190        13.27260
     2015.72895         1.16295         7.05674
     2015.73169         2.15769         6.80545
     2015.73442        -1.08356        12.98332
     2015.73716         9.44218         6.77604
     2015.73990        13.42292         6.79565
     2015.74176         7.36213        11.94019
     2015.74641        17.33718        17.64000
     2015.74811         6.56414         7.46737
     2015.75085        16.20788         6.94397
     2015.75359        22.06362        11.96593
     2015.75633         7.63736         6.65959
     2015.75906         4.68110         6.71475
     2015.76106         1.47255         9.89684
     2015.76562        -5.13254        21.31240
     2015.76728        -1.58167         6.98564
     2015.77002         1.26506         6.59462
     2015.77275        11.65380        12.92571
     2015.77549         6.53654         6.95990
     2015.77823         8.58429         6.80791
     2015.78023         4.08174         9.92135
     2015.78485        34.65275        29.20143
     2015.78644         4.75551         6.95255
     2015.78918         6.18025         6.63140
     2015.79100         1.88239        11.36163
     2015.79466        16.33774         6.82262
     2015.79739        29.81047         6.76746
     2015.79948        42.44407         9.25454
     2015.80406         6.03101        19.51420
     2015.80561         6.11970         6.76133
     2015.80835         7.53043         6.65714
     2015.81022         5.12368        10.65926
     2015.81388         3.56602         7.36073
     2015.81656         2.44965         6.59340
     2015.81873        13.39041         8.78016
     2015.82329        17.25732        27.76974
     2015.82483        35.36598         7.20015
     2015.82751        37.15462         6.83120
     2015.82945        49.67398        10.45088
     2015.83305        14.82220         7.02119
     2015.83572        22.76984         6.91210
     2015.83797         4.20872         8.77771
     2015.84246        16.96950        30.96899
     2015.84394        10.01306         7.15235
     2015.84668         4.94580         6.69514
     2015.84869         6.96328         9.89071
     2015.85227         9.78349         7.38769
     2015.85489        11.94902         6.87287
     2015.85718        23.58000         8.45656
     2015.86310         7.25724         7.27370
     2015.86584         8.87099         6.80913
     2015.86797         2.42667         9.01306
     2015.87149         9.65877         7.66717
     2015.87405         9.35521         6.81526
     2015.87646         4.64637         7.97729
     2015.88227         8.80844         6.99300
     2015.88501        11.91818         7.02487
     2015.88721         1.58699         8.57178
     2015.89071        10.93105         7.66104
     2015.89322         7.32939         6.75765
     2015.89573        10.76975         7.77871
     2015.90149         6.53572         7.50659
     2015.90417         5.66835         7.00525
     2015.90645         8.45130         8.42101
     2015.90994         7.91234         8.18444
     2015.91238         8.53958         6.77113
     2015.91497         9.43505         7.40853
     2015.92083         9.71419         7.72601
     2015.92334         9.98654         6.92926
     2015.92565         4.51754         8.35360
     2015.92916         0.26762         8.61101
     2015.93155         5.59677         6.99667
     2015.93417        13.39130         7.49434
     2015.94000        14.19439         8.81939
     2015.94250         6.94072         7.14009
     2015.94485         6.36180         8.47127
     2015.94836        11.36186         9.06699
     2015.95072        20.58295         6.75152
     2015.95337        10.08455         7.14867
     2015.95905        13.05937         8.41979
     2015.96167        10.07691         7.05183
     2015.96412        12.75116         7.91845
     2015.96760        11.32319         8.94809
     2015.96919        13.23594        10.39327
     2015.99014         5.68822        14.40766
     2015.99178         2.88205         6.63385
     2015.99452         6.13080         6.65591
     2015.99726         6.74154         6.64120
     2016.00000         4.86328         6.66204
     2016.00273         3.67002         6.62036
     2016.00547         1.51876         6.62649
     2016.00821         5.28450         6.68901
     2016.01095         9.91124         6.71597
     2016.01368         5.54098         6.72578
     2016.01642         6.48472         6.85816
     2016.01916         4.64546         6.95377
     2016.02190         6.03120         6.80913
     2016.02464         1.28694         6.86552
     2016.02737         3.53868         6.65714
     2016.03011         4.06742         6.66327
     2016.03285         7.50616         6.64488
     2016.03559         9.76290         6.64120
     2016.03815        10.30635         7.31415
     2016.05749         4.68883         6.63752
     2016.06023         9.70557         6.59585
     2016.06297         8.83331         6.59340
     2016.06570         7.70305         6.71352
     2016.06844         5.50279         6.71597
     2016.07118         1.24153         6.73681
     2016.07392         3.02127         6.75520
     2016.07666        15.14401         6.82874
     2016.07939        21.16075         6.81404
     2016.08213         6.80050         6.89371
     2016.08487         5.59624         6.77481
     2016.08761        -2.08602         6.70739
     2016.09034        -3.40828         6.68410
     2016.09308         4.62646         6.68901
     2016.09582        -1.88580         6.65836
     2016.09856        -2.24706         6.70984
     2016.10130        -8.32632         6.72946
     2016.10403        -9.32358         6.71720
     2016.10677        -7.45584         6.72210
     2016.10951        -4.53710         6.66204
     2016.11225        -4.57336         6.65959
     2016.11498        -5.91362         6.68901
     2016.11772        -6.93088         6.87165
     2016.12046        -3.27914         6.75642
     2016.12320         0.83760         6.79933
     2016.12594        -8.70665         6.85816
     2016.12867         2.41509         6.76255
     2016.13141         1.42583         6.92681
     2016.13415         2.65157         6.78952
     2016.13689        -3.40269         6.73559
     2016.13963        -3.93495         6.62282
     2016.14236        -8.37921         6.63875
     2016.14510        -6.28447         6.68043
     2016.14784       -10.81973         6.63998
     2016.15058        -4.83099         6.66204
     2016.15331        -4.91425         6.82997
     2016.15605        -4.16951         6.65714
     2016.15879        -7.40477         6.83978
     2016.16153        -4.89903         6.86429
     2016.16427        -6.32629         6.83120
     2016.16700        -8.22555         6.77726
     2016.16974        -5.87580         6.63385
     2016.17248        -4.50606         6.84345
     2016.17522        -4.72432         6.68901
     2016.17796         6.23942         6.79320
     2016.18069        14.49316         6.83242
     2016.18343        -1.84210         6.99667
     2016.18617        -6.73336         6.74294
     2016.18891        -4.85062         6.58604
     2016.19164        -3.45788         6.60565
     2016.19438         2.62186         6.64856
     2016.19712         8.41860         6.53946
     2016.19986         4.90834         6.83365
     2016.20260        -6.51392         6.78339
     2016.20533        -2.91618         6.83855
     2016.20807        -5.40944         6.85081
     2016.21081       -10.89970         6.71475
     2016.21355        -7.75595         6.75888
     2016.21629        -8.69921         6.59217
     2016.21902        -2.87347         6.64488
     2016.22176        10.89627         7.14867
     2016.22330        -4.73307        18.61939
     2016.22798        -2.41197         9.98509
     2016.22997        -2.15051         6.69881
     2016.23271        -3.32077         6.64978
