# ================= DQRFIT RESULTS ================
# INPUT FILE: series/IDSN.rad
# OUTPUT: LDETRENDED
# FILTER FUNCTION: f(t)
# f(t)=+line(t)+annual(t)
# line(t)=+P 1+P 2*t
# annual(t)=+P 3*sin(2*pi*t+P 4)
# heav(t)=(t<0?0:1)
# TOTAL OBSERVATIONS MTOT= 2846
# INITIAL TIME INTERVAL= 2022.7488 - 2010.0014 = 12.7474
# TOTAL OBSERVATIONS AFTER PREFILTER M= 2842
# TIME-SPAN= 2022.7488 - 2010.0014 = 12.7474
# OBSERVATIONS: USED M=  2842 REJECTED MTOT-M=     4 %USED=   99.8595
# N=  4 PARAMETERS
# MAXSIG= 175.00000
# MAXRES=  43.99631
# SCALE FACTOR FOR LENGTHS: SCL=  10.00000
# SCALE FACTOR FOR SIGMAS: SCLSIG=   1.00000
# CHI^2=   4881.219 DOF=  2838 CHI^2/DOF=   1.71995
# RMS=      7.800 SDEV=      7.789 MEAN=    0.44935
#  P #       PARAMETER +-    SIGMA %error PARAMETER NAME
# P 1 =      4877.13638 +-   81.870   1.68 YZERO                              
# P 2 =        -2.42120 +-    0.041   1.68 SLOPE                              
# P 3 =         4.42911 +-    0.195   4.39 ANNUAL AMPLITUDE                   
# P 4 =         3.09284 +-    0.062   2.01 ANNUAL PHASE                       
#       T            LDETRENDED       SIG_OBS
     2010.00136       -23.21684         7.51865
     2010.00410        -3.26321         7.63275
     2010.00684       -20.84558         7.87537
     2010.00958       -12.24196         7.31800
     2010.01232       -10.22933         7.34160
     2010.01505       -17.10970         7.41242
     2010.01779       -14.74507         7.37701
     2010.02053       -12.38444         7.33636
     2010.02327       -13.97781         7.39144
     2010.02600       -10.79918         7.34554
     2010.02874        -2.62555         7.44127
     2010.03148        -8.27392         7.43472
     2010.03422        -4.45230         7.53439
     2010.03696        -5.38767         7.77308
     2010.03969         0.32296         7.54619
     2010.04243        -1.65741         7.48062
     2010.04517         7.28622         7.44652
     2010.04791         5.42285         7.47013
     2010.05065         4.43548         7.54881
     2010.05338         3.67211         7.62357
     2010.05612         6.28674         7.45045
     2010.05886         6.14336         7.36390
     2010.06160         2.54399         7.33636
     2010.06433        -1.95638         7.27865
     2010.06707        -5.74975         7.30882
     2010.06981        -5.21112         7.51734
     2010.07255        -3.45549         7.44652
     2010.07529        -5.35086         7.52652
     2010.07802        -3.71223         7.30095
     2010.08076         0.38740         7.29177
     2010.08350        -1.77398         7.40324
     2010.08624         5.13965         7.30357
     2010.08898         9.39628         7.58685
     2010.09171         4.55291         7.32062
     2010.09445         0.79954         7.41373
     2010.09719        -0.97683         7.46619
     2010.09993        -7.09920         7.32193
     2010.10266        -2.85757         7.34816
     2010.10540        -5.14094         7.51603
     2010.10814        -1.53632         7.42160
     2010.11088        -6.65969         7.44652
     2010.11362        -0.16506         7.32718
     2010.11635         1.10557         7.32980
     2010.11909         1.65620         7.41373
     2010.12183        -4.11817         7.34816
     2010.12457        -0.68754         7.27472
     2010.12731        -1.83491         7.50422
     2010.13004       -12.42728         7.45439
     2010.13278        -5.32966         7.48849
     2010.13552        -2.40503         7.46095
     2010.13826        -5.48540         7.43996
     2010.14099        -7.51577         7.33373
     2010.14373        -4.74914         7.71144
     2010.14647        -8.04651         7.60783
     2010.14921        -5.69788         7.59209
     2010.15195        -5.64025         7.44127
     2010.15468        -1.88462         7.29701
     2010.15742         1.86300         7.43472
     2010.16016        -0.86437         7.34947
     2010.16290        -4.51774         7.53439
     2010.16564        -4.95711         7.51078
     2010.16837         2.56052         7.44127
     2010.17111         7.96815         7.41767
     2010.17385        -4.22722         7.42685
     2010.17659        -4.17059         7.41242
     2010.17932         0.95904         7.42423
     2010.18206         2.85666         7.42160
     2010.18480         4.97729         7.38095
     2010.18754         0.98392         7.42291
     2010.19028         0.27955         7.36914
     2010.19301         1.19818         7.44521
     2010.19575         3.07081         7.42160
     2010.19849        -1.14456         7.31537
     2010.20123        -8.02793         7.22882
     2010.20397        -1.39330         7.40718
     2010.20670        -9.93368         7.50422
     2010.20944        -2.39005         7.38619
     2010.21218        -8.55642         7.35996
     2010.21492        -4.03779         7.29832
     2010.21765        -5.42616         7.34423
     2010.22039        -1.92053         7.51078
     2010.22313        -8.14490         7.35603
     2010.22587        -5.48527         7.52259
     2010.22861        -2.20564         7.52127
     2010.23134         8.17798         7.44783
     2010.23408        -6.20139         7.52652
     2010.23682       -10.35376         7.52914
     2010.23956        -2.04313         7.56324
     2010.24230         5.33250         7.83471
     2010.24503        -2.44287         7.67340
     2010.24777         0.24476         7.48062
     2010.25051         0.53139         7.76258
     2010.25325         8.74402         7.61177
     2010.25598         3.19064         7.61439
     2010.25872         6.20827         7.59603
     2010.26146        11.72590         7.59078
     2010.26420         0.46953         7.82816
     2010.26694        -1.75784         7.68127
     2010.26967        -1.97321         7.75734
     2010.27241        -3.63458         7.68258
     2010.27515        -0.67995         7.58947
     2010.27789        -5.49933         7.66160
     2010.28062         1.98630         7.57636
     2010.28336        -2.36007         7.69963
     2010.28610        -7.37244         7.66029
     2010.28884        -1.71381         7.45177
     2010.29158         2.83782         7.58029
     2010.29431        -0.05255         7.62095
     2010.29705        -0.79292         7.50422
     2010.29979        -1.43529         7.64193
     2010.30253         9.62133         7.70881
     2010.30527         7.37696         7.79668
     2010.30800         2.25859         7.61963
     2010.31074         5.31222         7.61832
     2010.31348         6.14985         7.47275
     2010.31622        -2.40752         7.50029
     2010.31895         0.51511         7.79406
     2010.32169         8.96874         7.67865
     2010.32443        11.41437         7.71537
     2010.32717        13.31099         7.52259
     2010.32991         8.89562         7.46357
     2010.33264         5.45525         7.42685
     2010.33538        -1.37712         7.78488
     2010.33812         3.74651         7.73898
     2010.34086         0.77514         7.49636
     2010.34360        -6.86923         7.45963
     2010.34633        -6.60760         7.53963
     2010.34907        -4.04397         7.44652
     2010.35181        -3.08235         7.46357
     2010.35455        -2.41772         7.41767
     2010.35728         0.37391         7.53177
     2010.36002        -4.13346         7.57636
     2010.36276        -7.04483         7.42554
     2010.36550        -7.33320         7.64193
     2010.36824        -4.45657         7.66291
     2010.37097        -2.92594         7.49898
     2010.37371         1.74569         7.46357
     2010.37645         2.21331         7.41636
     2010.37919         1.85694         7.64586
     2010.38193        11.16957         7.73898
     2010.38466         6.73420         7.75865
     2010.38740         2.60183         7.67865
     2010.39014        -2.21054         8.11930
     2010.39288        -0.10691         7.56062
     2010.39561        -2.68228         7.58291
     2010.39835        -4.07865         7.44390
     2010.40109         1.13297         7.46488
     2010.40383        -3.37940         7.37964
     2010.40657         1.40723         7.38882
     2010.40930        -0.01114         7.32324
     2010.41204         6.10149         7.35996
     2010.41478         5.45012         7.38095
     2010.41752        12.57675         7.33898
     2010.42026         7.04338         7.44652
     2010.42299        -3.55999         7.33111
     2010.42573        -0.89337         7.39275
     2010.42847        -0.29474         7.42160
     2010.43121         3.84589         7.62488
     2010.43394         4.26852         7.40193
     2010.43668       -12.32485         7.44259
     2010.43942         3.17878         7.36127
     2010.44216        -2.12859         7.29570
     2010.44490        -7.00196         7.43341
     2010.44763        -7.12633         7.32849
     2010.45037        -2.97171         7.33636
     2010.45311        -1.26608         7.73635
     2010.45585        11.96155         7.49636
     2010.45859         1.56318         7.50029
     2010.46132        -4.20019         7.46750
     2010.46406        -3.62456         7.41504
     2010.46680         2.85707         7.41504
     2010.46954         6.41570         7.38357
     2010.47227        -8.49667         7.29832
     2010.47501        -8.13105         7.41767
     2010.47775        -0.88642         7.50947
     2010.48049        -4.49279         7.61439
     2010.48323        13.67784         7.31668
     2010.48596         4.46847         7.32193
     2010.48870         0.58610         7.44259
     2010.49144         1.57773         7.63275
     2010.49418        -0.16064         7.63144
     2010.49692       -11.60201         7.38619
     2010.49965        -2.47339         7.44390
     2010.50239        -0.63176         7.32062
     2010.50513         2.80287         7.35996
     2010.50787         4.89850         7.40849
     2010.51060        -6.65087         7.29832
     2010.51334        -7.16424         7.33505
     2010.51608        -4.95661         7.22095
     2010.51882        -1.26898         7.31275
     2010.52156         3.81665         7.54619
     2010.52429         8.94527         7.40980
     2010.52703        11.67190         7.35996
     2010.52977         4.91753         7.42685
     2010.53251       -10.05684         7.37045
     2010.53525        -8.99221         7.34816
     2010.53798        -5.38558         7.40062
     2010.54072        -4.96995         7.36783
     2010.54346       -17.90932         7.50685
     2010.54620         8.32531         7.41504
     2010.54893       -11.35707         7.61045
     2010.55167        -2.03444         7.40718
     2010.55441        -0.74581         7.31013
     2010.55715         0.00082         7.44783
     2010.55989        -7.26755         7.43209
     2010.56262         3.74308         7.28652
     2010.56536        -4.63229         7.30882
     2010.56810        -7.21666         7.33767
     2010.57084        -3.31703         7.55931
     2010.57357        -0.34341         7.79668
     2010.57631        -1.31478         7.53045
     2010.57905         5.86285         7.64586
     2010.58179        -6.16252         7.42554
     2010.58453        -1.77389         7.38488
     2010.58726        -7.43226         7.58816
     2010.59000       -10.24963         7.64717
     2010.59274         0.53100         7.62095
     2010.59548         9.49763         7.60521
     2010.59822         4.70625         7.59078
     2010.60095         1.53188         7.52259
     2010.60369         1.83151         7.50029
     2010.60643        12.77314         7.59209
     2010.60917        -1.37123         7.43996
     2010.61190         2.42740         7.43996
     2010.61464        -0.52297         7.41636
     2010.61738        -2.76834         7.30750
     2010.62012        -4.99971         7.40062
     2010.62286        -4.67709         7.40324
     2010.62559        -3.22846         7.47013
     2010.62833         5.36017         7.39668
     2010.63107        -2.16920         7.53832
     2010.63381        10.96843         7.36914
     2010.63655         0.24506         7.46881
     2010.63928         3.89669         7.56586
     2010.64202        -1.03168         7.49898
     2010.64476        -8.47005         7.47931
     2010.64750        -0.88043         7.30750
     2010.65023        -0.44780         7.66685
     2010.65297        -8.94417         7.83078
     2010.65571        11.44746         7.31931
     2010.65845         9.19909         7.28914
     2010.66119         2.19672         7.35603
     2010.66392         3.02435         7.47668
     2010.66666        -4.97302         7.42947
     2010.66940         1.84461         7.39275
     2010.67214        -1.48477         7.23275
     2010.67488         0.20786         7.27996
     2010.67761        19.92949         7.53439
     2010.68035         6.94612         7.28127
     2010.68309         5.66275         7.23406
     2010.68583        11.91538         7.18816
     2010.68856        11.72001         7.30750
     2010.69130        12.41164         7.29177
     2010.69404         8.36127         7.47013
     2010.69678        -1.96211         7.29177
     2010.69952         2.30452         7.28521
     2010.70225         3.15915         7.35078
     2010.70499         5.52278         7.29046
     2010.70773         1.97741         7.19603
     2010.71047         3.30404         7.23800
     2010.71321        -1.72133         7.25505
     2010.71594         1.80830         7.42291
     2010.71868         6.09192         7.42029
     2010.72142         8.31755         7.38882
     2010.72416         6.06718         7.39800
     2010.72689         2.09581         7.35603
     2010.72963         2.11544         7.29439
     2010.73237         3.92407         7.24849
     2010.73511         4.80570         7.29439
     2010.73785         9.16733         7.44914
     2010.74053         6.31582         7.52390
     2010.74332         8.35658         7.53439
     2010.74606         5.08821         7.31537
     2010.74880         1.23584         7.37964
     2010.75154         6.74647         7.26947
     2010.75427         6.30810         7.35996
     2010.75701        11.63973         7.51865
     2010.75975        16.36736         7.31406
     2010.76249         8.85199         7.24455
     2010.76522         9.03762         7.43865
     2010.76796        11.79224         7.27341
     2010.77070         2.36587         7.32455
     2010.77344         4.37150         7.33898
     2010.77618        11.60413         7.59996
     2010.77891         4.89576         7.35996
     2010.78165         2.76639         7.27734
     2010.78439         6.97202         7.47931
     2010.78713         1.63165         7.46881
     2010.78987        10.32028         7.41373
     2010.79260        12.00390         7.30750
     2010.79534         1.14153         7.30750
     2010.79808         4.22916         7.23669
     2010.80082         5.96279         7.26160
     2010.80355         5.04042         7.23013
     2010.80629         6.22905         7.26029
     2010.80903         4.09868         7.33636
     2010.81177        12.58131         7.42554
     2010.81451        22.86494         7.24062
     2010.81724        20.32756         7.21570
     2010.81998         8.98319         7.20390
     2010.82272         2.60082         7.15144
     2010.82546        -1.60255         7.23537
     2010.82820         9.09208         7.16849
     2010.83093        12.93371         7.37177
     2010.83367         9.47334         7.46881
     2010.83641        -1.34103         7.21964
     2010.83915        -0.07540         7.17505
     2010.84188         2.93022         7.22357
     2010.84462         5.19985         7.13570
     2010.84736        11.81948         7.17898
     2010.85010         7.02211         7.15537
     2010.85284        17.28774         7.20652
     2010.85557        16.77137         7.06619
     2010.85831         8.05100         7.10685
     2010.86105         2.63963         7.04521
     2010.86379         1.57926         7.14488
     2010.86653        -0.86912         7.12783
     2010.86926         1.57651         7.07537
     2010.87200         1.81414         7.16193
     2010.87474         4.19177         7.34685
     2010.87748         9.39840         7.24718
     2010.88021        -4.08497         7.26947
     2010.88295         5.97466         7.15013
     2010.88569         8.38329         7.05308
     2010.88843         5.76992         7.43734
     2010.89117         2.85854         7.47275
     2010.89390         5.62517         7.16324
     2010.89664         6.61780         7.04914
     2010.89938         6.66543         7.12914
     2010.90212         3.23906         7.06882
     2010.90485         4.99169         7.13177
     2010.90759        11.79232         7.11210
     2010.91033        12.68595         7.09505
     2010.91267         0.63061         8.24652
     2010.92425        -4.18536         7.75865
     2010.92676         1.89572         7.03078
     2010.92950        -4.34565         6.98095
     2010.93223         1.64098         7.48718
     2010.93497        -7.77239         7.36127
     2010.93771         0.17124         7.18554
     2010.94005        -4.83510         8.84061
     2015.00068         3.46150         6.96521
     2015.00342         4.13413         6.93898
     2015.00616        -8.95425         6.96390
     2015.00889        -3.02462         7.14882
     2015.01163         8.83601         7.42816
     2015.01437        -0.34036         7.20521
     2015.01711        -2.26273         7.37045
     2015.01984         5.72490         7.12128
     2015.02258         5.48253         7.26029
     2015.02532         6.82216         7.10160
     2015.02806         4.53779         7.04914
     2015.03080         4.08641         7.14619
     2015.03353        -3.28796         7.15800
     2015.03627         3.61367         7.07275
     2015.03901         3.64330         7.07537
     2015.04175        12.49093         7.11603
     2015.04449         4.48756         7.15144
     2015.04722        -1.38881         7.63799
     2015.04996        -6.07218         7.18685
     2015.05270         2.80445         7.15013
     2015.05544         2.75907         7.05046
     2015.05817         7.43270         7.10554
     2015.06091         2.54033         7.16980
     2015.06365         3.67296         7.29964
     2015.06639         4.37459         7.14619
     2015.06913        -1.49878         7.04783
     2015.07186        -2.01015         7.10816
     2015.07460         7.51248         7.16062
     2015.07734        -4.81890         7.15275
     2015.08008        -5.31227         7.17373
     2015.08282         1.55136         7.11603
     2015.08555         3.14999         7.12259
     2015.08829         6.96262         7.16324
     2015.09103         6.30825         7.16324
     2015.09377         4.32088         7.17767
     2015.09650        -0.12849         7.23537
     2015.09924         2.19314         7.34029
     2015.10198        -2.38924         7.26816
     2015.10472         1.58539         7.14882
     2015.10746         2.71302         7.20783
     2015.11019         6.78565         7.26160
     2015.11293         2.81228         7.26685
     2015.11567        -1.89509         7.05701
     2015.11841        -3.63146         7.10423
     2015.12115         6.11717         7.18423
     2015.12388         5.50580         7.19078
     2015.12662         4.76542         7.11078
     2015.12936         1.76105         7.04128
     2015.13210         1.80868         7.12390
     2015.13483        -2.19869         7.24718
     2015.13757         6.86694         7.25242
