# ================= DQRFIT RESULTS ================
# INPUT FILE: series/IDSS.rad
# OUTPUT: LDETRENDED
# FILTER FUNCTION: f(t)
# f(t)=+line(t)+annual(t)
# line(t)=+P 1+P 2*t
# annual(t)=+P 3*sin(2*pi*t+P 4)
# heav(t)=(t<0?0:1)
# TOTAL OBSERVATIONS MTOT= 2544
# INITIAL TIME INTERVAL= 2012.3966 - 2004.9035 =  7.4932
# TOTAL OBSERVATIONS AFTER PREFILTER M= 2540
# TIME-SPAN= 2012.3966 - 2004.9035 =  7.4932
# OBSERVATIONS: USED M=  2540 REJECTED MTOT-M=     4 %USED=   99.8428
# N=  4 PARAMETERS
# MAXSIG= 175.00000
# MAXRES=  18.05777
# SCALE FACTOR FOR LENGTHS: SCL=  10.00000
# SCALE FACTOR FOR SIGMAS: SCLSIG=   1.00000
# CHI^2=   1983.072 DOF=  2536 CHI^2/DOF=   0.78197
# RMS=      5.084 SDEV=      5.085 MEAN=    0.02262
#  P #       PARAMETER +-    SIGMA %error PARAMETER NAME
# P 1 =      3899.34657 +-   90.490   2.32 YZERO                              
# P 2 =        -1.93571 +-    0.045   2.33 SLOPE                              
# P 3 =         2.70426 +-    0.143   5.27 ANNUAL AMPLITUDE                   
# P 4 =         2.96242 +-    0.073   2.48 ANNUAL PHASE                       
#       T            LDETRENDED       SIG_OBS
     2004.90349         5.66326         4.87774
     2004.90622         0.90255         4.90073
     2004.90896         2.47085         4.85210
     2004.91170         3.10915         4.86094
     2004.91444         7.53245         4.85033
     2004.91718         1.88175         4.98386
     2004.91991         7.95505         5.24030
     2004.92265         3.72235         4.93787
     2004.92539         8.97465         4.92638
     2004.92813        13.87195         5.07936
     2004.93086         8.42025         4.93699
     2004.93360        14.54755         4.98828
     2004.93634        12.48985         5.11650
     2004.93908         5.18515         5.22438
     2004.94182        11.00145         5.10324
     2004.94455         3.67775         5.07229
     2004.94729         6.17805         4.91665
     2004.95003         2.14335         4.94230
     2004.95277         2.57765         4.93611
     2004.95551        -1.55405         4.97767
     2004.95824        -3.25975         5.30309
     2004.96098        -1.52245         4.86006
     2004.96372        -0.47715         4.86448
     2004.96646         0.31215         4.81673
     2004.96919         6.54345         5.04310
     2004.97193         4.37775         5.01746
     2004.97467         1.08605         5.04134
     2004.97741        -4.10465         4.84591
     2004.98015         1.50765         4.81673
     2004.98288         4.07495         5.12092
     2004.98562         8.40625         4.96971
     2004.98836        12.76255         4.99005
     2004.99110         8.12785         5.07317
     2004.99384         7.20314         5.05372
     2004.99657        11.07244         5.02719
     2004.99931         5.65474         5.14215
     2005.00479        -2.06866         5.08290
     2005.00752         5.67464         5.04045
     2005.01026         4.18894         5.05195
     2005.01300         7.33824         5.00066
     2005.01471        10.38556        12.51093
     2005.01745        15.71585         9.37789
     2005.02121         6.91514         5.00773
     2005.02395        -0.86656         4.99182
     2005.02566         2.80575         9.19131
     2005.02943         5.81104         4.93522
     2005.03216         2.44934         5.00066
     2005.03490        -4.37336         5.04841
     2005.03679       -14.15572         7.77025
     2005.04038       -11.72876         5.25003
     2005.04312        -7.50146         5.00154
     2005.04585        -7.28416         5.00154
     2005.04859        -1.37986         5.10766
     2005.05036        -2.14244         8.91983
     2005.05407        -3.60726         5.12269
     2005.05681        -3.51896         4.99712
     2005.05954        -4.92066         4.99624
     2005.06228        -3.58736         5.03780
     2005.06502        -6.67106         5.00685
     2005.06776        -2.70176         5.03072
     2005.06992        -7.60757         7.03453
     2005.07323        -1.98116         4.98739
     2005.07597        -4.65786         5.12711
     2005.07871        -4.23056         5.03691
     2005.08145        -0.57327         4.92726
     2005.08418        -4.78497         4.94406
     2005.08692        -3.90467         4.88305
     2005.08966        -9.67037         5.02100
     2005.09240        -4.23607         4.94672
     2005.09514        -1.26777         4.83441
     2005.09787         1.05953         4.86183
     2005.10067        -5.11106         4.96794
     2005.10335         1.30013         4.87244
     2005.10609        -4.06357         4.95025
     2005.10882         3.76573         4.94672
     2005.11156        -3.38897         4.86536
     2005.11430        -3.29667         4.83441
     2005.11704         0.84663         4.86094
     2005.11978         0.25593         5.04045
     2005.12251        -0.74777         4.84768
     2005.12525        -1.87447         4.87155
     2005.12799        -4.88717         4.86713
     2005.13073        -3.02587         4.97501
     2005.13347        -4.26357         4.88128
     2005.13620        -1.79027         4.85121
     2005.13894        -0.49897         5.01834
     2005.14168        -2.51067         4.89631
     2005.14442        -2.79637         4.89720
     2005.14715        -7.09007         4.97678
     2005.14989        -1.20277         4.97855
     2005.15263        -3.48247         4.99624
     2005.15537        -2.03317         5.06610
     2005.15811         0.70813         5.01746
     2005.16084         2.47743         4.97944
     2005.16358         5.27473         4.97148
     2005.16632         5.06103         5.17398
     2005.16906         4.41132         5.01569
     2005.17185         2.47474         5.12181
     2005.17453        -2.39408         5.19874
     2005.17727        -3.50278         5.04841
     2005.18001        -2.91948         5.03957
     2005.18263        -2.15240         5.28894
     2005.18548        -0.74188         5.10501
     2005.18822         0.90942         5.02365
     2005.19096        -0.70428         5.00773
     2005.19370        -0.86098         5.24207
     2005.19644        -0.29368         5.00066
     2005.19917        -0.65738         5.00154
     2005.20191         3.11192         5.11031
     2005.20465         1.44722         5.07140
     2005.20739         4.45252         4.99005
     2005.21013         0.39082         5.22438
     2005.21286         1.93512         5.18636
     2005.21560        -0.67958         4.94406
     2005.21834         0.06872         4.97413
     2005.22108         3.20802         5.07671
     2005.22381         7.06232         4.98120
     2005.22655         0.22762         4.99447
     2005.22929         4.47392         4.97413
     2005.23117         7.39856         9.34871
     2005.23813         9.71303         7.03276
     2005.24024        15.43112         5.09528
     2005.24298         4.11542         4.97767
     2005.24572         3.77472         5.13153
     2005.25667        14.15891         5.24561
     2005.25941         7.92021         5.05902
     2005.26214        -0.08449         5.10943
     2005.26488         7.79181         5.18990
     2005.26762        12.50211         5.08467
     2005.27036        12.04841         5.03957
     2005.27310         8.59471         5.14480
     2005.27572         4.24279         5.32519
     2005.27851         2.55720         5.22615
     2005.28131        -0.52939         5.08555
     2005.28405        -3.30009         5.32166
     2005.28679         3.58721         5.09262
     2005.28952         3.69751         5.02100
     2005.29226         7.13481         5.14391
     2005.29500         8.24711         4.97413
     2005.29774         2.00241         5.01127
     2005.30047         0.09971         4.97767
     2005.30321         3.13701         5.00331
     2005.30595         0.14331         4.98828
     2005.30869         1.74761         5.05195
     2005.31143         4.04591         5.12181
     2005.31416         7.79821         5.02188
     2005.31690         2.20351         5.00950
     2005.31964        -1.25619         5.12092
     2005.32238         2.56511         5.14922
     2005.32512         1.61541         5.03426
     2005.32785        -5.06629         5.17310
     2005.33059         2.68101         5.02100
     2005.33333         2.08831         5.00066
     2005.33607         4.83561         5.12004
     2005.33880         1.69891         5.37294
     2005.34154         0.85521         5.05106
     2005.34428         3.10150         5.30485
     2005.34702         2.52380         5.00950
     2005.34976         3.89810         5.03161
     2005.35249         6.77140         5.12004
     2005.35523         3.96870         5.19255
     2005.35797       -19.77100         5.35703
     2005.36071        -6.18070         5.14568
     2005.36344        -4.57940         5.20316
     2005.36618         0.38290         5.26771
     2005.36892         5.16520         5.31989
     2005.37166         3.97850         5.23146
     2005.37440         6.17180         5.43308
     2005.37713         7.16910         5.21996
     2005.37987         6.29540         5.20139
     2005.38261         6.37370         5.25887
     2005.38535         4.04400         5.35084
     2005.38809        -6.72270         5.41539
     2005.39082        -2.02540         5.24030
     2005.39356        -2.51110         5.21200
     2005.39630        -1.85880         5.31281
     2005.39904        -3.70550         5.14480
     2005.40177        -5.70420         5.19697
     2005.40451        -2.48590         5.19078
     2005.40725        -4.51960         5.19078
     2005.40999        -2.13730         5.19255
     2005.41273        -6.17200         5.29778
     2005.41546       -14.00770         5.28009
     2005.41820        -4.06140         5.01304
     2005.42094        -3.52710         5.03515
     2005.42368        -4.99480         5.03603
     2005.42642        -1.69850         5.05283
     2005.42915        -4.23620         5.24649
     2005.43189        -3.16791         5.00331
     2005.43457        -2.70972         5.10677
     2005.43737        -1.91331         5.28452
     2005.44010        -4.67901         5.12446
     2005.44284        -5.11071         5.13153
     2005.44558        -4.53141         5.34907
     2005.44832        -9.66811         5.12711
     2005.45106       -12.84781         5.09174
     2005.45368        -9.13473         5.25622
     2005.45653         0.95179         5.16779
     2005.45927        -3.43491         5.18724
     2005.46201        -4.26861         5.00243
     2005.46475        -6.91131         5.04576
     2005.46748       -13.59101         5.06079
     2005.47022       -10.46071         5.07759
     2005.47296       -11.07141         5.11915
     2005.47570        -7.38811         5.18017
     2005.47843        -3.08481         5.15806
     2005.48117       -15.44751         5.09793
     2005.48391         2.76079         5.10589
     2005.48665        -2.85091         5.04134
     2005.48939        -6.34361         5.20581
     2005.49212         1.77469         5.02984
     2005.49486        -3.54301         5.02542
     2005.49760        -4.67171         5.00508
     2005.50034        -9.99141         5.05106
     2005.50308        -4.03911         5.07671
     2005.50581        -4.69181         5.15010
     2005.50855        -7.47351         4.98474
     2005.51129         0.10179         5.07759
     2005.51403        -7.74091         5.01392
     2005.51676         1.43339         4.98297
     2005.51950         4.06468         5.14391
     2005.52224        -0.30302         5.03868
     2005.52498         0.36928         5.09174
     2005.52772        -5.44542         5.02011
     2005.53045        -4.59212         5.25003
     2005.53319         1.98318         4.99270
     2005.53593         0.77048         5.02542
     2005.53867         5.73578         5.07759
     2005.54141         5.55008         5.09793
     2005.54414        -1.00562         5.01039
     2005.54688         2.83568         5.04929
     2005.54962         3.49198         5.03161
     2005.55236         1.56428         5.07229
     2005.55509         1.61658         5.05991
     2005.55783        -6.92412         5.28275
     2005.56057       -10.18282         5.27390
     2005.56331        -3.68452         5.28540
     2005.56605         1.68078         5.40124
     2005.56878         3.66808         5.15541
     2005.57152        -2.01662         5.24119
     2005.57426         1.19068         5.14391
     2005.57700         1.99098         5.24207
     2005.57974         1.86428         5.46049
     2005.58247         1.35058         5.23323
     2005.58521        -4.71112         5.41362
     2005.58795         5.15418         5.49851
     2005.59069        -4.81052         6.05385
     2005.59342        -2.97222         5.11473
     2005.59616         7.99608         5.02984
     2005.59890        12.65038         5.06256
     2005.60164        -2.20432         5.07494
     2005.60438         0.21898         5.26771
     2005.60711         2.97728         5.12446
     2005.60985         1.94957         5.17840
     2005.61259         1.78887         5.28982
     2005.61533         2.64117         5.04222
     2005.61807        -3.43253         5.03957
     2005.62080         7.80877         5.03338
     2005.62354         2.66707         5.28894
     2005.62628         0.06537         5.11562
     2005.62902         2.55567         5.16691
     2005.63175         0.38097         5.05195
     2005.63449         0.27927         5.16337
     2005.63723        -2.40143         5.06167
     2005.63997        -0.97813         5.05902
     2005.64271         3.64517         5.13684
     2005.64544         1.11647         5.22438
     2005.64818         1.15277         5.04310
     2005.65092         2.33707         5.04134
     2005.65366         5.58537         5.22969
     2005.65639         4.02767         5.07759
     2005.65913        -0.62303         5.07494
     2005.66187         3.08227         5.10324
     2005.66461         1.98657         4.99889
     2005.66735         0.78187         5.02542
     2005.67008         7.15417         5.03515
     2005.67282        -4.63753         5.05460
     2005.67556         9.79577         5.13507
     2005.67830         3.98807         4.99093
     2005.68104        -1.74463         4.97590
     2005.68377         1.38967         5.25180
     2005.68651         4.61597         5.04487
     2005.68925         7.08927         5.12800
     2005.69199         5.81157         5.04310
     2005.69472         4.98287         5.12446
     2005.69746         0.27516         5.07671
     2005.70020         5.60246         5.16160
     2005.70294         0.64876         5.15187
     2005.70568        -3.57494         5.15895
     2005.70841         4.00636         5.23500
     2005.71115         1.46466         5.07759
     2005.71389         3.12896         4.98916
     2005.71663         2.88926         5.14215
     2005.71937         2.39656         5.27744
     2005.72210         9.15486         5.17486
     2005.72484         2.08916         4.97944
     2005.72758         2.25646         5.01392
     2005.73032         0.45276         5.33050
     2005.73305         0.03806         5.12534
     2005.73579         1.61936         5.10235
     2005.73853         5.27966         5.32077
     2005.74127         1.16896         5.18636
     2005.74401         4.99926         5.10412
     2005.74674         7.42356         5.01481
     2005.74948         9.97586         4.98828
     2005.75222         0.65616         5.24472
     2005.75496        -0.28054         5.09086
     2005.75770         3.57176         5.05372
     2005.76043         1.16006         4.97501
     2005.76317         3.85936         4.96087
     2005.76597         7.91477         5.09439
     2005.76865        11.13096         4.98120
     2005.77138         6.58226         4.95114
     2005.77412         4.10456         4.93168
     2005.77686         4.96386         5.20228
     2005.77960         3.59816         5.09439
     2005.78234         1.25746         5.33934
     2005.78507         1.99675         4.99358
     2005.78781        13.10205         4.95114
     2005.79055         6.41835         4.96971
     2005.79329         3.86765         5.18548
     2005.79603         5.15795         5.12711
     2005.79876         7.74025         5.14215
     2005.80150        10.22155         5.12534
     2005.80424         6.94585         5.17575
     2005.80698         4.50715         5.03515
     2005.80971         4.64145         5.00862
     2005.81245         3.13775         5.04222
     2005.81519         3.68105         5.27037
     2005.81793         5.44635         5.11562
     2005.82067         8.34865         5.00685
     2005.82340         8.36995         4.99005
     2005.82614         7.53125         4.98386
     2005.82888         4.66955         5.00508
     2005.83162         0.59485         5.44457
     2005.83436         4.24915         5.11739
     2005.83709         2.23745         5.15276
     2005.83983        -3.57725         5.16602
     2005.84257        -0.55595         5.24914
     2005.84531        -4.58965         5.24826
     2005.84804        -0.30935         5.22969
     2005.85078         1.58895         5.19962
     2005.85352         3.21525         5.40832
     2005.85626         1.43555         5.44811
     2005.85900        -1.82415         5.09970
     2005.86173         0.59915         5.35526
     2005.86447         3.65945         5.13153
     2005.86721         3.57075         5.14834
     2005.86995        -5.10495         5.07848
     2005.87269        -3.34566         5.00950
     2005.87542        -7.51736         5.24384
     2005.87816        -3.80606         4.99270
     2005.88090        -4.92976         5.20847
     2005.88364        -1.30946         5.02807
     2005.88637        -5.40716         5.17575
     2005.88911        -6.78286         5.18548
     2005.89185         0.12844         5.15187
     2005.89459        -0.14226         5.01127
     2005.89733        -0.45196         5.04753
     2005.90006         1.06534         5.07052
     2005.90280        10.57564         5.12358
     2005.90554        -0.99606         4.98120
     2005.90828        -1.76676         5.02453
     2005.91102         2.39154         4.98386
     2005.91375        -1.89716         5.18459
     2005.91649        -0.84386         5.07229
     2005.91923        -0.09156         5.04929
     2005.92197         2.29474         4.98739
     2005.92470        -9.60596         5.12888
     2005.92744        -9.02766         4.96794
     2005.93018        -5.04036         5.06433
     2005.93292        -0.59206         6.79311
     2005.93566         0.03524         6.42083
     2005.93839         3.81354         5.00066
     2005.94113         3.70684         4.95998
     2005.94387         4.57814         4.97501
     2005.94661         7.01544         4.96263
     2005.94935         5.96774         4.91577
     2005.95208        -7.50196         4.93257
     2005.95482        -2.61466         5.33227
     2005.95756         1.43364         4.97059
     2005.96030         2.06693         4.93168
     2005.96303         2.32823         4.85829
     2005.96577        -1.50547         5.09881
     2005.96851        -8.37317         5.16072
     2005.97125        -7.00187         5.02100
     2005.97399         2.51543         5.07936
     2005.97672        -7.89327         5.12004
     2005.97946        -1.38697         5.06433
     2005.98220        -1.25967         5.33580
     2005.98494         7.28663         5.01039
     2005.98767         2.15593         5.07140
