# ================= DQRFIT RESULTS ================
# INPUT FILE: series/IDTF.rad
# OUTPUT: LDETRENDED
# FILTER FUNCTION: f(t)
# f(t)=+line(t)+annual(t)
# line(t)=+P 1+P 2*t
# annual(t)=+P 3*sin(2*pi*t+P 4)
# heav(t)=(t<0?0:1)
# TOTAL OBSERVATIONS MTOT=  827
# INITIAL TIME INTERVAL= 2022.7488 - 2020.1670 =  2.5818
# TOTAL OBSERVATIONS AFTER PREFILTER M=  827
# TIME-SPAN= 2022.7488 - 2020.1670 =  2.5818
# OBSERVATIONS: USED M=   827 REJECTED MTOT-M=     0 %USED=  100.0000
# N=  4 PARAMETERS
# MAXSIG= 175.00000
# MAXRES=  15.01416
# SCALE FACTOR FOR LENGTHS: SCL=  10.00000
# SCALE FACTOR FOR SIGMAS: SCLSIG=   1.00000
# CHI^2=    581.884 DOF=   823 CHI^2/DOF=   0.70703
# RMS=      4.729 SDEV=      4.732 MEAN=    0.00760
#  P #       PARAMETER +-    SIGMA %error PARAMETER NAME
# P 1 =      1286.48945 +-  421.374  32.75 YZERO                              
# P 2 =        -0.63153 +-    0.208  33.01 SLOPE                              
# P 3 =         2.59480 +-    0.230   8.88 ANNUAL AMPLITUDE                   
# P 4 =         2.89937 +-    0.121   4.18 ANNUAL PHASE                       
#       T            LDETRENDED       SIG_OBS
     2020.16700         1.88612         4.62383
     2020.16974         1.29885         4.53722
     2020.17248        -1.08842         4.50863
     2020.17522        -2.16070         4.57674
     2020.17796        -0.53297         4.61879
     2020.18069        -1.23724         4.56413
     2020.18343         2.91849         4.52881
     2020.18617        -1.96378         4.47836
     2020.18891        -4.45505         4.55909
     2020.19164        -1.67332         4.55488
     2020.19438        -2.70159         4.59945
     2020.19712        -1.72486         4.62047
     2020.19986        -5.30313         4.63056
     2020.20260        -0.09840         4.56918
     2020.20533        -1.77168         4.59356
     2020.20807         2.71405         4.64065
     2020.21081        -3.75622         4.61038
     2020.21355        -1.46449         4.99717
     2020.21629        -2.45676         4.80461
     2020.21902        -5.56403         4.66840
     2020.22176        -1.42430         4.56749
     2020.22450        -0.78357         4.61206
     2020.22724        -5.54484         4.59861
     2020.22997         1.44489         4.73566
     2020.23271         2.96061         4.55488
     2020.23545        -2.34966         4.60029
     2020.23819        -1.07993         4.54899
     2020.24093        -5.58720         4.57506
     2020.24366        -3.39347         4.62383
     2020.24640         0.94626         4.59440
     2020.24914        -7.72901         4.57927
     2020.25188        -7.01028         4.58011
     2020.25462        -4.19655         4.58179
     2020.25735        -2.63882         4.59020
     2020.26009         5.22391         4.60197
     2020.26283         5.23163         4.61879
     2020.26557        -3.13164         4.58179
     2020.26830        -8.60591         4.61458
     2020.27104        -2.65418         4.56329
     2020.27378        -1.70745         4.58431
     2020.27652         0.05528         4.56497
     2020.27926        -0.59699         4.75080
     2020.28199        -4.22626         4.63644
     2020.28473        -8.97353         4.57842
     2020.28747        -6.62880         4.64653
     2020.29021        -2.97108         4.58683
     2020.29295        -3.11235         4.55656
     2020.29568         1.20638         4.69783
     2020.29842         2.19111         4.63897
     2020.30116        -0.47416         4.82648
     2020.30390        -0.46643         4.66251
     2020.30663        -3.85070         4.82900
     2020.30937        -2.81697         4.80461
     2020.31211        -6.09824         4.74828
     2020.31485        -2.16151         4.61794
     2020.31759        -2.36078         4.53134
     2020.32029         0.03992         4.57674
     2020.32306        -5.63833         4.53975
     2020.32580        -4.45560         4.51872
     2020.32854         5.55613         4.66419
     2020.33128        -4.90314         4.55404
     2020.33401        -1.46741         4.55740
     2020.33675         0.64432         4.53218
     2020.33949        -4.11495         4.52041
     2020.34223        -6.12322         4.59692
     2020.34496        -2.86449         4.55824
     2020.34770        -7.77877         4.55152
     2020.35044        -4.62104         4.73062
     2020.35318        -6.51631         4.60365
     2020.35592        -6.58158         4.62972
     2020.35865        -0.59985         4.51872
     2020.36139        -1.50412         4.55909
     2020.36413        -2.41639         4.53050
     2020.36687        -1.15066         4.60113
     2020.36961         1.94407         4.58851
     2020.37234        -1.09620         4.69362
     2020.37508         0.87353         4.54479
     2020.37782        -0.61475         4.58347
     2020.38056        -2.79002         4.60617
     2020.38329        -1.60529         4.53975
     2020.38603        -1.15656         4.50695
     2020.38877        -5.07383         4.68521
     2020.39151        -4.32810         4.52041
     2020.39425        -3.85137         4.54899
     2020.39698        -6.67764         4.50275
     2020.39972        -4.74291         4.56833
     2020.40246        -6.14518         4.58263
     2020.40520        -4.32246         4.64065
     2020.40794        -5.03073         4.55488
     2020.41067        -1.50900         4.70455
     2020.41341        -2.77627         4.58767
     2020.41615        -5.42454         4.53554
     2020.41889        -4.44981         4.54311
     2020.42162        -9.45708         4.61374
     2020.42436        -3.13135         4.75164
     2020.42710        -0.62462         4.83068
     2020.42984         1.78811         4.68689
     2020.43258        -1.25116         4.61963
     2020.43531        -5.43644         4.62299
     2020.43805        -4.06271         4.71548
     2020.44079        -9.95798         4.65158
     2020.44353        -0.21425         4.63224
     2020.44626        -2.68052         4.51704
     2020.44900         2.86821         4.60281
     2020.45174         4.39994         4.60029
     2020.45448        -1.05133         4.59188
     2020.45722         2.60140         4.51284
     2020.45995         1.46613         4.57254
     2020.46269        -7.38215         4.47752
     2020.46543        -3.70142         4.58431
     2020.46817        -4.54469         4.56161
     2020.47091         2.11304         4.56413
     2020.47364        -3.30023         4.56665
     2020.47638         2.76350         4.50527
     2020.47912        -0.22177         4.57002
     2020.48186         3.45696         4.71716
     2020.48459        -3.08931         4.68605
     2020.48733         0.22542         4.68017
     2020.49007         5.78714         4.64401
     2020.49281        -2.26413         4.82648
     2020.49555         2.62460         4.63308
     2020.49828         0.61333         4.57674
     2020.50102        -1.79294         4.55656
     2020.50376        -1.95421         4.59440
     2020.50650       -10.70148         4.51536
     2020.50924        -6.60775         4.52629
     2020.51197        -6.55002         4.52797
     2020.51471         1.51571         4.56077
     2020.51745         3.15744         4.56413
     2020.52019         0.18816         4.63981
     2020.52292         3.75489         4.67428
     2020.52566        -6.23638         4.61290
     2020.52840        -0.22265         4.67849
     2020.53114         2.33508         4.64149
     2020.53388         1.30681         4.61879
     2020.53661        -2.46046         4.63056
     2020.53935        -3.18173         4.60870
     2020.54209        -1.05500         4.63140
     2020.54483         4.97373         4.64906
     2020.54757         2.11345         4.67512
     2020.55030        -1.43282         4.66924
     2020.55304        -2.92809         4.71212
     2020.55578         3.38964         4.73230
     2020.55852         5.42837         4.74239
     2020.56125         7.78410         4.78527
     2020.56399         5.07383         4.64485
     2020.56673         0.91456         4.77939
     2020.56947         2.20129         4.68689
     2020.57221         1.23102         4.85759
     2020.57494         1.20375         4.66419
     2020.57768         1.99447         4.69278
     2020.58042         4.43820         4.66251
     2020.58316        -6.79307         4.60029
     2020.58590        -2.83034         4.65746
     2020.58863         3.79539         4.70203
     2020.59137        -0.31888         4.65915
     2020.59409         9.78983         4.77939
     2020.59685         6.08258         4.78023
     2020.59958        -5.65369         4.80966
     2020.60232         0.53404         4.72389
     2020.60506         1.80476         4.68858
     2020.60780         2.29249         4.68437
     2020.61054         6.56922         4.74155
     2020.61327        -1.06905         4.74659
     2020.61601         3.79068         4.68774
     2020.61875        -2.32159         4.66924
     2020.62149        -2.63586         4.65999
     2020.62423        -0.44213         4.74155
     2020.62696        -3.83140         4.68017
     2020.62970        -3.97167         4.63560
     2020.63244         9.35006         4.93158
     2020.63518         2.25178         4.71296
     2020.63791        -1.06949         4.84077
     2020.64065        -3.77676         4.69026
     2020.64269        -6.61947         6.71334
     2020.64687        -0.00183         7.06734
     2020.64887         2.37643         4.87440
     2020.65160        -0.54284         4.86179
     2020.65434         0.83489         4.76509
     2020.65708         1.08362         4.67428
     2020.65982         3.95635         4.69278
     2020.66256         3.70807         4.69614
     2020.66529         3.69380         4.73650
     2020.66803         5.09453         4.71801
     2020.67077         5.01826         4.67428
     2020.67351         2.57899         4.67092
     2020.67624        -0.73228         4.69026
     2020.67898        -4.39855         4.65746
     2020.68172         0.78418         4.73987
     2020.68446         4.59391         4.74575
     2020.68720         0.34664         4.73987
     2020.68993        -1.64963         4.69194
     2020.69267        -2.02691         4.80293
     2020.69541        -2.15118         5.00137
     2020.69815         1.77055         4.80209
     2020.70089        -2.60672         4.71632
     2020.70362        -5.25599         4.69951
     2020.70636        -4.42726         4.92822
     2020.70910        -1.99953         5.07200
     2020.71184         0.34620         4.78275
     2020.71457        -1.76607         4.81050
     2020.71731        -2.59234         4.86179
     2020.72005        -3.89862         4.80377
     2020.72279        -0.73089         4.70455
     2020.72553         5.46484         4.84329
     2020.72826         2.77157         4.83993
     2020.73100         5.17230         4.73230
     2020.73374         3.35103         4.74239
     2020.73648         4.53076         4.72978
     2020.73921        -1.04251         4.73230
     2020.74195         2.45022         4.71801
     2020.74469        -3.41905         4.79705
     2020.74743        -3.66332         4.73230
     2020.75017        -0.89460         4.70455
     2020.75290        -4.27287         4.73735
     2020.75564        -0.25514         4.66840
     2020.75838         1.97759         4.61458
     2020.76123         1.20639         4.80882
     2020.76386         1.24505         4.62551
     2020.76659         3.39078         4.61710
     2020.76933         5.47851         4.70792
     2020.77207         9.35224         4.63476
     2020.77481         7.65797         4.66840
     2020.77754         4.71469         4.66419
     2020.78028         4.77742         4.63476
     2020.78302         3.35515         4.83741
     2020.78576         6.34288         4.69362
     2020.78850        -4.88939         4.62972
     2020.79123        -2.00266         4.65915
     2020.79397        -1.79693         4.68774
     2020.79671        -0.01120         4.68605
     2020.79945        -1.22147         4.72221
     2020.80219         2.13126         5.00726
     2020.80492         2.84199         4.67092
     2020.80766        -1.14429         4.72810
     2020.81040        -0.77456         4.72978
     2020.81314         1.55217         4.59608
     2020.81587        -1.50410         4.58431
     2020.81861        -0.03937         4.54731
     2020.82135         4.38436         4.58936
     2020.82409        -0.07691         4.79705
     2020.82683        -0.17418         4.65915
     2020.82956        -1.47245         4.65242
     2020.83230         3.99628         4.64233
     2020.83504         0.19300         4.64653
     2020.83778         3.46373         4.51620
     2020.84052         2.46346         4.58347
     2020.84325        -2.94481         4.73735
     2020.84599         2.86092         4.70287
     2020.84873         9.02165         4.59272
     2020.85147         5.41638         4.58599
     2020.85420        10.20911         4.52713
     2020.85694         9.67484         4.67512
     2020.85968         9.35357         4.65410
     2020.86242         8.82529         4.66503
     2020.86516         3.81702         4.77266
     2020.86789         7.76175         5.45123
     2020.87063        10.58248         4.69362
     2020.87337        10.05321         4.67680
     2020.87611         9.48894         4.78023
     2020.87885         6.96767         4.91392
     2020.88158         4.95040         4.83404
     2020.88432         6.77813         4.74996
     2020.88706         1.50286         4.96522
     2020.88980        -1.00741         4.78359
     2020.89253         2.36231         4.63392
     2020.89527         9.32404         4.82648
     2020.89801         8.06777         4.80545
     2020.90075        11.05950         4.72641
     2020.90349         6.27923         4.70876
     2020.90622         2.23996         4.77434
     2020.90896         2.41669         4.77266
     2020.91170         3.44642         4.82984
     2020.91444         6.47415         4.74407
     2020.91718         0.65988         4.70119
     2020.91991        -4.16840         4.69783
     2020.92265        -2.91667         4.74575
     2020.92539        -4.05594         4.72305
     2020.92813        -4.71221         4.69362
     2020.93086        -3.26048         4.65999
     2020.93360        -1.35575         4.68689
     2020.93634        -1.52802         4.65326
     2020.93908        -0.68829         4.67092
     2020.94182        -2.36856         4.73903
     2020.94455        -0.76283         4.71632
     2020.94729        -4.86410         4.71464
     2020.95003        -8.69838         4.74996
     2020.95277       -12.14165         4.74071
     2020.95551        -5.18092         4.82732
     2020.95824        -1.66619         4.71212
     2020.96098        -0.29946         4.64317
     2020.96372        -3.19073         4.89038
     2020.96646         1.08000         4.77014
     2021.27583         0.80538         4.63476
     2021.27857        -3.34889         4.72389
     2021.28131        -0.79116         4.75332
     2021.28405         2.69557         4.73398
     2021.28679         0.85130         4.72978
     2021.28952        -1.16797         4.71716
     2021.29226        -6.51225         4.75753
     2021.29500        -2.46152         4.74155
     2021.29774         3.81621         4.89795
     2021.30047        -1.90306         4.75080
     2021.30321         3.05967         4.70539
     2021.30595         6.26440         4.84581
     2021.30869         9.62213         4.90131
     2021.31143         3.90886         4.68774
     2021.31416        10.83259         4.62131
     2021.31690         6.29132         4.60449
     2021.31964         4.12805         4.73903
     2021.32238         1.37377         4.78780
     2021.32512       -10.29650         4.66251
     2021.32785        -0.56777         4.60785
     2021.33059         8.52596         4.68437
     2021.33333         7.51669         4.68101
     2021.33607         1.29942         4.66083
     2021.33880        -0.00285         4.66755
     2021.34154        -2.74312         4.68353
     2021.34428        -3.31839         4.71716
     2021.34702        -7.55466         4.69026
     2021.34976        -1.22794         4.72053
     2021.35249        -4.19521         4.67344
     2021.35523        -2.16048         4.69530
     2021.35797        -4.03475         4.67849
     2021.36071        -6.60602         4.74575
     2021.36344        -8.56429         4.68942
     2021.36618        -7.25756         4.70119
     2021.36892        -1.58383         4.73230
     2021.37166         1.59890         4.70203
     2021.37440        -2.10337         4.74323
     2021.37713         3.23936         4.74239
     2021.37987         0.57208         4.80629
     2021.38261         2.78481         5.06444
     2021.38535         2.21654         4.91140
     2021.38809        -0.38673         4.83909
     2021.39082        -0.85000         4.73314
     2021.39356        -2.55927         4.70876
     2021.39630        -1.39754         4.78107
     2021.39904        -2.96181         4.75921
     2021.40177         1.48292         4.72473
     2021.40451         2.33265         4.85338
     2021.40725        -1.77663         4.65915
     2021.40999         0.48510         4.70287
     2021.41273         1.58183         4.72137
     2021.41546        -1.48744         4.77434
     2021.41820        -1.98871         4.76089
     2021.42094        -1.37398         4.76089
     2021.42368         4.28775         4.75416
     2021.42642         3.40348         4.84497
     2021.42915         3.77921         4.76341
     2021.43189         1.32394         4.72894
     2021.43463         1.95167         4.75416
     2021.43737        -4.58261         4.75584
     2021.44010        -0.77988         4.87272
     2021.44284        -5.49215         4.82311
     2021.44558        -6.24842         4.78780
     2021.44832         3.33131         4.86515
     2021.45106        -0.40296         4.83236
     2021.45379         3.15577         4.87693
     2021.45653        -3.37350         4.80714
     2021.45927         3.10623         4.73566
     2021.46201        -1.98504         4.71716
     2021.46475        -2.91432         4.71969
     2021.46748         0.96541         4.78948
     2021.47022         1.78614         4.85086
     2021.47296         3.21387         4.82143
     2021.47570         1.70560         4.85843
     2021.47843        -5.04967         4.81723
     2021.48117        -2.52794         4.83657
     2021.48391        -6.78721         4.75584
     2021.48665        -2.44548         4.79368
     2021.48939        -1.43475         4.75416
     2021.49212        -5.86003         4.80798
     2021.49486        -3.31130         4.85843
     2021.49760        -0.88457         4.86515
     2021.50034        -5.70984         4.92654
     2021.50308        -1.67711         4.89038
     2021.50581         3.70762         4.76173
     2021.51129         0.17908         4.83572
     2021.51403         3.85781         4.81975
     2021.51676         5.06854         4.78527
     2021.51950         2.84227         4.86600
     2021.52224        -5.14201         4.79536
     2021.52498         3.71572         4.74407
     2021.52772        -1.24455         4.69698
     2021.53045         2.84818         4.76005
     2021.53319        -0.42209         4.73482
     2021.53593         0.08664         4.82648
     2021.53867        10.28437         5.00389
     2021.54141         4.75410         4.88281
     2021.54414         0.16183         4.83488
     2021.54688        -9.64744         4.72894
