# ================= DQRFIT RESULTS ================
# INPUT FILE: series/INW1.rad
# OUTPUT: LDETRENDED
# FILTER FUNCTION: f(t)
# f(t)=+line(t)+annual(t)+jumps(t)
# line(t)=+P 1+P 2*t
# annual(t)=+P 3*sin(2*pi*t+P 4)
# jumps(t)=+P 5*heav(t-2008.5640  )
# heav(t)=(t<0?0:1)
# TOTAL OBSERVATIONS MTOT= 1759
# INITIAL TIME INTERVAL= 2012.4735 - 2006.6010 =  5.8726
# TOTAL OBSERVATIONS AFTER PREFILTER M= 1758
# TIME-SPAN= 2012.4735 - 2006.6010 =  5.8726
# OBSERVATIONS: USED M=  1758 REJECTED MTOT-M=     1 %USED=   99.9431
# N=  5 PARAMETERS
# MAXSIG= 175.00000
# MAXRES=  26.01319
# SCALE FACTOR FOR LENGTHS: SCL=  10.00000
# SCALE FACTOR FOR SIGMAS: SCLSIG=   1.00000
# CHI^2=   2058.112 DOF=  1753 CHI^2/DOF=   1.17405
# RMS=      6.167 SDEV=      6.169 MEAN=    0.02627
#  P #       PARAMETER +-    SIGMA %error PARAMETER NAME
# P 1 =      1824.49095 +-  323.988  17.76 YZERO                              
# P 2 =        -0.90445 +-    0.161  17.84 SLOPE                              
# P 3 =         5.26709 +-    0.209   3.97 ANNUAL AMPLITUDE                   
# P 4 =         3.02748 +-    0.056   1.84 ANNUAL PHASE                       
# P 5 =        -1.97168 +-    0.553  28.04 OFFSET 2008.5640                   
#       T            LDETRENDED       SIG_OBS
     2006.60095        -3.64449         6.10031
     2006.60369         4.98598         6.18158
     2006.60643         3.54346         6.15557
     2006.60917         1.43394         6.18483
     2006.61190        -1.47559         6.07972
     2006.61464         3.21489         6.10465
     2006.61738         4.90336         6.16749
     2006.62012         8.93584         6.23359
     2006.62286         2.58932         6.10573
     2006.62559         1.33079         6.04938
     2006.75975         8.18613         6.16099
     2006.76249        12.46161         6.20000
     2006.76522         6.04108         6.27368
     2006.76796         0.73756         6.25526
     2006.77070        -2.52497         6.11115
     2006.77344        -3.13149         6.15124
     2006.77618         4.22599         6.25309
     2006.77891        12.30746         6.08622
     2006.78165         9.33694         6.30727
     2006.78439         2.99442         6.08189
     2006.78713        12.09789         6.22383
     2006.78987        23.45737         6.11115
     2006.79260        10.88884         6.05155
     2006.79534         5.70232         6.18266
     2006.79808         9.63280         6.11006
     2006.80082         9.98227         6.34194
     2006.80355         0.06775         6.07647
     2006.80629         2.85923         6.11765
     2006.80903         8.93770         6.17941
     2006.81177         5.85818         6.21192
     2006.81451         3.39065         6.38203
     2006.81724        -0.65587         6.22492
     2006.81998         1.80161         6.09814
     2006.82272         2.68008         6.09706
     2006.82546        11.67956         6.13932
     2006.82820         7.68004         6.01146
     2006.83093         2.92351         6.07214
     2006.83367         5.41699         6.03855
     2006.83641         1.65746         6.15774
     2006.83915        22.77394         6.18049
     2006.84188        11.36842         6.48388
     2006.84462         8.99889         6.34844
     2006.84736         3.67737         6.15665
     2006.85010         6.22185         6.27584
     2006.85284         9.01232         6.46113
     2006.85557         7.34180         6.77860
     2006.85831        17.27127         6.41779
     2006.86105        12.37975         6.46655
     2006.86379        -0.03877         6.42320
     2006.86653         7.01670         6.65617
     2006.86926         7.73518         6.10681
     2006.87200         5.23166         6.17291
     2006.87474        11.93713         6.25959
     2006.87748         6.92261         6.18483
     2006.88021         1.59908         6.12632
     2006.88295         1.44356         6.14907
     2006.88569        16.65004         6.34519
     2006.88843         4.89551         6.15557
     2006.89117        -0.09301         6.12307
     2006.89390        -3.14453         6.79811
     2006.89664         1.62394         6.41454
     2006.89938         2.06542         6.22167
     2006.90212         3.18589         6.06780
     2006.90485        11.87037         6.18374
     2006.90759         7.67885         6.01796
     2006.91033        -2.05268         6.11115
     2006.91295         1.34270         6.24334
     2006.91581        -4.01572         6.07972
     2006.91854       -11.42825         6.10139
     2006.92128        -8.44477         6.10031
     2006.92402        -5.73430         6.16207
     2006.92676        -3.37582         6.11548
     2006.92950        -6.31134         6.28885
     2006.93223        -4.06687         6.13823
     2006.93497        -4.09239         6.37770
     2006.93771         4.76109         6.08297
     2006.94045        10.09356         6.16424
     2006.94318        12.56904         6.24984
     2006.94592         0.18751         6.22925
     2006.94866        10.57799         6.19566
     2006.95140         4.17147         6.09706
     2006.95414        10.58194         6.64316
     2006.95687         4.35542         6.21300
     2006.95961         0.08690         6.17182
     2006.96235        -0.15563         6.13607
     2006.96509        -0.09015         6.29210
     2006.96783        -3.35268         6.16207
     2006.97056         0.28180         6.20541
     2006.97330        -3.35072         6.18374
     2006.97604        -0.13725         6.12848
     2006.97878        -4.53977         6.12415
     2006.98151        10.02770         6.15340
     2006.98425         7.37218         6.44054
     2006.98699        15.72466         6.41670
     2006.98973        -5.15887         6.29643
     2006.99794        -7.14544         6.32569
     2007.00342         3.03351         6.37120
     2007.00616         2.75899         6.38095
     2007.00889        -3.74053         6.34302
     2007.01163        -0.93706         6.38528
     2007.01437        -0.11958         6.24334
     2007.01711        -8.19110         6.24659
     2007.01984       -17.95763         6.21733
     2007.02258        -5.54715         6.21517
     2007.02504        -4.73093         7.26728
     2007.05544        -1.59544         5.87277
     2007.05817        -9.97696         6.18808
     2007.06091        -5.59748         6.01905
     2007.06365        -8.98601         5.97245
     2007.06639        -6.17953         6.11331
     2007.06913       -10.77606         5.92911
     2007.07186        -8.02058         5.93995
     2007.07460       -12.16910         5.92153
     2007.07734        -9.29763         5.91178
     2007.08008        -9.56215         5.95078
     2007.08282        -7.86567         5.91286
     2007.08555        -8.58220         6.07864
     2007.08829       -10.91172         6.01688
     2007.09103        -2.65225         6.01688
     2007.09377         1.52423         5.98437
     2007.09650         0.61371         6.06672
     2007.09924        -4.71782         6.10248
     2007.10198       -13.05634         5.99737
     2007.10472        -3.16286         6.12090
     2007.10746        -3.66339         6.13932
     2007.11019         1.44309         6.01580
     2007.11293         2.36556         6.03747
     2007.11567        -4.59596         6.11223
     2007.11841       -11.02048         6.04613
     2007.12115        -7.98501         5.97570
     2007.12388        16.25547         6.37011
     2007.12662        -7.89905         6.08406
     2007.12936        -7.10058         6.20108
     2007.13210        -5.82510         6.14690
     2007.13466        -6.11278         6.43946
     2007.13757        -2.61215         6.00388
     2007.14031        -0.94867         5.93561
     2007.14305        -5.83220         5.88144
     2007.14579         1.24828         5.97787
     2007.14852        -2.38524         5.97245
     2007.15126         3.72523         5.93345
     2007.15400         4.91571         5.97137
     2007.15674         3.92418         5.99521
     2007.15948         0.70666         5.94753
     2007.16221        -1.74286         6.18158
     2007.16495        -4.90439         6.13065
     2007.16769        -4.68191         6.11981
     2007.17043        -8.93543         6.12848
     2007.17316        -8.97996         6.08731
     2007.17590        -8.93848         6.11873
     2007.17864        -1.96201         6.20433
     2007.18138         5.00247         6.17182
     2007.18412         2.17295         6.11656
     2007.18685        -3.37558         6.11440
     2007.18959        -4.43810         6.15991
     2007.19233       -10.26262         6.16857
     2007.19507       -10.66115         6.08622
     2007.19780        -6.63367         5.95078
     2007.20054        -7.24120         6.04505
     2007.20328        -3.04872         6.02555
     2007.20602        -9.48824         5.98546
     2007.20876       -11.17377         5.99412
     2007.21149        -4.43729         5.97679
     2007.21423         1.86719         6.05914
     2007.21697        -6.89534         6.02988
     2007.21971        -8.22086         5.96053
     2007.22245        -0.05739         6.01688
     2007.22518         8.19109         5.94428
     2007.22792         4.72857         5.96487
     2007.23066        -3.05396         5.94645
     2007.23340         3.69052         6.12740
     2007.23613        -4.22800         6.08406
     2007.23887       -13.55153         5.93453
     2007.24161        -9.35005         5.92911
     2007.24435        -1.50258         5.97354
     2007.24709        -2.99110         6.01905
     2007.24982        -5.74562         6.00929
     2007.25256        -8.19315         5.97029
     2007.25530       -10.07667         5.99954
     2007.25804       -11.47519         6.03855
     2007.26078        -9.22572         6.09814
     2007.26351        -6.36224         6.15774
     2007.26625        -5.38677         6.10356
     2007.26899         4.31471         6.08189
     2007.27173         0.66919         6.12957
     2007.27446         3.55266         6.15015
     2007.27720        -2.71286         6.08622
     2007.27994        -4.71538         6.12090
     2007.28268        -1.31691         6.29751
     2007.28542         4.66657         6.24550
     2007.31553        -2.50119         6.04505
     2007.31827        -0.34572         6.15557
     2007.32101        -5.75224         6.13498
     2007.32375       -10.11076         6.12198
     2007.32648        -3.47129         6.33219
     2007.32922        -1.69281         6.08297
     2007.33196         2.45466         6.27151
     2007.33470        -4.15086         6.35061
     2007.33744        -5.65138         6.04938
     2007.34017        -6.30191         6.10248
     2007.34291       -10.47943         6.15124
     2007.34565       -10.59195         6.14365
     2007.34839        -7.10048         6.20108
     2007.35112        -8.73600         6.19133
     2007.35386        -7.39253         6.53589
     2007.35660       -10.14505         6.58357
     2007.35934        -2.72957         6.16532
     2007.36208        -7.58710         6.10465
     2007.36481        -9.05762         6.38420
     2007.36755        -9.33814         6.09381
     2007.37029        -0.82067         6.13173
     2007.37303        -1.62519         6.35169
     2007.37577        -9.88872         6.35277
     2007.37850        -1.34624         6.24117
     2007.38124        -4.78476         6.21625
     2007.38398        -2.16529         6.16316
     2007.38672         6.39319         6.34844
     2007.38945       -14.45133         6.21950
     2007.39219        -8.15286         6.37986
     2007.39493        -7.95338         6.10356
     2007.39767        -9.86391         6.09273
     2007.40041        -6.30743         6.36469
     2007.40314        -0.77295         6.19675
     2007.40588       -11.34348         6.19133
     2007.40856        -8.29205         6.33761
     2007.41136       -10.79352         6.14690
     2007.41410        -7.38405         6.10248
     2007.41683        -5.95857         6.22167
     2007.41957        -2.14110         6.16532
     2007.42231        -6.51062         6.24984
     2007.42505         0.20386         6.38528
     2007.42778         4.65033         6.06997
     2007.43052         0.67381         6.08839
     2007.43326        -2.10671         6.05697
     2007.43600        -5.37724         6.09273
     2007.43874         8.70524         6.48605
     2007.44147        -0.95329         6.18808
     2007.44421        -6.02381         6.22492
     2007.44695       -14.76233         6.16857
     2007.44969       -11.21586         6.18808
     2007.45243        -6.72938         6.16532
     2007.45516        -8.58290         6.16641
     2007.45790         0.37757         6.16966
     2007.46064        -0.59395         6.07972
     2007.46338        -4.26048         6.15015
     2007.46611        -4.41800         6.06672
     2007.46885        -2.26752         6.11440
     2007.47165        -3.34700         6.15340
     2007.47456         0.03564         6.81436
     2007.47707        -4.46209         6.29535
     2007.47980       -14.69562         6.21083
     2007.48254       -14.47014         6.08081
     2007.48528       -11.41667         5.98004
     2007.48802        -6.56919         5.99954
     2007.49076        -1.75071         6.15124
     2007.49378        -3.43998         6.96714
     2007.49623        -5.48176         6.19783
     2007.49897        -4.88228         6.05697
     2007.50171        -9.67581         6.00171
     2007.50444        -9.24433         6.06347
     2007.50718        -7.11586         6.02988
     2007.50992        -7.49838         6.05264
     2007.51266        -8.47590         6.19675
     2007.51540         1.35857         6.03530
     2007.51813        -2.56495         5.96379
     2007.52087        -5.34747         6.11223
     2007.52350        -4.97510         6.37011
     2007.52635        -2.42552         6.07322
     2007.52908        -8.30805         6.30727
     2007.53182         0.23143         6.28018
     2007.53456        -3.63509         6.17507
     2007.53730         1.72938         6.18266
     2007.54004         3.75686         6.37661
     2007.54277        -4.50166         6.19133
     2007.54551         9.27881         6.36361
     2007.54825        -4.74371         6.06239
     2007.55099         1.32276         6.21192
     2007.55373         1.95724         6.15774
     2007.55646        -4.54228         6.19458
     2007.55920       -11.03381         6.27801
     2007.56194        -1.93233         6.08622
     2007.56468         2.28315         6.10898
     2007.56741        -0.30938         6.11006
     2007.57015         6.56410         6.20975
     2007.57289         2.44957         6.14365
     2007.57563        -4.25995         6.06997
     2007.57837        -1.17447         6.13390
     2007.58110         6.53100         6.03313
     2007.58384         4.54048         6.10248
     2007.58658         3.53096         6.43404
     2007.58932        -2.03457         6.03096
     2007.59206        -3.79609         6.08731
     2007.59469        10.63329         6.47738
     2007.59754         0.03387         6.31593
     2007.60027        12.35834         6.11656
     2007.60301        -0.39419         6.08622
     2007.60574         8.14529         6.04397
     2007.60848         2.73777         5.98112
     2007.61122         9.22924         5.98546
     2007.61396        -1.70628         6.06997
     2007.61670        -2.21081         6.43296
     2007.61943        -1.06233         6.38853
     2007.62217         8.48415         6.28668
     2007.62491         1.83762         6.33435
     2007.62765         8.10110         6.40370
     2007.63039         8.58558         6.54131
     2007.63312         7.53405         6.27368
     2007.63586         2.60053         6.16316
     2007.63860        -3.03700         6.15774
     2007.64134         3.49248         6.02663
     2007.64407         6.35596         6.30402
     2007.64681        -0.38857         6.29426
     2007.64955         6.60991         6.48497
     2007.65229        -1.94161         6.35277
     2007.65503         2.47086         6.25742
     2007.65776         2.95734         6.21517
     2007.66050        -3.37419         6.34952
     2007.66324         8.95029         6.33110
     2007.66598         4.65677         6.32135
     2007.66872         1.73624         6.24225
     2007.67145         3.27672         6.25309
     2007.67419        -0.27980         6.24442
     2007.67693        10.12067         6.27584
     2007.67967         4.66915         6.23467
     2007.68240         6.80862         6.27043
     2007.68514         2.34810         6.46655
     2007.68788         3.99258         6.37445
     2007.69062         5.55405         6.25309
     2007.69336         5.87953         6.17833
     2007.69609         6.76801         6.19675
     2007.69883         4.95748         6.21083
     2007.70157         3.66096         6.25309
     2007.70431         7.20943         6.47738
     2007.70705         9.75291         6.35603
     2007.70978         8.32039         6.27584
     2007.71252        10.66486         6.39503
     2007.71526         6.22434         6.06672
     2007.71800         2.88382         6.18049
     2007.72073        11.36029         6.06889
     2007.72347        10.06577         6.16207
     2007.72621         8.72924         6.12198
     2007.72895         1.66372         6.06130
     2007.73169         5.23920         6.11765
     2007.73442         3.79767         6.09164
     2007.73716         6.94415         6.30077
     2007.73990        12.03163         6.12415
     2007.74264        16.59610         6.06239
     2007.74538         9.38758         6.07106
     2007.74811        13.78105         6.23034
     2007.75085         9.37453         6.43296
     2007.75359        13.54701         6.29643
     2007.75633        11.98248         6.12848
     2007.75906         8.99096         6.01038
     2007.76180         9.35744         6.12090
     2007.76454         1.55391         6.11440
     2007.76728         4.00439         6.41345
     2007.77002         5.77886         6.54456
     2007.77275         5.89334         6.33110
     2007.77549         6.31782         6.11873
     2007.77823         7.44029         6.06780
     2007.78097         6.26877         6.07864
     2007.78371         3.88525         6.06455
     2007.78644        10.42872         6.02446
     2007.78918         9.90720         6.12090
     2007.79192        19.75867         6.20975
     2007.79466        18.31115         6.34627
     2007.79739        19.16163         6.31702
     2007.80013         6.36010         6.12740
     2007.80264        11.71937         6.49255
     2007.80561         0.40206         6.12957
     2007.80835         0.44453         6.23684
     2007.81108         9.25101         6.12523
     2007.81382        -2.45352         6.31377
     2007.81656        -1.57704         6.38095
     2007.81930        -2.82656         6.19458
     2007.82203        -2.97709         6.20975
     2007.82477         3.11939         6.19350
     2007.82751         2.41687         6.17724
     2007.83025         3.31934         6.12090
     2007.83299         6.65582         6.17724
     2007.83572        -1.87471         6.02230
     2007.83846         2.37977         6.09164
     2007.84120         6.95225         6.05264
     2007.84394        -2.01428         6.04722
     2007.84668         0.11420         6.03313
     2007.84941         2.64068         6.04722
     2007.85215        16.28015         6.20866
     2007.85489        12.40863         6.40587
     2007.85763        10.06610         6.09814
     2007.86036         5.22658         6.01471
