# ================= DQRFIT RESULTS ================
# INPUT FILE: series/IWAC.rad
# OUTPUT: LDETRENDED
# FILTER FUNCTION: f(t)
# f(t)=+line(t)+annual(t)
# line(t)=+P 1+P 2*t
# annual(t)=+P 3*sin(2*pi*t+P 4)
# heav(t)=(t<0?0:1)
# TOTAL OBSERVATIONS MTOT= 1392
# INITIAL TIME INTERVAL= 2011.9122 - 2007.9343 =  3.9779
# TOTAL OBSERVATIONS AFTER PREFILTER M= 1392
# TIME-SPAN= 2011.9122 - 2007.9343 =  3.9779
# OBSERVATIONS: USED M=  1392 REJECTED MTOT-M=     0 %USED=  100.0000
# N=  4 PARAMETERS
# MAXSIG= 175.00000
# MAXRES=  17.96360
# SCALE FACTOR FOR LENGTHS: SCL=  10.00000
# SCALE FACTOR FOR SIGMAS: SCLSIG=   1.00000
# CHI^2=   1026.234 DOF=  1388 CHI^2/DOF=   0.73936
# RMS=      5.007 SDEV=      5.009 MEAN=    0.07186
#  P #       PARAMETER +-    SIGMA %error PARAMETER NAME
# P 1 =      -668.36902 +-  234.717  35.12 YZERO                              
# P 2 =         0.33279 +-    0.117  35.09 SLOPE                              
# P 3 =         3.07499 +-    0.187   6.09 ANNUAL AMPLITUDE                   
# P 4 =        -2.75806 +-    0.080   2.90 ANNUAL PHASE                       
#       T            LDETRENDED       SIG_OBS
     2007.93435         0.66443         4.95624
     2007.93709        -2.64348         5.00267
     2007.93982        -3.06039         4.96828
     2007.94256         6.42170         4.98290
     2007.94530        -3.23421         5.07576
     2007.94804       -11.60912         4.99751
     2007.95078         2.84997         4.98891
     2007.95345         7.28107         5.02073
     2007.95619         8.19316         4.90551
     2007.95893         9.16625         5.01213
     2007.96167         6.72734         4.94076
     2007.96440         3.12443         5.01901
     2007.96714         5.43852         5.02073
     2007.96988        -7.94139         5.11789
     2007.97262        -3.45830         5.05856
     2007.97535        -7.78821         4.95624
     2007.97809         3.53487         4.89691
     2007.98083        -4.06204         4.91497
     2007.98357         6.34705         4.85478
     2007.98631         1.94514         5.00181
     2007.98904        -1.42977         5.05942
     2007.99178        -1.64368         4.98204
     2007.99452        -5.04559         5.02417
     2007.99726        -3.99450         4.84274
     2008.00045        -4.01257         6.05342
     2008.00273        -4.16633         4.97258
     2008.00547         2.08376         4.80404
     2008.00821         1.83085         4.78599
     2008.01095         4.44794         4.83672
     2008.01368         0.92903         4.76535
     2008.01642        -1.83088         4.79975
     2008.01916        -0.72579         4.87885
     2008.02190        -3.57270         4.81436
     2008.02464         4.27639         4.73440
     2008.02737        -1.23353         4.77051
     2008.03011        -2.99444         4.89175
     2008.03285        -7.53035         4.79287
     2008.03559        -7.79526         4.83328
     2008.03833        -2.41017         4.73612
     2008.04106        -7.83908         4.81866
     2008.04380        -8.01799         4.85478
     2008.04654        -5.42590         4.83500
     2008.04928        -9.19681         4.81436
     2008.05201       -11.12573         4.75761
     2008.05475        -1.43364         4.76621
     2008.05749        -5.14455         4.76019
     2008.06023         0.06054         4.75073
     2008.06297         5.02863         4.71720
     2008.09417        -5.99375         9.57541
     2008.09582        -3.52230         4.99321
     2008.09856        -4.12121         4.88659
     2008.10130         0.15187         4.92185
     2008.10403        -4.53704         4.79373
     2008.10677        -3.61795         4.77739
     2008.10951        -8.54186         4.78255
     2008.11225        -8.55177         4.74987
     2008.12872         7.70575         6.16521
     2008.13141         7.58985         4.74299
     2008.13415         9.17594         4.79373
     2008.13689         2.56603         4.79889
     2008.13963        -2.03488         4.88917
     2008.14236         7.22021         4.73956
     2008.14510         0.47830         4.72666
     2008.14784         7.97638         4.76277
     2008.15058        -4.16353         4.73182
     2008.15331        -8.90244         4.81694
     2008.15697        -3.91065         7.42576
     2008.15879        -1.24726         4.68968
     2008.16153        -2.56017         4.74299
     2008.16427         0.80492         4.80404
     2008.16700        -5.24299         4.73612
     2008.17014         1.62796         5.68024
     2008.17248        -2.43182         4.68280
     2008.17522        -2.87773         4.77137
     2008.17796        -8.96764         4.82124
     2008.18069        -8.40355         4.75761
     2008.18343        -1.06846         4.69312
     2008.18611        -1.28735         4.87283
     2008.18891        -5.10028         4.85650
     2008.19164         0.37481         4.80147
     2008.19438        -5.14210         4.75933
     2008.19712         0.50398         5.85651
     2008.19986         0.96107         4.77137
     2008.20260        -1.43184         4.70172
     2008.20533         1.81725         4.72580
     2008.20807        -2.85066         4.92786
     2008.21355        -2.60748         5.20302
     2008.21629         2.62261         4.81866
     2008.21902        -1.06430         4.90551
     2008.22176        -9.19922         4.77997
     2008.22450        -4.47213         4.93302
     2008.22724        -5.35104         4.78083
     2008.22997         0.48005         4.95280
     2008.23271        -1.06686         4.96656
     2008.23544         2.79723         6.73701
     2008.23819        -4.85768         5.03105
     2008.24093         3.54441         4.90637
     2008.24366       -12.69350         4.90121
     2008.24640         5.21358         5.88747
     2008.24914         0.76167         4.97430
     2008.25188         2.92776         4.98891
     2008.25462         0.10385         4.95452
     2008.25735         2.03694         4.89175
     2008.26009         1.25103         4.88659
     2008.26283         0.47412         4.90551
     2008.26557         1.24221         4.89175
     2008.26830        -1.88270         4.77911
     2008.27104        -2.11662         4.84876
     2008.27378         0.97247         4.77481
     2008.27652        -3.41744         4.97086
     2008.27926         1.97165         4.90895
     2008.28199         2.10574         4.93130
     2008.28473         5.74283         4.79373
     2008.28747         4.12792         4.89605
     2008.29021         1.61601         4.93560
     2008.29295        -1.63590         4.93474
     2008.29568         4.31918         4.91325
     2008.29842        -2.89073         4.84962
     2008.30116         4.72736         4.81866
     2008.30390        -3.67255         4.93990
     2008.30663         3.03854         5.07060
     2008.30937        -0.11637         5.12047
     2008.31211        -1.91728         5.20818
     2008.31485         2.63381         4.79459
     2008.31759         0.97790         4.94506
     2008.32032        -7.01602         5.01557
     2008.32306         4.13307         4.97602
     2008.32580         3.92816         5.06372
     2008.32854         4.06225         4.82468
     2008.33128        -2.11266         4.78943
     2008.33401         0.78643         4.85392
     2008.33675         1.05152         4.81522
     2008.33949         2.13961         5.01127
     2008.34223         2.86569         4.76879
     2008.34496        -0.52422         4.91583
     2008.34770         5.66487         4.78857
     2008.35044         3.36096         4.79201
     2008.35318         1.73005         4.85048
     2008.35592         2.22514         4.81694
     2008.35865        -6.14577         4.78943
     2008.36139         0.45932         5.10930
     2008.36413         0.98941         4.71204
     2008.36687       -18.17751         4.73698
     2008.36961        -4.64942         4.71978
     2008.37234        -2.15333         4.75245
     2008.37508         3.25076         6.73099
     2008.37782         7.90985         4.73354
     2008.38056        -0.91206         4.88745
     2008.38329        -0.15197         4.83844
     2008.38603         2.36312         4.70602
     2008.38877         1.35421         4.84016
     2008.39151         0.92129         4.88143
     2008.39425        -2.87662         4.72924
     2008.39698         0.35547         4.74557
     2008.39972        11.51556         4.71118
     2008.40246         3.12865         5.29159
     2008.40520         4.43874         4.81866
     2008.40794         3.39083         4.74385
     2008.41067         2.90792         4.73096
     2008.41341         2.55101         4.73354
     2008.41615         3.16109         4.72666
     2008.41889         3.19018         4.72322
     2008.42162        -0.64473         4.79545
     2008.42473         5.87824         7.29076
     2008.42710         2.80045         4.80147
     2008.42984         4.41454         4.84446
     2008.43258         4.28863         4.85994
     2008.43531         4.78672         4.80490
     2008.43805         0.22981         4.89089
     2008.44079        -2.82511         4.79373
     2008.44353        -1.72502         4.81952
     2008.44626         1.34607         4.76363
     2008.44900        -0.34784         4.79201
     2008.45174        -3.78575         4.85994
     2008.45448         2.24834         4.85736
     2008.45722         2.20543         4.69398
     2008.45995        -1.81548         4.74729
     2008.46269        -1.92339         4.78513
     2008.46543        -2.98531         4.75589
     2008.46817        -4.28022         4.74127
     2008.47091        -3.24913         4.76965
     2008.47364         0.44196         4.77911
     2008.47638         0.08705         4.76621
     2008.47912        -1.43586         4.74815
     2008.48186         3.19723         4.72666
     2008.48459         2.59132         4.86424
     2008.48733        -1.92859         4.75159
     2008.49007        -0.40951         4.72408
     2008.49281        -2.13842         4.80147
     2008.49555        -5.85133         4.86080
     2008.49828         1.37176         4.84016
     2008.50102        -3.19815         4.92529
     2008.50376         6.26094         4.86338
     2008.50650         1.88603         4.77481
     2008.50924         4.89212         4.84962
     2008.51197         1.20621         4.73784
     2008.51471         0.17929         4.75331
     2008.51745         0.34138         4.77739
     2008.52019         6.91447         4.74385
     2008.52292         3.18956         4.91153
     2008.52566         1.83365         4.92185
     2008.52840         3.23674         4.76449
     2008.53114         5.37583         4.82038
     2008.53388         8.69792         4.90379
     2008.53661         2.83100         4.82210
     2008.53929         3.50611         5.01127
     2008.54224         2.54013         5.00611
     2008.54483         4.10027         4.87025
     2008.54757         8.08336         4.83930
     2008.55030         7.58045         4.83242
     2008.55304        12.51154         4.81178
     2008.55578         4.67463         4.75331
     2008.55852         4.18872         4.78943
     2008.56125        -2.50320         4.74729
     2008.56399         3.88889         4.78255
     2008.56673         6.03098         4.77567
     2008.56947         9.19607         4.72752
     2008.57221         7.14716         4.83414
     2008.57494         3.01525         4.98806
     2008.57768        12.44334         4.90465
     2008.58042         3.40843         4.78255
     2008.58316         9.88352         4.80490
     2008.58590        14.57860         4.70000
     2008.58863        10.65169         4.86080
     2008.59137         4.15978         5.50053
     2008.59411         9.82287         4.71462
     2008.59685         8.99296         4.80490
     2008.59958         3.51005         4.95366
     2008.60232        10.96714         5.12477
     2008.60506         0.06823         4.96226
     2008.60780         0.03332         4.81866
     2008.61054         7.48040         4.89433
     2008.61327        -2.43051         4.95194
     2008.61601         9.74458         4.83672
     2008.61875         4.79667         4.81866
     2008.62155         8.08074         4.97344
     2008.62423        13.02585         4.81092
     2008.62699         7.64693         5.10930
     2008.62970         8.50803         4.97430
     2008.63244         9.47312         5.00525
     2008.63518        12.19220         5.11617
     2008.63791        10.51629         4.84962
     2008.64065         6.51138         4.83156
     2008.64339         6.93947         4.80404
     2008.64616        10.36655         5.01557
     2008.64887         1.61165         4.81350
     2008.65160         3.58274         4.83586
     2008.65434         0.49483         4.94936
     2008.65708         4.22192         5.09468
     2008.65982         3.00500         4.87455
     2008.66256        15.51909         4.90035
     2008.66532        11.20517         4.87885
     2008.66803        -0.29673         4.88487
     2008.67077        -3.60464         4.89863
     2008.67351         4.71545         4.85994
     2008.67624         4.19454         5.22710
     2008.67898         7.45963         4.89347
     2008.68172         6.71372         4.87369
     2008.68449         9.04579         4.87713
     2008.68720         6.38489         4.87713
     2008.68993         7.43698         5.00697
     2008.69267         8.16307         4.85220
     2008.69541        11.25316         4.89089
     2008.69815         7.26025         5.08522
     2008.70089         8.16034         4.83844
     2008.70365         9.26742         4.89347
     2008.70636        10.39452         4.83844
     2008.70910         9.34360         5.02245
     2008.71184         3.75669         4.99837
     2008.71457         3.15478         4.88143
     2008.71731         3.46587         4.83500
     2008.72005         2.58496         4.79631
     2008.72282         6.23604         4.80490
     2008.72553         4.50314         4.83070
     2008.72826        -0.01477         4.82382
     2008.73100        10.76331         5.02761
     2008.73374        11.03640         4.91239
     2008.73648         7.05849         4.74127
     2008.73921        11.62958         4.92443
     2008.74469         9.08676         4.86595
     2008.74743        10.31685         4.87713
     2008.75017         6.92494         4.91669
     2008.75290         8.75003         4.95452
     2008.75563        11.38412         4.89347
     2008.75838         5.18420         4.96398
     2008.76115         3.76328         4.89605
     2008.76386         9.52638         5.00611
     2008.76659         4.73947         5.06974
     2008.76933         6.58756         4.85564
     2008.77207         0.53165         4.76707
     2008.77481        -0.25826         4.82210
     2008.77754         1.43283         4.73784
     2008.78031         2.33491         4.81178
     2008.78302         1.76900         4.74042
     2008.78576         3.11909         4.81006
     2008.78850         5.79418         4.84446
     2008.79123         3.84027         5.05340
     2008.79397        -5.96064         5.23484
     2008.79671         5.35045         4.99837
     2008.79948        -0.04547         4.87971
     2008.80219         2.85063         4.90551
     2008.80492         3.69871         4.84704
     2008.80766         3.94680         4.78771
     2008.81040        13.97189         5.00611
     2008.81314         3.10998         4.93474
     2008.81587         5.08507         4.80576
     2008.81864         2.64115         4.84274
     2008.82135         2.46125         4.77653
     2008.82409         3.79534         4.85134
     2008.82683         7.60743         4.84016
     2008.82956         3.18851         4.84704
     2008.83230        -3.07740         4.87455
     2008.83504         2.69069         4.93646
     2008.83781        18.05477         5.22538
     2008.84052         0.98087         4.89433
     2008.84325         8.08596         4.78427
     2008.84599         8.12905         4.82640
     2008.84879        -0.94188         5.03363
     2008.85147         4.70823         4.86424
     2008.85420        -6.56169         5.05082
     2008.85697         0.45639         5.00181
     2008.85968         7.82649         4.92357
     2008.86242        -4.89442         4.91669
     2008.86516        -3.34833         4.95538
     2008.86789         0.19376         4.85994
     2008.87063         2.25785         5.01041
     2008.87337        -3.03906         4.92443
     2008.87609        -3.19897         5.03965
     2008.87914        -5.11399         5.62435
     2008.88158        -1.91480         4.84446
     2008.88432        -4.19071         4.84532
     2008.88706        -0.94662         4.98376
     2008.88980        -2.56553         4.97430
     2008.89253        -0.67344         4.93216
     2008.89530        -5.67836         4.97086
     2008.89801         4.20174         4.93560
     2008.90075         1.62983         4.95882
     2008.90326        -6.23301         5.35264
     2008.90724        -7.33634         9.83079
     2008.90896        -1.03191         4.87025
     2008.91170        -1.68582         4.94076
     2008.91447         4.01826         4.87025
     2008.91718         4.74536         4.93560
     2008.91991         6.64745         4.92013
     2008.92265         5.64754         5.26321
     2008.92539        -2.70738         4.89003
     2008.92813         4.95571         4.85048
     2008.93086        -0.19220         4.87025
     2008.93363         0.21188         5.00353
     2008.93634        -0.44902         4.91411
     2008.93908       -11.35393         4.92099
     2008.94182        -6.64384         4.93474
     2008.94455       -10.65375         4.91411
     2008.94729        -8.86766         5.04653
     2008.95003        -0.23158         4.85478
     2008.95280         0.58250         4.91841
     2008.95551         3.66360         4.80748
     2008.95824         3.87669         4.79373
     2008.96084         1.20083         5.23570
     2008.96482        -3.30850        10.57629
     2008.96646        -3.72304         4.97860
     2008.96919        -2.01095         4.82812
     2008.97196        -9.23287         4.88831
     2008.97467        -9.89778         4.84360
     2008.97741         1.15031         4.82468
     2008.98015         2.11940         4.87369
     2008.98288        -1.02451         4.90551
     2008.98538         1.44566         5.63897
     2008.98931        -1.41865         8.38107
     2008.99113        -6.32825         4.88917
     2008.99384        -3.20915         4.93044
     2008.99657        -1.38306         4.85392
     2008.99931        -4.98498         4.95624
     2009.00479        -0.93880         4.85134
     2009.00752         2.74929         4.82640
     2009.01029         3.44637         4.91583
     2009.01300         4.55447         4.84962
     2009.01574         2.97956         4.91755
     2009.01848        -1.15835         4.89691
     2009.02121        -0.32126         4.98806
     2009.02395        -2.93318         4.97258
     2009.02669        -6.96209         4.87283
     2009.02946       -11.69001         4.89089
     2009.03216        -9.64591         4.81866
     2009.03490        -9.07682         4.80318
     2009.03764       -13.08473         4.86595
     2009.04038       -12.82364         4.82296
     2009.04312       -14.44355         4.79287
     2009.04585       -16.22346         4.83500
     2009.04862        -4.87039         4.87197
     2009.05133        -0.06929         4.84274
     2009.05407        -3.78920         4.87541
