# ================= DQRFIT RESULTS ================
# INPUT FILE: series/JERS.rad
# OUTPUT: LDETRENDED
# FILTER FUNCTION: f(t)
# f(t)=+line(t)+annual(t)
# line(t)=+P 1+P 2*t
# annual(t)=+P 3*sin(2*pi*t+P 4)
# heav(t)=(t<0?0:1)
# TOTAL OBSERVATIONS MTOT=  761
# INITIAL TIME INTERVAL= 2018.6938 - 2004.1369 = 14.5569
# TOTAL OBSERVATIONS AFTER PREFILTER M=  761
# TIME-SPAN= 2018.6938 - 2004.1369 = 14.5569
# OBSERVATIONS: USED M=   761 REJECTED MTOT-M=     0 %USED=  100.0000
# N=  4 PARAMETERS
# MAXSIG= 175.00000
# MAXRES=  20.92640
# SCALE FACTOR FOR LENGTHS: SCL=  10.00000
# SCALE FACTOR FOR SIGMAS: SCLSIG=   1.00000
# CHI^2=    732.075 DOF=   757 CHI^2/DOF=   0.96707
# RMS=      5.704 SDEV=      5.707 MEAN=    0.09936
#  P #       PARAMETER +-    SIGMA %error PARAMETER NAME
# P 1 =      -903.54225 +-   91.732  10.15 YZERO                              
# P 2 =         0.44963 +-    0.046  10.15 SLOPE                              
# P 3 =         4.14957 +-    0.340   8.20 ANNUAL AMPLITUDE                   
# P 4 =         1.79155 +-    0.020   1.11 ANNUAL PHASE                       
#       T            LDETRENDED       SIG_OBS
     2004.13690         5.99172         5.83746
     2004.13964         3.81248         5.65848
     2004.14237        11.70325         5.70863
     2004.14511         4.63802         5.72732
     2004.14785         2.27879         5.70667
     2004.15059         5.10856         5.77845
     2004.15332        -2.83567         5.82566
     2004.15606         4.27710         5.74305
     2004.15880         2.72887         5.72142
     2004.16154         8.27964         5.74403
     2004.16428         3.76841         5.78239
     2004.16701         5.76417         5.73027
     2004.16975        -0.49606         5.91810
     2004.17249         5.26471         5.95350
     2004.17523         5.74648         5.97513
     2004.17797        10.98525         5.83057
     2004.18070         2.53902         5.72830
     2004.18344        -2.44121         5.72338
     2004.18618         0.63056         5.95448
     2004.18892        10.92333         5.75190
     2004.19165         3.27810         5.72043
     2004.19439         8.94986         5.72437
     2004.19713         2.51163         5.73223
     2004.19987         2.29540         5.81386
     2004.20261         8.67417         5.80599
     2004.20534         1.99494         5.73715
     2004.20808         4.16271         6.05872
     2004.21082        -0.88552         6.04790
     2004.21356         2.29225         6.00464
     2004.21629         2.31402         5.97022
     2004.21903        -2.89022         5.96432
     2004.22177        -0.53445         5.94071
     2004.22451         5.75232         5.99185
     2004.22725         8.42509         6.03020
     2004.22998         1.49386         6.07937
     2004.23272        12.04763         6.08232
     2004.23546         0.09140         6.02627
     2004.23820        -1.35483         6.00660
     2004.24094        -0.38906         6.18165
     2004.24367         5.22371         5.94661
     2004.24641         7.55347         5.74993
     2004.24915        -0.07276         5.88564
     2004.25189        -3.17399         5.80796
     2004.25462        -0.36122         5.78829
     2004.25736         4.84555         5.75092
     2004.26010         6.77132         5.74502
     2004.42163         7.31069         5.62898
     2004.42437         6.70446         5.64668
     2004.42711         5.41223         5.57489
     2004.42985         0.91900         5.62996
     2004.43259         4.89576         5.69781
     2004.43532        10.70753         5.60931
     2004.43806        16.83530         5.58767
     2004.44080        12.29407         5.82664
     2004.44354        12.53884         5.76272
     2004.44627         7.00861         5.76370
     2004.44901         4.28038         5.74305
     2004.45175         2.20315         5.91416
     2004.45449         5.50492         5.85909
     2004.45723         0.50669         5.81189
     2004.45996         1.17845         5.88564
     2004.46270         3.25922         5.89744
     2004.46544         3.61899         5.73617
     2004.46818        11.95876         5.77157
     2004.47092         2.90153         5.77059
     2004.47365         5.53930         5.70765
     2004.47639         0.14007         5.83451
     2004.47913         1.43084         5.94071
     2004.48187         5.64761         5.96530
     2004.48460         2.45237         5.73518
     2004.48734         9.59214         5.80107
     2004.49008         5.84291         5.71257
     2004.49282        -0.60932         5.89056
     2004.49556         1.13545         5.81287
     2004.49829         4.05122         5.85418
     2004.50103         6.25199         5.75780
     2004.50377         6.43076         5.71257
     2004.50651        -0.55147         5.74698
     2004.50924         2.17330         5.73322
     2004.68994         4.03205         5.66831
     2004.69268        -6.11018         5.71355
     2004.69542        -1.74741         5.75584
     2004.69816        -0.76365         5.71650
     2004.70089         3.25912         5.92990
     2004.70363         1.07789         5.77649
     2004.70637         2.08266         5.72240
     2004.70911         7.87943         5.63488
     2004.71185         1.53620         5.77944
     2004.71458        -7.45603         5.87679
     2004.71732         4.46674         5.60439
     2004.72006         5.33951         5.59849
     2004.72280        -2.66273         5.57686
     2004.72554        -5.45596         5.61816
     2004.72827        -2.14019         5.59456
     2004.73101        -1.50342         5.66438
     2004.73375        -5.76465         5.63488
     2004.73649        -0.24088         5.57292
     2004.73922        -1.06011         5.62898
     2004.74196        -4.31434         5.67618
     2004.74470         2.74243         5.63586
     2004.74744        -2.29780         5.68306
     2004.75018        -4.78804         5.61128
     2004.75291        -0.97027         5.66143
     2004.75565        -0.51350         5.60242
     2004.75839         1.54627         5.63881
     2004.76113        -6.18796         5.63389
     2004.76387         1.25581         5.65946
     2004.76660         0.66958         5.57587
     2004.76934        -1.38165         5.77550
     2004.77208         4.47112         5.84729
     2004.77482         2.29389         5.72142
     2004.77755         4.62865         5.80697
     2004.78029         0.97342         5.76272
     2004.78303        -0.48781         5.80697
     2004.78577         0.19796         5.59357
     2004.78851         5.67873         5.67225
     2004.79124         0.70450         5.63586
     2004.79398         9.00527         5.61128
     2004.79672         1.59004         5.63979
     2004.79946         5.66581         5.62996
     2004.80220         7.40558         5.64176
     2004.80493         7.10834         5.64176
     2004.80767         3.24611         5.67421
     2004.81041        -0.82512         5.60242
     2004.81315        -1.73935         5.51982
     2004.81588         4.54742         5.52277
     2004.81862         5.02819         5.81976
     2004.82136         0.97796         5.67520
     2004.82410         5.96073         5.54637
     2004.82684        -4.18550         5.57784
     2004.82957         3.85126         5.70863
     2004.83231        14.22903         5.63389
     2004.83505        -2.74620         5.71945
     2004.83779         5.19357         5.57391
     2004.84052         3.41334         5.76075
     2004.84326         7.71811         5.55522
     2004.84600         4.64288         5.61816
     2004.84874         4.36565         5.62111
     2004.85148        -1.82858         5.68995
     2004.85421        -1.07281         5.92596
     2004.85695        -0.84005         5.69585
     2004.85969        -7.70628         5.64471
     2004.86243        -5.26851         5.62701
     2004.86517        -4.44874         5.56899
     2004.86790        -8.58197         5.52375
     2004.87064       -12.59420         5.52769
     2004.87338        -2.51443         5.53949
     2004.87612        -2.45266         5.57587
     2004.87885        -9.14189         5.61226
     2004.88159        -5.00612         5.65651
     2004.88433        -3.93036         5.85221
     2004.88707         2.76041         5.63586
     2004.88981         0.90418         5.62799
     2004.89254        -0.00005         5.70863
     2005.19097        -7.84923         5.69191
     2005.19371        -7.80246         5.79419
     2005.19645       -10.82369         5.74797
     2005.19918        -6.63592         5.76469
     2005.20192         2.06384         6.16100
     2005.20466         2.90461         5.79419
     2005.20740        -5.01462         5.96727
     2005.21013        -1.61585         6.01545
     2005.21287        -2.26208         5.66143
     2005.21561         5.80869         5.97317
     2005.21835        -1.16554         5.73027
     2005.22109        -0.51477         5.67716
     2005.22382        -3.62000         5.71355
     2005.22656        -0.85824         5.75879
     2005.22930         7.82753         5.96923
     2005.23204         8.34230         6.27310
     2005.23478         2.64407         6.04594
     2005.23751         1.61984         6.40685
     2005.24025         7.25261         6.00267
     2005.24299         4.92638         6.37931
     2005.24573         6.18615         6.76087
     2005.24846        -0.99208         6.36554
     2005.25120        -1.18031         6.34981
     2005.25394         8.78245         6.43340
     2005.25668         8.71322         6.79037
     2005.25942         9.03599         5.87188
     2005.26215        -0.97224         5.98792
     2005.26489         2.82053         5.93186
     2005.26763         6.19130         6.12658
     2005.27037         9.54007         6.09314
     2005.27311         5.60084         6.11379
     2005.27584        -1.25139         6.20722
     2005.27858        -0.56862         6.22098
     2005.28132         0.42114         6.08134
     2005.28406        -0.69009         6.38029
     2005.28679        -0.46532         6.11871
     2005.28953         4.09445         5.99283
     2005.29227        -1.66078         5.89744
     2005.29501         0.83099         5.75289
     2005.29775         0.77176         5.71650
     2005.30048         3.91753         5.70568
     2005.30322         3.07730         5.70765
     2005.30596         2.46906         5.67028
     2005.30870        -2.63717         5.74797
     2005.31144         4.62060         5.71552
     2005.31417         2.47337         5.67618
     2005.31691        -2.92986         5.68896
     2005.31965         0.07791         5.77747
     2005.32239        -2.75032         6.47273
     2005.32512        -1.89655         6.08429
     2005.32786        -7.04978         5.84336
     2005.33060         0.27499         6.05479
     2005.33334         3.54175         6.12264
     2005.33608         3.66652         6.41570
     2005.33881        -0.52571         5.80304
     2005.34155         8.41106         5.76665
     2005.34429         1.07583         5.72338
     2005.34703         7.03160         5.62406
     2005.34977        -2.02263         5.86991
     2005.35250         1.11614         6.02332
     2005.35524         6.18591         6.05774
     2005.62903        -5.53220         5.77944
     2005.63176        -3.00043         5.74403
     2005.63450        -3.06266         5.72043
     2005.63724        -0.72289         5.72043
     2005.63998        -7.83912         5.81287
     2005.64272        -0.42535         5.71355
     2005.64545        -9.20758         5.77550
     2005.64819        -4.32181         5.73420
     2005.65093        -4.94105         5.74010
     2005.65367        -4.38428         5.79222
     2005.65640        -7.35751         5.70273
     2005.65914        -5.12474         5.75780
     2005.66188        -4.86097         5.72732
     2005.66462        -5.55320         5.72338
     2005.66736        -4.97843         5.71552
     2005.67009        -1.99066         5.68011
     2005.67283        -1.66789         5.66831
     2005.67557         0.71788         5.74108
     2005.67831       -10.15336         5.69290
     2005.68105        -7.47859         5.72830
     2005.68378        -4.25782         5.76075
     2005.68652         0.18695         5.78042
     2005.68926        -4.17028         5.79714
     2005.69200        -3.34351         5.71650
     2005.69473        -1.74874         5.74895
     2005.69747        -4.56297         5.82074
     2005.70021         0.63680         5.87286
     2005.70295        -1.76143         5.85811
     2005.70569        -4.37767         5.91318
     2005.70842        -3.99590         5.91711
     2005.71116        -1.18713         5.80107
     2005.71390        -0.72036         5.75682
     2005.71664        -4.49759         5.83057
     2005.71938        -6.44782         5.74207
     2005.72211        -7.48105         5.80599
     2005.72485        -7.43428         5.71552
     2005.72759        -5.46451         5.79615
     2005.73033        -5.04475         5.87974
     2005.73306        -1.86298         5.80992
     2005.73580         0.34879         5.80501
     2005.73854        -1.88644         5.91220
     2005.74128        -2.39967         5.89154
     2005.74402         0.56010         5.80599
     2005.74675        -0.88513         5.66635
     2005.74949        -2.04436         5.68110
     2005.75223        -5.80559         5.86499
     2005.75497         6.22518         5.81582
     2005.75770        -4.75106         5.76567
     2005.76044         1.71671         5.66045
     2005.76318         2.28048         5.68700
     2005.76592         2.34725         5.71945
     2005.76866        11.11702         5.74207
     2005.77139        12.89479         5.68700
     2005.77413         4.08556         5.61029
     2005.77687        -0.23567         5.76862
     2005.77961        -0.36990         5.82467
     2005.78235        -2.12513         5.79025
     2005.78508         0.03463         5.66045
     2005.78782         3.43240         5.70076
     2005.79056         2.83917         5.61816
     2005.79330         1.96194         5.68798
     2005.79603        -0.36729         5.85319
     2005.79877         0.89548         5.87286
     2005.80151         7.95725         5.87384
     2005.80425        -0.14598         5.67815
     2005.80699         2.60879         5.69290
     2005.80972         3.58355         5.67225
     2005.81246        -2.05468         5.72928
     2005.81520        -3.97491         5.71748
     2005.81764         0.44800         6.64483
     2006.13005       -10.83148         5.58374
     2006.13279        -6.23971         5.50999
     2006.13553        -4.71894         5.55424
     2006.13827         0.51083         5.55817
     2006.14100        -6.01940         5.59849
     2006.14374       -11.18563         5.58571
     2006.14648        -6.56186         5.60242
     2006.14922        -9.12009         5.52572
     2006.15196       -10.65632         5.52965
     2006.15469       -10.42756         5.55424
     2006.15743       -11.56779         5.60833
     2006.16017        -6.26702         5.67323
     2006.16291        -8.28625         5.73813
     2006.16564       -10.34548         5.51195
     2006.16838        -5.03271         5.74502
     2006.17112        -4.29894         5.56014
     2006.17386        -7.68017         5.58964
     2006.17660       -12.11140         5.56112
     2006.17933        -4.37063         5.55129
     2006.18207        -3.98087         5.56309
     2006.18481        -3.18010         5.59947
     2006.18755         2.76867         5.59062
     2006.19029         0.72444         5.68896
     2006.19302        -2.48379         5.62603
     2006.19576        -6.23402         5.64569
     2006.19850         0.25275         5.70076
     2006.20124        -4.72048         5.70372
     2006.20397       -10.61471         5.80992
     2006.20671        -6.61294         5.80697
     2006.20945        -8.99918         5.60833
     2006.21219        -9.16641         5.65651
     2006.21493        -6.08764         5.69093
     2006.21766        -3.85187         5.68995
     2006.22040       -10.50510         5.83352
     2006.22314        -8.69633         5.77354
     2006.22588        -9.58356         5.80992
     2006.22862        -5.79879         5.88368
     2006.23135        -2.20402         5.92203
     2006.23409        -3.94926         5.79812
     2006.23683       -11.48149         5.67421
     2006.23957         0.55428         5.56407
     2006.24230        -4.90195         5.56309
     2006.24504       -10.15518         5.54834
     2006.24778         1.70959         5.59357
     2006.25052        -4.13864         5.58866
     2006.25326        -3.10487         5.55227
     2006.25599        -4.41910         5.68503
     2006.25873        -7.83033         5.64766
     2006.26147        -8.13157         5.82172
     2006.26421        -6.43480         5.81779
     2006.26695        -4.86803         5.69290
     2006.26968        -5.07126         5.56407
     2006.27242        -1.12849         5.58964
     2006.27516        -1.83172         5.83254
     2006.27790        -6.15895         5.82172
     2006.28063        -8.55018         5.64078
     2006.28337        -3.17641         5.56407
     2006.28611        -4.47964         5.71552
     2006.28885        -5.70788         5.64373
     2006.29159        -3.77211         5.65553
     2006.29432        -2.51034         5.68405
     2006.29706        -1.69157         5.60341
     2006.29980         0.47520         5.71650
     2006.30254        -5.73603         5.60833
     2006.30528        -3.64326         5.70765
     2006.30801        -4.89149         5.79222
     2006.31075        -1.60072         5.68601
     2006.31349        -7.98696         5.70962
     2006.31623        -7.53519         5.67126
     2006.32170        -6.42365         5.73027
     2006.32444        -5.46088         5.64471
     2006.32718        -5.07211         5.73715
     2006.32992        -6.64834         5.60734
     2006.33265        -9.34057         5.64864
     2006.33539        -4.79980         5.68208
     2006.33813        -2.42903         5.63094
     2006.34087       -12.02727         5.65258
     2006.34361        -6.84050         5.59357
     2006.34634        -7.59373         5.68306
     2006.34908        -7.94096         5.75682
     2006.35182        -7.13719         5.76764
     2006.35456        -9.91542         5.65258
     2006.35729        -9.37165         5.67716
     2006.36003        -8.02188         5.63783
     2006.36277       -11.44511         5.61619
     2006.36551       -14.43134         5.65651
     2006.36825        -8.64958         5.70470
     2006.37098        -6.69381         5.89351
     2006.37372       -10.21704         5.77255
     2006.37646        -5.18327         5.75977
     2006.37920       -10.76050         5.98005
     2006.38193        -0.68273         5.84237
     2006.38467        -6.14796         5.78239
     2006.38741         0.21281         5.99873
     2006.39015        -7.43842         5.76075
     2006.85558         2.99330         6.29867
     2006.85832        12.64007         5.97022
     2006.86106         3.20184         6.08822
     2006.86380         6.33161         6.00857
     2006.86653         4.92238         6.15805
     2006.86927         9.25515         5.91711
     2006.87201         4.16491         5.72437
     2006.87475        -3.22632         5.74797
     2006.87749         6.45745         5.72535
     2006.88022         8.15422         5.75977
     2006.88296         5.14999         5.71847
     2006.88570         3.67776         5.66733
