# ================= DQRFIT RESULTS ================
# INPUT FILE: series/JIME.rad
# OUTPUT: LDETRENDED
# FILTER FUNCTION: f(t)
# f(t)=+line(t)+annual(t)
# line(t)=+P 1+P 2*t
# annual(t)=+P 3*sin(2*pi*t+P 4)
# heav(t)=(t<0?0:1)
# TOTAL OBSERVATIONS MTOT= 3886
# INITIAL TIME INTERVAL= 2022.7488 - 2011.5455 = 11.2033
# TOTAL OBSERVATIONS AFTER PREFILTER M= 3880
# TIME-SPAN= 2022.7488 - 2011.5455 = 11.2033
# OBSERVATIONS: USED M=  3880 REJECTED MTOT-M=     6 %USED=   99.8456
# N=  4 PARAMETERS
# MAXSIG= 175.00000
# MAXRES=  34.09782
# SCALE FACTOR FOR LENGTHS: SCL=  10.00000
# SCALE FACTOR FOR SIGMAS: SCLSIG=   1.00000
# CHI^2=   7781.554 DOF=  3876 CHI^2/DOF=   2.00762
# RMS=      8.077 SDEV=      8.078 MEAN=    0.11819
#  P #       PARAMETER +-    SIGMA %error PARAMETER NAME
# P 1 =     -1667.11997 +-   79.357   4.76 YZERO                              
# P 2 =         0.82899 +-    0.039   4.75 SLOPE                              
# P 3 =         4.57520 +-    0.179   3.91 ANNUAL AMPLITUDE                   
# P 4 =         2.97850 +-    0.054   1.83 ANNUAL PHASE                       
#       T            LDETRENDED       SIG_OBS
     2011.54551         5.86731         7.83124
     2011.54825        -0.67496         7.86808
     2011.55099         3.72277         7.96443
     2011.55373        -4.29050         7.78732
     2011.55646        -3.13877         7.85391
     2011.55920         5.67796         8.07637
     2011.56194        -1.42331         8.03386
     2011.56468         5.01542         7.92334
     2011.56741         1.88615         7.86242
     2011.57015        -2.47712         7.88650
     2011.57289       -11.94539         8.05370
     2011.57563         6.84334         7.84258
     2011.57837         7.95707         7.97152
     2011.58110        -4.59320         8.09195
     2011.58384        -1.10847         8.06220
     2011.58658         0.80826         8.06645
     2011.58932        -0.02401         7.86383
     2011.59206         2.89072         7.89359
     2011.59479         6.35445         7.81141
     2011.59753         7.80719         7.78024
     2011.60027         2.50492         7.90067
     2011.60301         2.55865         7.84541
     2011.60574         6.93538         7.95451
     2011.60848         4.15611         8.38242
     2011.61122         6.86484         8.12879
     2011.61396         1.78157         7.97435
     2011.61670         7.80530         7.98569
     2011.61943         3.92103         8.02961
     2011.62217         4.03076         8.04803
     2011.62491        -3.81751         7.99419
     2011.62765         4.76922         8.12313
     2011.63039         3.31295         7.93043
     2011.63312         7.46468         7.95877
     2011.63586        10.12841         7.91342
     2011.63860         8.67214         8.05937
     2011.64134         3.30787         8.29741
     2011.64407         1.38060         8.10471
     2011.64681         6.08433         7.95168
     2011.64955         5.20406         8.19964
     2011.65229        -0.16621         8.04095
     2011.65503         5.90552         8.21664
     2011.65776         4.94425         7.93468
     2011.66050         8.11698         8.37392
     2011.66324         6.92271         7.92193
     2011.66598         4.89544         8.08487
     2011.66872         7.23617         8.48727
     2011.67145         7.74190         7.97010
     2011.67419         9.28963         7.84258
     2011.67693        12.35137         7.98285
     2011.67967         3.99910         7.95168
     2011.68240         6.12683         8.14296
     2011.68514         6.05956         8.18547
     2011.68788         6.98229         8.01402
     2011.69062        10.49802         8.19681
     2011.69336        10.31375         8.05228
     2011.69609         6.06348         7.97435
     2011.69883         8.67621         8.20531
     2011.70157         1.80894         7.95451
     2011.70431         8.09567         8.02111
     2011.70705         4.75840         8.16988
     2011.70978        -2.35687         8.24498
     2011.71252         5.02386         8.28890
     2011.71526        -8.87041         8.28607
     2011.71800         8.78532         8.21806
     2011.72073         8.76905         8.04095
     2011.72347         7.18478         8.26765
     2011.72621         7.71851         8.00694
     2011.72895         7.88124         8.16280
     2011.73169        17.00097         8.46035
     2011.73442        14.25470         7.97152
     2011.73716        21.49643         8.30591
     2011.73990         5.13416         7.94885
     2011.74264         5.55689         7.98427
     2011.74538         8.18462         8.29599
     2011.74811        12.68735         8.28324
     2011.75085         7.94708         8.19964
     2011.75359        12.21881         8.13588
     2011.75633        13.78355         8.21381
     2011.75906        32.87628         8.03528
     2011.76180        15.19301         8.06078
     2011.76454        13.20574         8.08770
     2011.76728         4.00947         7.94176
     2011.77002        10.10320         8.31158
     2011.77275        26.73293         8.50144
     2011.77549        30.99366         8.55528
     2011.77823         4.27839         8.12596
     2011.78097         8.42412         8.11463
     2011.78371         9.75585         8.00552
     2011.78644        21.04958         7.99419
     2011.78918        10.75231         7.94035
     2011.79192         1.34904         7.91342
     2011.79466         1.08577         7.91768
     2011.79739         9.12650         7.89359
     2011.80013         9.09423         7.85675
     2011.80287         0.44596         7.85675
     2011.80561         4.29769         8.01261
     2011.80835         7.25442         8.11321
     2011.81108        10.96115         8.09621
     2011.81382         0.54988         7.98002
     2011.81656         3.22761         7.90067
     2011.81930         7.16434         7.85108
     2011.82203         2.82707         8.11746
     2011.82477        14.20280         8.03528
     2011.82751         2.23953         8.00127
     2011.83025         0.62626         8.16280
     2011.83299        -3.33701         7.93326
     2011.83572         0.98273         7.95451
     2011.83846        13.39046         7.94601
     2011.84120         7.87819         7.84683
     2011.84394        17.81892         7.95310
     2011.84668        11.57565         7.76607
     2011.84941         0.21738         7.82983
     2011.85215        -0.57489         7.88509
     2011.85489         3.88484         7.95168
     2011.85763         4.27857         8.03953
     2011.86036         9.06130         7.87233
     2011.86310        21.89403         8.12879
     2011.86584        19.68976         7.92193
     2011.86858        16.48249         7.87800
     2011.87132        13.22722         7.89500
     2011.87405         9.24695         7.85391
     2011.87679        14.40368         8.16138
     2011.87953        17.61041         8.15713
     2011.88227        22.38714         7.97010
     2011.88501         8.29187         7.84258
     2011.88774         9.72260         7.95735
     2011.89048        20.83933         8.00836
     2011.89322        16.46606         8.05937
     2011.89596        17.23279         8.02678
     2011.89869        10.21452         8.06928
     2011.90143        -0.74975         7.93468
     2011.90417         2.69698         8.00269
     2011.90691        16.99771         7.98285
     2011.90965         5.91844         7.88650
     2011.91238        18.59317         8.11604
     2011.91512        -1.14009         7.84116
     2011.91786        -1.71436         8.06787
     2011.92060        -4.40263         7.93893
     2011.92334        -7.38090         8.05795
     2011.92607        -5.65417         7.92759
     2011.92881        -2.76644         7.87658
     2011.93155         1.77229         7.98285
     2011.93429        -0.18398         7.98427
     2011.93702         0.22975         8.09904
     2011.93976         3.74848         8.04803
     2011.94250         5.65421         7.94460
     2011.94524        -0.19306         8.02253
     2011.94798         6.28667         8.08487
     2011.95071         4.45240         7.92901
     2011.95345        17.58913         8.07353
     2011.95619         6.65486         8.06078
     2011.95893         0.91559         7.63713
     2011.96167         1.17532         7.93609
     2011.96440         3.69605         7.85391
     2011.96714         3.99078         8.04803
     2011.96988         6.47051         7.60596
     2011.97262         0.18524         7.62012
     2011.97535        -0.89403         7.77032
     2011.97809        -8.04930         7.75473
     2011.98083         3.53543         7.98002
     2011.98357        15.23416         7.71081
     2011.98631        21.38989         7.74340
     2011.99178        11.66435         7.93609
     2011.99452        24.99509         7.77740
     2011.99726         2.52882         7.71506
     2012.00273         4.08528         7.79440
     2012.00547         1.97701         7.80007
     2012.00821         3.32374         7.92618
     2012.01095        10.39047         7.83975
     2012.01368         6.98920         7.71506
     2012.01642        24.64893         7.80007
     2012.01916         6.11966         7.71931
     2012.02190         4.84439         7.78874
     2012.02464        17.51212         7.66830
     2012.02737        -0.85915         7.74481
     2012.03011         1.58558         7.75756
     2012.03285        -4.88969         7.67963
     2012.03559         2.36804         7.71364
     2012.03833         1.31977         7.63004
     2012.04106         5.52650         7.74198
     2012.04380        21.65223         7.97152
     2012.04654        14.81596         8.28749
     2012.04928        21.58469         7.86950
     2012.05201        19.90642         7.81849
     2012.05475        25.97815         7.93893
     2012.05749        17.33088         7.86808
     2012.06023        13.56561         7.83691
     2012.06297         5.36034         7.84541
     2012.06570        19.47307         8.03103
     2012.06844        -6.66820         7.96868
     2012.07118        -2.54747         7.61304
     2012.07392        -0.69174         7.61021
     2012.07666         9.52400         7.85958
     2012.07939        16.35673         7.73914
     2012.08213         3.77846         7.69522
     2012.08487         9.67419         7.75473
     2012.08761        -3.07708         7.72356
     2012.09034        -0.26935         7.73348
     2012.09308        -1.27062         7.74765
     2012.09582         2.82111         7.82841
     2012.09856         1.86984         7.73631
     2012.10130        -1.36243         7.90067
     2012.10403        11.55330         7.68389
     2012.10677        17.11903         7.92334
     2012.10951         5.00276         8.14863
     2012.11225         4.07849         7.86242
     2012.11498         2.14322         7.79724
     2012.11772        21.24395         7.84966
     2012.12046        10.19568         7.92334
     2012.12320         2.31841         7.78449
     2012.12594        -1.75886         7.74623
     2012.12867         5.14887         7.83833
     2012.13141         2.95860         8.15713
     2012.13415         0.98833         7.87517
     2012.13689        11.27906         7.91909
     2012.13963        13.47379         8.08629
     2012.14236         6.76252         8.19539
     2012.14510         4.04925         7.87942
     2012.14784        -4.80502         7.67680
     2012.15058        17.05871         7.81424
     2012.15331        -2.64756         7.65130
     2012.15605        -0.97582         7.79015
     2012.15879         4.78291         7.83266
     2012.16153        22.75764         7.86242
     2012.16427         0.77937         8.61479
     2012.16700         0.14710         7.92618
     2012.16974        -5.42917         7.71081
     2012.17248        -3.30144         7.73064
     2012.17522        -2.22671         7.87517
     2012.17796         1.64102         7.82133
     2012.18069        -4.64925         7.82133
     2012.18343        -5.07452         7.74481
     2012.18617         0.07921         7.80149
     2012.18891         1.42394         7.94035
     2012.19164        13.34667         7.81991
     2012.19438         6.92140         7.84683
     2012.19712        17.98713         7.79299
     2012.19986        15.36386         7.80432
     2012.20260        16.06559         7.85391
     2012.20533         5.45732         7.91201
     2012.20807        12.20005         7.92476
     2012.21081         4.04378         7.79866
     2012.21355        -2.26049         7.69380
     2012.21629        -4.41976         7.76607
     2012.21902        17.59297         7.77740
     2012.22176         0.30270         8.05795
     2012.22450        -6.64157         7.70089
     2012.22724         1.33216         7.75473
     2012.22997        -0.82211         7.75756
     2012.23271         3.39962         7.90634
     2012.23545        21.66836         7.88367
     2012.23819        15.72609         7.74340
     2012.24093        16.55082         7.79440
     2012.24366        15.40155         8.04661
     2012.24640        12.48028         7.87092
     2012.24914         6.24601         7.83549
     2012.25188        -6.52126         7.71647
     2012.25462         3.59347         7.86383
     2012.25735         0.67920         7.63004
     2012.26009        -3.80307         7.81141
     2012.26283        -0.94134         7.84966
     2012.26557        -4.79861         7.75331
     2012.26830        -4.64088         7.69522
     2012.27104        -3.64815         7.90351
     2012.27378        -0.06142         7.67680
     2012.27652         4.85031         7.74623
     2012.27926        15.54804         8.01402
     2012.28199        16.91977         7.76607
     2012.28473         3.31550         7.75615
     2012.28747        -4.68177         7.88934
     2012.29021         6.07196         7.85817
     2012.29295        -5.19831         7.77882
     2012.29568         0.70442         7.80716
     2012.29842         4.45115         7.71081
     2012.30116        -0.66112         7.74765
     2012.30390        -5.06739         7.82558
     2012.30663        -4.81266         7.71931
     2012.30937         2.15807         7.87517
     2012.31211        -1.06820         7.98852
     2012.31485         4.23954         7.86100
     2012.31759         9.11727         7.79724
     2012.32032        -0.05900         7.93609
     2012.32306        -4.95127         7.77315
     2012.32580        -7.21154         7.67397
     2012.32854         3.93319         7.96443
     2012.33128         3.04792         7.85250
     2012.33401        -0.41635         7.89500
     2012.33675         7.66738         7.74906
     2012.33949        -3.30089         7.69664
     2012.34223       -11.26516         7.64988
     2012.34496        -8.22843         7.67822
     2012.34770        -3.00470         7.76748
     2012.35044        -4.21397         7.72781
     2012.35318        -3.00324         7.67113
     2012.35592       -10.44551         7.62438
     2012.35865        -6.66778         7.74481
     2012.36139         0.90195         7.60312
     2012.36413        -6.81332         7.58470
     2012.36687         1.97241         7.65980
     2012.36961        -0.82886         7.62012
     2012.37234        -5.34413         7.81141
     2012.37508        -3.01840         7.82558
     2012.37782        -2.92067         7.83975
     2012.38056        -5.83494         7.93751
     2012.38329         0.90179         7.90067
     2012.38603         1.60152         7.91626
     2012.38877        -1.31475         8.07353
     2012.39151         1.68598         7.85108
     2012.39425        -0.92328         8.01119
     2012.39698        -4.05455         7.80149
     2012.39972         1.26718         7.75048
     2012.40246        -5.81109         7.73064
     2012.40520       -11.51436         7.72356
     2012.40794        -3.04863         7.73348
     2012.41067        -5.42790         7.76890
     2012.41341        -8.42517         7.84116
     2012.41615         1.53556         7.69664
     2012.41889         0.84629         8.06362
     2012.42162        -3.25898         7.74623
     2012.42436        -1.44725         7.96727
     2012.42710        -0.90152         7.65130
     2012.42984         0.52921         7.65696
     2012.43258         0.30994         7.70939
     2012.43531         2.36367         7.76323
     2012.43805        -4.06760         7.72214
     2012.44079       -11.92287         7.77315
     2012.44353        -4.95714         7.71506
     2012.44626       -10.04441         7.94318
     2012.44900        -4.35568         7.75898
     2012.45174        -2.57295         7.79582
     2012.45448        -0.79122         7.74340
     2012.45722        -0.81049         7.80716
     2012.45995         4.81624         7.94176
     2012.46269        -1.29003         7.73206
     2012.46543        -1.37430         7.83408
     2012.46817        -0.01957         7.93893
     2012.47091         1.45816         7.75615
     2012.47364         4.08890         7.75615
     2012.47638         2.65463         7.66972
     2012.47912        -0.28764         7.84825
     2012.48186        -1.35291         7.88084
     2012.48459         1.72982         7.72781
     2012.48733        -2.78045         7.63288
     2012.49007        -1.70472         7.76607
     2012.49281        -4.12199         7.77032
     2012.49555         1.20874         7.80716
     2012.49828        -3.09353         7.68530
     2012.50102         2.62820         7.81566
     2012.50376        -0.12107         7.69380
     2012.50650        -3.12234         7.65271
     2012.50924        -1.09961         7.80716
     2012.51197        -4.02588         7.78874
     2012.51471        -0.17215         7.72498
     2012.51745         1.35958         7.68530
     2012.52019        -5.13169         7.74481
     2012.52292        -1.51696         7.72073
     2012.52566        -1.32423         7.63996
     2012.52840         1.56950         7.66688
     2012.53114        -5.76977         7.81849
     2012.53388        -2.01204         7.79440
     2012.53661         0.14669         7.96868
     2012.53935         5.47742         7.65696
     2012.54209         4.47515         7.71506
     2012.54483         6.31988         7.61729
     2012.54757        -1.10039         7.82416
     2012.55030         2.20534         7.79724
     2012.55304        -3.83092         7.68530
     2012.55578        -0.17019         7.73348
     2012.55852        -2.87446         7.58329
     2012.56125         0.54127         7.57478
     2012.56399         3.72400         7.53936
     2012.56673        -3.23627         7.71364
     2012.56947         2.45846         7.61729
     2012.57221         4.69319         7.55495
     2012.57494         0.25092         7.58470
     2012.57768         0.58465         7.67397
     2012.58042         4.16438         7.64280
     2012.58316         2.46311         7.61304
     2012.58590         6.89884         7.76890
     2012.58863         3.42557         7.66830
     2012.59137         4.07030         7.64138
     2012.59411         7.64803         7.57337
     2012.59685         6.76176         7.72356
     2012.59958         2.28449         7.66547
     2012.60232         0.48322         7.93468
     2012.60506         3.74895         7.55353
     2012.60780         3.94668         7.55070
     2012.61054         4.71541         7.68389
     2012.61327         4.10014         7.59037
     2012.61601         9.55987         7.70089
     2012.61875        10.13360         7.78590
     2012.62149         7.44133         7.66547
