# ================= DQRFIT RESULTS ================
# INPUT FILE: series/JNPR.rad
# OUTPUT: LDETRENDED
# FILTER FUNCTION: f(t)
# f(t)=+line(t)+annual(t)+jumps(t)
# line(t)=+P 1+P 2*t
# annual(t)=+P 3*sin(2*pi*t+P 4)
# jumps(t)=+P 5*heav(t-1998.8301  )+P 6*heav(t-2007.2575  )
# heav(t)=(t<0?0:1)
# TOTAL OBSERVATIONS MTOT= 3379
# INITIAL TIME INTERVAL= 2007.4825 - 1997.9658 =  9.5168
# TOTAL OBSERVATIONS AFTER PREFILTER M= 3359
# TIME-SPAN= 2007.4825 - 1997.9658 =  9.5168
# OBSERVATIONS: USED M=  3359 REJECTED MTOT-M=    20 %USED=   99.4081
# N=  6 PARAMETERS
# MAXSIG= 175.00000
# MAXRES=  56.82960
# SCALE FACTOR FOR LENGTHS: SCL=  10.00000
# SCALE FACTOR FOR SIGMAS: SCLSIG=   1.00000
# CHI^2=   8930.218 DOF=  3353 CHI^2/DOF=   2.66335
# RMS=     11.800 SDEV=     11.802 MEAN=   -0.03862
#  P #       PARAMETER +-    SIGMA %error PARAMETER NAME
# P 1 =      2062.63064 +-  170.715   8.28 YZERO                              
# P 2 =        -0.53873 +-    0.085  15.86 SLOPE                              
# P 3 =         4.70035 +-    0.279   5.93 ANNUAL AMPLITUDE                   
# P 4 =         2.39881 +-    0.062   2.58 ANNUAL PHASE                       
# P 5 =        17.28888 +-    0.802   4.64 OFFSET 1998.8301                   
# P 6 =        -0.02932 +-    1.230 ****** OFFSET 2007.2575                   
#       T            LDETRENDED       SIG_OBS
     1997.96578         5.21126        10.79227
     1997.96851         6.41674        10.92609
     1997.97125         6.31821        10.86571
     1997.97399         4.62468        10.72209
     1997.97673        -4.26984        11.06807
     1997.97947         3.03163        10.68619
     1997.98220        -1.66389        11.03707
     1997.98494         3.08158        10.78248
     1997.98768         3.47606        10.58174
     1997.99042        16.21753        10.78085
     1997.99316         5.62401        11.06481
     1997.99589        -3.50652        10.82001
     1997.99863         7.40796        10.88040
     1998.00520        32.33050        24.75221
     1998.00684         9.27038        11.81878
     1998.00958        -5.75014        10.74821
     1998.01232       -10.02367        11.13009
     1998.01506         9.60981        11.10071
     1998.01780        -0.43572        11.79920
     1998.02053        -1.49024        11.78288
     1998.02327         7.27923        11.04849
     1998.02875         6.70318        11.52176
     1998.03149        -9.51134        12.07011
     1998.03422         1.00213        11.64579
     1998.03617        18.56618        17.95012
     1998.03970         4.05508        11.35530
     1998.04244        10.28456        12.11580
     1998.04517        24.59503        11.81552
     1998.04791         8.73951        11.36509
     1998.04938        24.50530        84.40916
     1998.05886        40.42041        11.52340
     1998.06160        24.10188        11.78451
     1998.06434         0.47236        11.49402
     1998.06708         8.02083        10.89998
     1998.09993        -5.26947        11.00116
     1998.10267       -37.02499        11.53319
     1998.10541       -40.29852        11.68823
     1998.10815       -11.34304        11.55440
     1998.11088        10.90943        11.45159
     1998.11362         3.58591        11.51034
     1998.11636        18.39238        11.24759
     1998.11910        10.43686        10.91304
     1998.12183        -1.93767        11.19700
     1998.12334       -16.75586        38.54242
     1998.12731         5.47328        10.79553
     1998.13005       -39.70624        11.98035
     1998.13826        -1.13582        11.12030
     1998.14100        -5.27134        10.75637
     1998.14374       -26.97187        11.76656
     1998.14648       -13.78539        10.84123
     1998.14921       -41.90992        11.51524
     1998.15195       -26.90344        11.53808
     1998.15469       -17.09997        11.15783
     1998.15743       -37.88549        10.99627
     1998.16016       -31.06702        11.35041
     1998.16290       -18.61354        10.91140
     1998.16564        -9.01607        10.92120
     1998.16838         3.14541        11.21822
     1998.18754        -8.64327        11.43364
     1998.19028        -9.81079        11.26881
     1998.19302        -2.51032        11.50055
     1998.19576       -10.90484        11.00279
     1998.19849        -5.76637        11.31777
     1998.20123        -3.02589        10.75473
     1998.20397        -8.59242        10.92283
     1998.20671        -8.75794        11.23943
     1998.20945        -7.40947        10.86081
     1998.21218       -16.16899        10.67150
     1998.21492       -12.75852        11.21169
     1998.21766         4.78996        11.02564
     1998.22040         0.05343        11.21985
     1998.22313        -9.55009        11.81226
     1998.22587       -18.12262        12.31980
     1998.22861       -57.18414        15.46299
     1998.23135       -58.10567        13.73799
     1998.23409        -5.40719        11.22964
     1998.23682        -4.69872        11.60010
     1998.23956        -3.77024        10.74005
     1998.24230       -12.79677        11.12846
     1998.24504        -9.10429        10.90488
     1998.24778        -1.75782        11.83674
     1998.25051        -7.40934        11.88569
     1998.25325       -13.36787        11.05665
     1998.25599       -10.49039        10.98811
     1998.25873        -1.53192        11.03870
     1998.26146        -9.23744        11.43853
     1998.26420       -15.59097        11.42058
     1998.26694        -5.34449        11.51360
     1998.26968        -3.31602        11.23617
     1998.27242        -2.39254        10.98811
     1998.27515       -17.54507        11.03870
     1998.27789        -0.73959        10.88856
     1998.28063         8.70888        10.71720
     1998.28337         6.81436        10.96363
     1998.28611        18.68683        11.93955
     1998.28884        -5.41969        11.00769
     1998.29158        -9.87322        10.93752
     1998.29432        -5.24974        10.69272
     1998.29706       -15.05727        10.66824
     1998.29979         1.01021        10.77595
     1998.30253         4.61668        10.90814
     1998.30527        -5.22984        10.74657
     1998.30801        -9.53137        10.82491
     1998.31075        -1.06189        10.54747
     1998.31348         7.90958        10.66987
     1998.31622        -3.51694        10.56706
     1998.31896        -7.73347        10.62907
     1998.32170       -12.04399        10.48546
     1998.32444        -1.75552        10.92120
     1998.32717       -19.20404        10.68619
     1998.32991       -11.57857        10.97668
     1998.33265         0.72491        10.81349
     1998.33539         7.23038        11.05339
     1998.33812         1.60886        10.89508
     1998.34086         5.35733        10.70577
     1998.34360        -0.68419        10.84123
     1998.34634        12.13228        11.15457
     1998.34908        15.77575        10.95057
     1998.35181         1.63123        11.33898
     1998.35455         2.74070        10.66661
     1998.35729         7.64818        10.72862
     1998.36003        -5.42035        10.50831
     1998.36277         3.81913        10.50341
     1998.36550         3.24560        10.49851
     1998.36824        -0.55092        10.79717
     1998.37098        -9.16145        10.87387
     1998.37372         1.66403        10.63723
     1998.37645         4.85050        10.74331
     1998.37860         2.49466        13.95504
     1998.38193        -1.05455        10.70251
     1998.38467        -3.94607        10.75147
     1998.38646        -9.18710        19.70776
     1998.39014       -12.06012        10.96363
     1998.39288        -3.40465        10.60949
     1998.39562        -8.57317        10.77595
     1998.39836       -16.83270        11.20026
     1998.40110       -10.44622        11.14478
     1998.40383        -5.48175        10.49851
     1998.40931        -1.74780        10.69598
     1998.41205         0.57168        10.80696
     1998.41478        -6.61985        10.58501
     1998.41752         0.05663        11.24922
     1998.42026        15.23310        11.25575
     1998.42300         3.58358        10.76779
     1998.42574        -2.63395        10.87387
     1998.42847        -5.96847        11.07297
     1998.43121         3.99300        11.10398
     1998.43395         8.56348        10.77105
     1998.43669        24.00195        10.99300
     1998.43943        14.31643        11.24106
     1998.44216        -2.65810        10.80043
     1998.44471        13.36828        11.75677
     1998.44764         7.62085        10.92446
     1998.45038         2.24933        10.72209
     1998.45311         4.29280        10.92936
     1998.45585        -3.80172        11.58704
     1998.45859        -2.08425        10.61438
     1998.46133        -5.34677        10.85265
     1998.46407         1.42970        10.77758
     1998.46680        -3.59982        10.77595
     1998.46954         0.43565        11.21495
     1998.47228        -2.48287        11.62131
     1998.47502        -7.23440        11.22311
     1998.47775        -4.71792        10.93425
     1998.48049         6.21555        11.22801
     1998.48323         2.45603        11.06481
     1998.48597       -18.60750        11.27370
     1998.48871        -7.54202        10.81512
     1998.49144        -9.42955        11.18068
     1998.49418        -6.89307        10.87224
     1998.49692        -8.63260        11.49892
     1998.49966       -12.70412        10.96526
     1998.50240        -7.93565        10.58501
     1998.50513        -4.16217        10.66334
     1998.50787        -8.77570        10.77105
     1998.51061        -6.22622        11.16926
     1998.51335        -8.04375        10.70741
     1998.51608       -10.66827        10.82001
     1998.51882         0.89720        11.22964
     1998.52156         9.23868        11.38141
     1998.52430        -7.14885        10.77758
     1998.52704       -13.80237        10.62581
     1998.52977        -7.21290        10.85755
     1998.53251       -16.69342        10.53442
     1998.53525        -2.19095        10.71720
     1998.53799        -6.61347        10.70251
     1998.54073        -5.89800        10.85918
     1998.54346       -14.95252        10.74331
     1998.54620         1.71695        10.55563
     1998.54894         4.50243        10.85102
     1998.55168        -3.59810        10.91467
     1998.55441         1.82638        10.87876
     1998.55700         0.78477        11.74698
     1998.55971         4.89323        11.97709
     1998.56263        -3.24320        11.14151
     1998.56537        -4.22472        10.78248
     1998.56810        -7.36125        10.97668
     1998.57084        -5.80177        10.85428
     1998.57358        -8.62330        10.69761
     1998.57632         4.86418        10.79880
     1998.57906       -12.06335        11.27044
     1998.58179         6.28813        10.85592
     1998.58453        -9.42940        10.91140
     1998.58727        -6.24692        10.48872
     1998.59001        -3.85445        10.86081
     1998.59274       -11.12097        10.67313
     1998.59548        -6.04450        10.73025
     1998.59822       -18.85802        10.95873
     1998.60370        -8.30207        10.77921
     1998.60643        -6.66660        10.54747
     1998.60917         6.63588        10.84286
     1998.61191         4.86935        10.83633
     1998.61465       -10.55017        10.51320
     1998.61739        -2.65070        10.83144
     1998.62012         8.13078        10.97831
     1998.62286         8.70025        11.20516
     1998.62560        -9.54127        10.90977
     1998.62834       -16.23380        10.62907
     1998.63107        -2.73832        10.75473
     1998.63381       -13.09285        10.53605
     1998.63592       -13.24071        15.15618
     1998.63911       -10.77999        11.55767
     1998.64203        -6.78442        10.58338
     1998.64476         0.39705        10.68129
     1998.64750       -12.01347        11.51197
     1998.65024       -21.00700        10.83470
     1998.65298        -4.75552        10.63560
     1998.65572       -10.13105        10.48546
     1998.65845       -15.89157        10.99953
     1998.66119        -9.73610        10.96036
     1998.66393        -7.20462        11.03217
     1998.66667        -2.45815        11.04359
     1998.66940         0.25133        10.58664
     1998.67214       -12.71620        10.97179
     1998.67488         9.10428        11.23943
     1998.67762        15.95975        11.04359
     1998.68036        30.02323        11.49076
     1998.68309        16.60870        11.06971
     1998.68583         8.93518        11.24759
     1998.68857        13.48565        11.92323
     1998.69131        15.47713        10.92936
     1998.69328        12.02919        17.78529
     1998.69678        14.47908        10.70904
     1998.69952        13.63255        10.80859
     1998.70226        14.20203        11.68823
     1998.70500         8.80650        10.81512
     1998.70773        15.95098        10.76779
     1998.71047       -10.55755        11.99177
     1998.71321        11.64593        11.26391
     1998.71595         3.96340        10.85265
     1998.71869        17.27288        10.69761
     1998.72142        -0.52765        10.65029
     1998.72416         2.62282        11.13988
     1998.72690        -3.02170        11.71434
     1998.72964         9.18277        11.10235
     1998.73238         4.82125        11.53972
     1998.73511         9.34472        11.12682
     1998.73785        18.65820        11.55277
     1998.74059         9.12767        10.97831
     1998.74333        15.68615        11.10071
     1998.74606        30.10762        11.50544
     1998.74880        31.43610        11.60826
     1998.75154        -0.47443        11.41895
     1998.75428         2.45405        11.27697
     1998.75702         1.97952        11.14804
     1998.75975         0.52700        11.33245
     1998.76249        12.04047        10.87224
     1998.76523        25.47895        11.35857
     1998.76797        12.83742        11.22638
     1998.77070        12.81690        11.52992
     1998.77344         3.85637        10.79553
     1998.77618        12.11585        10.97505
     1998.77892        13.35632        11.44669
     1998.78166        16.97180        11.85632
     1998.78439         8.25627        11.21006
     1998.78713        13.60975        11.20190
     1998.78987         8.07722        11.31287
     1998.79261        -3.83630        11.08113
     1998.79535        -3.12583        11.39610
     1998.79808         5.55665        11.11866
     1998.80082         4.26612        11.19700
     1998.80356        10.05560        11.10235
     1998.80630         3.52207        11.26065
     1998.80803         1.71901        22.92929
     1998.81177         4.99602        11.68823
     1998.81451        11.45150        11.79104
     1998.81725        24.68997        12.98891
     1998.81999        16.90545        11.60826
     1998.82272        30.84592        11.52503
     1998.82546        28.54840        11.36509
     1998.82815        37.27685        12.39324
     1998.83095        27.90835        11.26717
     1998.83368        34.31782        11.88080
     1998.83641        30.10530        11.77472
     1998.83915        32.43477        12.09622
     1998.84189        32.58025        11.15620
     1998.84463        29.86772        11.14314
     1998.84736        23.03820        10.99300
     1998.85010        35.91367        11.57725
     1998.85284        30.45915        11.92486
     1998.85558        27.36962        10.98647
     1998.85832        25.27010        11.05665
     1998.86105        42.21657        12.59560
     1998.86379        11.52405        12.65762
     1998.86653        24.07152        11.11866
     1998.86927        27.29300        10.96852
     1998.87201        35.57747        10.81838
     1998.87474        41.65995        10.87876
     1998.87748        12.87442        11.20026
     1998.88022        22.96190        10.77105
     1998.88296        27.08637        10.73515
     1998.88569        33.43785        10.77595
     1998.88843        47.18532        10.84123
     1998.89117        38.00480        11.38468
     1998.89391        11.78727        11.25575
     1998.89665        16.11875        11.06971
     1998.89938        40.36022        11.02075
     1998.90212        27.61270        10.96036
     1998.90486        38.24017        10.87550
     1998.90760        19.24165        13.19780
     1998.91034        45.63712        11.03054
     1998.91307        30.85960        11.91507
     1998.91855        44.38955        10.96526
     1998.92129        40.25302        11.14151
     1998.92402        47.83650        11.66375
     1998.92676        47.59997        10.97995
     1998.92950        47.42845        10.77105
     1998.93224        37.61492        10.79880
     1998.93498        34.54140        11.34225
     1998.93771        20.62287        10.90977
     1998.94045        23.85735        10.88366
     1998.94319        43.56382        10.95547
     1998.94593        33.68130        10.89182
     1998.94867        32.60677        11.09255
     1998.95140        37.03325        11.99993
     1998.95414        37.90372        12.20883
     1998.95688        45.53820        10.90161
     1998.95962        33.23567        11.37815
     1998.96235        26.33015        11.61315
     1998.96509        22.87762        11.25575
     1998.96783        43.55810        11.29002
     1998.97057        28.95657        10.96199
     1998.97331        39.01905        11.54788
     1998.97604        43.05352        11.02891
     1998.97878        36.07900        11.32919
     1998.98152        41.50447        11.91833
     1998.98426        38.93895        11.46301
     1998.98700        40.94442        11.34877
     1998.98973        46.49990        11.81715
     1998.99247        20.03237        10.86897
     1998.99521        35.21185        11.40589
     1998.99730        31.68497        16.64128
     1999.00459        33.75990        43.51016
     1999.00616        20.09975        12.04400
     1999.00890        25.89722        11.81062
     1999.01164        22.99270        11.49892
     1999.01437        23.13417        11.53319
     1999.01711        39.15765        11.74045
     1999.01985        21.16512        11.01585
     1999.02259         7.55460        11.30961
     1999.02533        15.22907        11.64253
     1999.02806        23.18355        12.22515
     1999.03080        23.43902        11.88896
     1999.03354        39.49150        12.08806
     1999.03628        21.78797        12.12560
     1999.03901        32.95245        12.59071
     1999.04175        18.23592        12.56786
     1999.04449        18.54340        11.56093
     1999.04723        13.45687        11.79267
     1999.04997        -8.02365        15.68657
     1999.05270        24.96482        12.42425
     1999.05544        17.50430        11.86611
     1999.05818        15.19877        11.51197
     1999.06092        11.70625        11.50055
     1999.06366        -4.94728        13.87344
     1999.06639       -38.01780        15.76164
     1999.06913       -31.22433        15.48584
     1999.07187       -32.92085        14.06438
     1999.07461        18.19762        13.86528
     1999.07734        12.29910        12.97422
     1999.08008        17.42457        11.67843
     1999.08282        32.89505        12.40466
     1999.08556        35.23352        12.15171
     1999.08830        21.89800        11.64906
     1999.09103        30.35747        12.09132
     1999.09377        32.81395        12.22351
     1999.09651        17.61242        11.58051
     1999.09925        18.97289        12.24636
