# ================= DQRFIT RESULTS ================
# INPUT FILE: series/JOBO.rad
# OUTPUT: LDETRENDED
# FILTER FUNCTION: f(t)
# f(t)=+line(t)+annual(t)+jumps(t)
# line(t)=+P 1+P 2*t
# annual(t)=+P 3*sin(2*pi*t+P 4)
# jumps(t)=+P 5*heav(t-2016.2201  )+P 6*heav(t-2018.9151  )+P 7*heav(t-2019.3312  )
# heav(t)=(t<0?0:1)
# TOTAL OBSERVATIONS MTOT= 2955
# INITIAL TIME INTERVAL= 2022.7488 - 2014.5815 =  8.1673
# TOTAL OBSERVATIONS AFTER PREFILTER M= 2899
# TIME-SPAN= 2022.7488 - 2014.5815 =  8.1673
# OBSERVATIONS: USED M=  2899 REJECTED MTOT-M=    56 %USED=   98.1049
# N=  7 PARAMETERS
# MAXSIG= 175.00000
# MAXRES=  58.86644
# SCALE FACTOR FOR LENGTHS: SCL=  10.00000
# SCALE FACTOR FOR SIGMAS: SCLSIG=   1.00000
# CHI^2=   2352.950 DOF=  2892 CHI^2/DOF=   0.81361
# RMS=      5.569 SDEV=      5.562 MEAN=    0.29770
#  P #       PARAMETER +-    SIGMA %error PARAMETER NAME
# P 1 =      2896.81116 +-  234.965   8.11 YZERO                              
# P 2 =        -1.44325 +-    0.117   8.08 SLOPE                              
# P 3 =         5.09040 +-    0.135   2.65 ANNUAL AMPLITUDE                   
# P 4 =         2.99048 +-    0.037   1.24 ANNUAL PHASE                       
# P 5 =        -2.00161 +-    0.390  19.47 OFFSET 2016.2201                   
# P 6 =       151.20551 +-    0.498   0.33 OFFSET 2018.9151                   
# P 7 =      -138.74916 +-    0.514   0.37 OFFSET 2019.3312                   
#       T            LDETRENDED       SIG_OBS
     2014.58152        -0.21050         5.45891
     2014.58556       -13.49167        12.62622
     2014.58726        -4.36121         5.08999
     2014.59000         1.92274         5.00881
     2014.59274         3.57469         5.03768
     2014.59548         4.82364         5.02956
     2014.59822         2.23860         5.09090
     2014.60095         1.27855         5.30557
     2014.60369         0.22350         5.04219
     2014.60643        -5.82555         5.03497
     2014.60917         2.11740         5.03768
     2014.61190         6.45035         5.09721
     2014.61464         8.34330         5.04129
     2014.61738        -3.59574         5.24333
     2014.62012         4.72321         5.04940
     2014.62286        11.24316         5.06654
     2014.62559         3.11811         4.92673
     2014.62833        -4.39394         5.08819
     2014.63107        16.04901         5.10082
     2014.63381         6.49296         5.13690
     2014.63655        12.06292         4.98807
     2014.63928         0.01987         4.96011
     2014.64202         0.09482         4.92403
     2014.64476        -3.33723         4.96913
     2014.64750         5.02172         4.93846
     2014.65023        -2.65433         4.97544
     2014.65297         6.65062         4.97544
     2014.65571        11.87958         4.94838
     2014.65845        13.19053         5.03678
     2014.66119         7.26048         4.98175
     2014.66392         4.75143         4.99528
     2014.66666         9.21038         4.97273
     2014.66940         5.29633         4.99168
     2014.67214         3.72128         5.01783
     2014.67488        -0.03176         4.95740
     2014.67761        -1.69281         4.97634
     2014.68035         0.86514         4.97544
     2014.68309        -2.72091         4.91591
     2014.68583        -0.62896         4.95920
     2014.68856         1.43799         4.90328
     2014.69130        -4.80806         4.95469
     2014.69404        -0.21910         4.89336
     2014.69678        -2.43415         4.96822
     2014.69952         3.15480         4.89787
     2014.70225         1.62075         5.04129
     2014.70499         2.31370         4.93395
     2014.70773         3.41565         4.90328
     2014.71047         3.58060         5.02956
     2014.71321         8.16456         4.90599
     2014.71594         8.12551         4.89697
     2014.71868         9.04046         4.95830
     2014.72142         4.54141         4.92673
     2014.72416         5.69436         5.00340
     2014.72689        -2.97569         5.02956
     2014.72963         1.51226         4.94658
     2014.73237         9.36522         5.02415
     2014.73511         4.88517         4.90508
     2014.73785         2.87412         4.99077
     2014.74058         0.28807         4.94116
     2014.74332         0.74202         5.13780
     2014.74606         9.42897         5.09270
     2014.74880         5.89092         4.94387
     2014.75154         6.17488         5.04940
     2014.75427        -0.82217         4.96462
     2014.75701         7.88378         5.17208
     2014.75927         1.26104         6.06776
     2014.76333        -1.60610         8.93342
     2014.76522         3.23063         4.97093
     2014.76793         5.37654         5.10894
     2014.77002        10.47755         6.62971
     2014.79038        10.45094         6.62340
     2014.79260         6.23915         4.93756
     2014.79534         6.03510         5.01964
     2014.79808        12.86805         5.12337
     2014.80082         7.11200         5.15313
     2014.80355         7.74095         5.05031
     2014.80629         7.37090         5.06113
     2014.80903         8.86185         5.05842
     2014.81177         6.26281         4.93756
     2014.81451        11.48176         4.95469
     2014.81724         8.63271         4.94297
     2014.81998         5.97566         4.94928
     2014.82272         7.43261         5.18110
     2014.82546         5.86956         4.98356
     2014.82820       -11.51149         4.99258
     2014.83093         2.97247         5.04038
     2014.83367         1.29942         4.99528
     2014.83641         2.44537         5.01964
     2014.83915        -0.13268         5.49680
     2014.84188         4.06027         5.09541
     2014.84462        -3.24878         5.08548
     2014.84736         8.04717         5.16757
     2014.85010        -1.01687         5.05752
     2014.85284        -4.75692         5.01242
     2014.85557        -1.19697         5.95592
     2014.85831        -0.58402         7.39371
     2014.86105         5.73293         7.28637
     2014.86379         0.92788         7.32425
     2014.86653        -0.80817         7.28547
     2014.86926         2.58979         7.21872
     2014.87200         3.41474         7.60748
     2014.87474         0.71569         7.25209
     2014.87748         4.30864         7.59124
     2014.88021         5.63459         7.55787
     2014.88295         9.73754         7.38198
     2014.88569         4.57949         5.32181
     2014.88843         5.92645         5.22349
     2014.89117        11.18240         5.16666
     2014.89390         4.31735         5.11525
     2014.89664         2.55030         5.10443
     2014.89938        -0.89975         5.12247
     2014.90212        -5.70080         5.13870
     2014.90395        -1.37415         8.80985
     2014.90800        -2.59530         6.20126
     2014.91033         6.23206         4.97544
     2014.91307         3.63001         4.84375
     2014.91581         2.42396         4.93214
     2014.91854         3.74191         4.87532
     2014.92128        -0.98914         4.95830
     2014.92402         1.04081         4.84826
     2014.92676         1.02277         5.08819
     2014.92950        -1.87128         4.96371
     2014.93223        -7.86633         4.90779
     2014.93497        -9.26238         4.97724
     2014.93771        -5.31143         4.99348
     2014.93949        -6.50886         9.51702
     2014.94353        -6.88202         6.15165
     2014.94592        -2.09657         4.90148
     2014.94866       -13.80262         4.93485
     2014.95140       -10.48467         4.90508
     2014.95414        -1.95772         4.94477
     2014.95687         5.31223         4.94748
     2014.95961         5.16118         4.94658
     2014.96235        -1.74087         4.92493
     2014.96509         2.04709         5.00972
     2014.96783        -7.34796         4.83022
     2014.97056         1.20399         5.05662
     2014.97330        -9.37206         4.97815
     2014.97604        -8.50011         4.87532
     2014.97878        -4.03816         4.95920
     2014.98151         0.30079         4.93756
     2014.98425        -1.79225         5.06293
     2014.98699        -4.31030         4.85728
     2014.98973        -3.05235         4.86991
     2014.99247        -4.27340         4.88073
     2014.99520        -9.35645         4.91591
     2014.99794        -3.13750         4.91230
     2015.00068        -4.37855         4.91050
     2015.00342        -5.04059         5.09270
     2015.00616       -11.16764         4.90148
     2015.00889        -7.68169         4.99348
     2015.01163        -4.73874         4.98356
     2015.01437        -5.00779         4.94207
     2015.01711        -7.05884         5.12066
     2015.01977        -4.66300         5.10984
     2015.05835         1.12869         5.24965
     2015.06091         2.51339         4.99077
     2015.06365         2.85334         5.10352
     2015.06639        -2.18271         4.85277
     2015.06913        -1.22276         4.97724
     2015.07186        -5.05981         4.97995
     2015.07460         0.50214         4.98807
     2015.07734       -13.66891         4.89787
     2015.08008       -13.23596         4.93034
     2015.08282        -5.28700         4.84375
     2015.08555         0.21095         4.98536
     2015.08829         2.67390         4.89967
     2015.09103         2.34385         4.97093
     2015.09375        -2.21022         4.86810
     2015.09660         0.52889         5.13149
     2015.09924         6.15170         5.13690
     2015.10198         7.68966         4.99258
     2015.10472         5.93361         4.98175
     2015.10746        -1.93444         4.88524
     2015.11019        -4.40049         5.22620
     2015.11293        -3.83254         6.00823
     2015.11567        -6.94759         5.34797
     2015.11841        -4.36264         5.16666
     2015.12115        -1.09968         5.16847
     2015.12388        -9.62673         5.02144
     2015.12662        -9.84578         5.01152
     2015.12936        -4.73583         5.25055
     2015.13210        -4.46388         4.96191
     2015.13483        -3.57693         4.86991
     2015.13757        -3.65498         4.96101
     2015.14031       -13.65602         4.83202
     2015.14305        -3.20707         4.88073
     2015.14579        -3.24312         4.86720
     2015.14825       -11.74657         5.55903
     2015.15230         0.51128        10.43796
     2015.15400        -5.15827         4.92944
     2015.15674        -0.97132         4.80226
     2015.15948         2.39364         4.88434
     2015.16221         2.74259         4.81398
     2015.16495        -0.22046         4.91320
     2015.16769        -0.21751         4.88434
     2015.17043        -1.61156         4.78782
     2015.17316        -1.76161         5.07376
     2015.17590        -9.85066         4.91410
     2015.17864        -7.82870         4.88434
     2015.18138        -3.71575         4.82841
     2015.18412        -0.73880         4.98266
     2015.18685        -2.15085         4.94748
     2015.18959        -3.02891         4.99799
     2015.19233         1.44505         5.15584
     2015.19507        -8.06100         4.95018
     2015.19780         1.96896         5.12337
     2015.20054        -3.17309         5.47334
     2015.20328        -3.92814         4.80767
     2015.20566        -9.75270         6.13090
     2015.20971       -12.76286         9.06241
     2015.21149        -6.65729         4.95920
     2015.21423       -10.25234         5.01964
     2015.21697        -6.46138         4.94567
     2015.21971       -11.22443         4.87171
     2015.22245        -1.16848         4.81488
     2015.22518        -0.83853         4.92403
     2015.22792        -6.57358         4.89697
     2015.23066        -0.85763         4.81308
     2015.23340        -4.97168         5.24875
     2015.23612        -2.77775         5.32722
     2015.23886         1.58621         5.16486
     2015.24160        -0.20084         5.13239
     2015.24432         4.97510         5.19553
     2015.24985        -7.41293         4.93846
     2015.25259        -1.15698         4.96191
     2015.25532        -7.19804         4.96371
     2015.25805        -7.93309         5.01062
     2015.26079        -3.00615         4.85277
     2015.26351        -5.23921         4.78873
     2015.26624        -4.44627         4.92403
     2015.26897        -6.38533         4.78873
     2015.27171        -4.36738         5.13960
     2015.27444         8.84956         5.07737
     2015.27721        -3.13045         5.02776
     2015.27994        -3.38850         4.90779
     2015.28268        -2.86455         4.86720
     2015.28542       -10.21560         5.04580
     2015.28815        -9.86465         5.11435
     2015.29089        -5.12570         5.03768
     2015.29292        -0.38777         7.90424
     2015.29697        -6.30193         6.37535
     2015.29911        -2.35084         4.81308
     2015.30184         0.73511         4.92403
     2015.30458        -2.75694         5.01332
     2015.30732         1.93401         4.71386
     2015.31006        -6.10204         4.85638
     2015.31279        -6.14408         4.81849
     2015.31553        -9.03113         4.74002
     2015.31827        -8.42918         4.77249
     2015.32101        -8.30523         4.74633
     2015.32375       -14.25128         4.75716
     2015.32648        -7.86133         4.78782
     2015.32922        -5.99838         4.82481
     2015.33196         1.61757         4.77159
     2015.33470        -8.70647         4.76888
     2015.33744        -9.69452         4.82932
     2015.34017        -9.80257         4.81849
     2015.34289       -18.61565         8.12072
     2015.34566        -4.80765         4.74723
     2015.34840        -6.41870         4.71386
     2015.35115        -6.59772         5.43095
     2015.35385        -5.09783         4.77610
     2015.35749        -3.37958         9.30324
     2015.35934        -7.38391         4.86449
     2015.36205        -3.60299         4.83022
     2015.36481        -8.39401         5.27220
     2015.36755        -5.01606         4.72378
     2015.37026        -3.54315         4.77700
     2015.37303        -7.38115         4.78963
     2015.37577        -8.66420         4.68951
     2015.37850       -11.54225         4.95469
     2015.38124        -8.91130         4.69492
     2015.38398        -7.08535         4.81398
     2015.38672        -9.44740         4.80406
     2015.38945        -7.39345         4.84645
     2015.39219        -3.02349         5.39848
     2015.39493        -4.67554         4.75625
     2015.39767        -9.14559         4.79775
     2015.40041        -8.67364         4.76437
     2015.40314        -9.28769         4.87802
     2015.40588        -9.93274         4.85367
     2015.40862         0.91721         5.44538
     2015.41136        -5.40683         4.80947
     2015.41410        -4.94588         4.79414
     2015.41683        -8.85293         4.75806
     2015.41940        -7.16022         4.93756
     2015.42352         0.20371        16.56977
     2015.42505        -7.54108         4.96462
     2015.42778        -7.05113         4.73190
     2015.43052        -4.42817         4.81218
     2015.43326        -3.71522         4.78873
     2015.43587        -1.41746         4.91771
     2015.43992       -11.65361        20.39245
     2015.44147         2.84263         5.03948
     2015.44421        -0.86242         4.79865
     2015.44695        -5.44647         4.73821
     2015.44969        -3.45951         4.79684
     2015.45243        -0.64456         4.93214
     2015.45516         4.07439         4.82300
     2015.45790         1.21434         4.96371
     2015.46064         0.83129         4.98085
     2015.46338        -5.24676         4.86720
     2015.46611         0.37419         5.01152
     2015.46885        -3.83785         4.76888
     2015.47159         6.27410         4.87532
     2015.47433        -1.74795         5.00791
     2015.47707        -2.21900         4.83563
     2015.47980        -5.63105         4.97995
     2015.48254        -2.38110         5.25686
     2015.48528        -2.78215         4.88073
     2015.48802         1.78581         4.83022
     2015.49076         0.38576         4.85096
     2015.49327         6.89239         5.27490
     2015.49732        -4.50877        14.28500
     2015.49897         1.73061         4.88163
     2015.50171         2.19556         4.86720
     2015.50444         4.96551         4.84014
     2015.50718        -3.24953         4.81308
     2015.50992        -1.99558         4.82751
     2015.51266         0.08137         4.89336
     2015.51540        -0.14368         4.80496
     2015.51813        -1.87173         4.97905
     2015.52087        -1.13078         4.84014
     2015.52361         3.30917         4.89967
     2015.52635         0.29913         4.76437
     2015.52908         3.99008         4.87622
     2015.53182         3.18003         4.73100
     2015.53456         4.68998         4.84555
     2015.53730         2.03593         4.92042
     2015.54004         2.32688         4.95109
     2015.54277        -1.77617         5.03678
     2015.54551         7.41279         4.91861
     2015.54825         6.11574         5.00430
     2015.55099         2.68769         5.05752
     2015.55373         9.16264         4.91861
     2015.55646         9.75659         4.95018
     2015.55920         6.71854         4.90148
     2015.56194        12.24049         4.92673
     2015.56468         7.32645         4.87171
     2015.56741         6.14140         8.51580
     2015.57015         6.00535         8.71514
     2015.57289         7.57830         8.75122
     2015.57563        13.27925         8.47521
     2015.57837        11.92220         8.65470
     2015.58110        15.35415         8.62494
     2015.58384         6.90311         8.81526
     2015.58658         4.29306         8.97221
     2015.58932        14.54201         9.21936
     2015.59206        20.60296         8.64659
     2015.59479        16.63491         8.71153
     2015.59753        11.73486         8.96048
     2015.60027        19.68981         8.74130
     2015.60301        18.81176         9.36638
     2015.60535         5.61114         9.93464
     2015.60939        23.19198        49.51627
     2015.61122        12.84662         8.49866
     2015.61396        11.80057         9.45749
     2015.61670         4.43552         8.85856
     2015.61943         9.08447         9.02543
     2015.62217         6.16442         9.00829
     2015.62491        17.23538         8.77557
     2015.62765         7.15433         9.05609
     2015.63039         4.75928         9.00739
     2015.63268        15.19759        10.15563
     2015.63661        62.17527        27.48398
     2015.63860         4.00413         8.53384
     2015.64134        11.26708         8.54646
     2015.64407        17.63704         8.40485
     2015.64681        11.49799         9.03445
     2015.64955        16.93494         8.84232
     2015.65229        10.63989         8.50768
     2015.65503        10.22984         8.76745
     2015.65776        13.79879         8.57533
     2015.66050         8.48074         8.67365
     2015.66324        14.90070         8.41748
     2015.66598        22.34165         8.78189
     2015.66872         8.19860         8.77196
     2015.67145        12.83955         8.27045
     2015.67419        12.72550         8.08374
     2015.67693        11.60045         8.43281
     2015.67967         8.89040         8.55909
     2015.68240         4.77336         8.48874
     2015.68514        15.19031         9.82189
     2015.68788         7.60626         8.35975
