# ================= DQRFIT RESULTS ================
# INPUT FILE: series/JORD.rad
# OUTPUT: LDETRENDED
# FILTER FUNCTION: f(t)
# f(t)=+line(t)
# line(t)=+P 1+P 2*t
# heav(t)=(t<0?0:1)
# TOTAL OBSERVATIONS MTOT=  601
# INITIAL TIME INTERVAL= 2020.8677 - 2019.0034 =  1.8643
# TOTAL OBSERVATIONS AFTER PREFILTER M=  598
# TIME-SPAN= 2020.8677 - 2019.0034 =  1.8643
# OBSERVATIONS: USED M=   598 REJECTED MTOT-M=     3 %USED=   99.5008
# N=  2 PARAMETERS
# MAXSIG= 175.00000
# MAXRES=  45.58085
# SCALE FACTOR FOR LENGTHS: SCL=  10.00000
# SCALE FACTOR FOR SIGMAS: SCLSIG=   1.00000
# CHI^2=    708.924 DOF=   596 CHI^2/DOF=   1.18947
# RMS=     10.262 SDEV=     10.265 MEAN=    0.33896
#  P #       PARAMETER +-    SIGMA %error PARAMETER NAME
# P 1 =     -1859.44673 +- 1471.548  79.14 YZERO                              
# P 2 =         0.91106 +-    0.729  79.96 SLOPE                              
#       T            LDETRENDED       SIG_OBS
     2019.00342         8.92059         9.22671
     2019.00616        -5.61590        10.28135
     2019.00889       -11.27440        10.19083
     2019.01163        12.43911         9.89963
     2019.01437        -5.07839         9.62697
     2019.01711        26.07412         9.66951
     2019.01984        15.97463         9.44484
     2019.02258         2.17113         9.88872
     2019.02532        -1.33636         9.72295
     2019.02806        12.22114         9.57353
     2019.03080         6.20165         9.54517
     2019.03353        10.18915         9.19508
     2019.03627        -3.06334         9.30633
     2019.03901         5.90417         9.47756
     2019.04175       -12.13433         9.24634
     2019.04449         4.92618         9.34668
     2019.04722         0.64568         9.79166
     2019.04996        -5.60681         9.63352
     2019.05270         7.54369        10.30971
     2019.05544       -10.03080         9.18854
     2019.05817         1.58671         9.79602
     2019.06091        -0.76279         9.90726
     2019.06365         4.51472         9.55390
     2019.06639        18.67422         9.71968
     2019.06913         6.44973         9.46011
     2019.07186       -10.01377         9.29324
     2019.07460        -3.04026         9.22562
     2019.07734        -0.49476         9.04240
     2019.08008         5.55075         9.24089
     2019.08282        -9.66274         9.44593
     2019.08555         9.92476         9.85055
     2019.08829        -1.57073         9.14382
     2019.09103         3.30577         9.32269
     2019.09377        12.41528         8.70430
     2019.09650        -2.13622         8.73484
     2019.09924        -6.63171         8.88207
     2019.10198       -12.12220         8.92025
     2019.10472       -14.40970         9.31178
     2019.10746       -25.17019         8.86789
     2019.11019       -15.99869         8.65413
     2019.11567       -38.54268         9.51246
     2019.11841        -2.20117         9.31505
     2019.12115        11.71234         9.58771
     2019.12388         9.85384         9.49610
     2019.12662        18.23835         9.26488
     2019.12936        -2.73915         9.32596
     2019.13210        -0.36464         9.27143
     2019.13483         6.72186         9.21362
     2019.13757        19.50237         9.41975
     2019.14031        -0.14813         9.06421
     2019.14305         0.72138         9.52882
     2019.14579        -6.87111         9.60407
     2019.14852        -0.04861         9.30960
     2019.15126        12.33090         9.16455
     2019.15400         4.25940         9.34232
     2019.15674         1.19591         9.05112
     2019.15948        -2.65159         9.18527
     2019.16221       -12.56108         9.19181
     2019.16495         3.73843         9.00750
     2019.16769        -2.57107         9.00422
     2019.17043        -2.82456         9.17981
     2019.17316         6.98794         9.88654
     2019.17590         0.10945         9.02495
     2019.17864         3.11195         9.39903
     2019.18138        -7.99154         9.22780
     2019.18412       -16.17103         8.96823
     2019.18685        -0.09753         9.39903
     2019.18959         7.66998         9.28997
     2019.19233         3.92448         9.46774
     2019.19507        -8.12601         9.02276
     2019.19780        -9.10951         9.21035
     2019.20054        -4.74300         9.83528
     2019.20328       -10.61750         9.27906
     2019.20602        -3.63899         9.28124
     2019.20876       -10.78748         9.29433
     2019.21149        -4.31598         9.23216
     2019.21423        -4.17147         9.12637
     2019.21697        -0.70997         9.58989
     2019.21971        -0.79446         9.37067
     2019.22245         5.91004         9.36849
     2019.22518        -4.27945         9.16564
     2019.22792        -4.79894         9.34777
     2019.23066       -14.51444         9.37613
     2019.23340       -13.02793         9.18636
     2019.23613        -1.29443         9.06748
     2019.23887         1.02808         9.17763
     2019.24161        -2.32342         9.24416
     2019.24435       -13.79291         9.10238
     2019.24709       -12.46840         9.43938
     2019.24982         1.52510         8.95078
     2019.25256        -1.08439         9.50918
     2019.25530         4.64611         9.44920
     2019.25804         9.11662         9.43611
     2019.26078        -5.12888         9.13292
     2019.26351       -10.66737         9.64006
     2019.26625        -8.69587         9.46447
     2019.26899       -11.98736         9.49501
     2019.27173         3.74715         9.94762
     2019.27446         1.83665         9.26270
     2019.27720         3.41116         9.77312
     2019.27994         3.03766         9.28670
     2019.28268        -3.62383         9.65424
     2019.28542         8.43867         9.56699
     2019.28815        -0.39482         9.13728
     2019.29089        -4.98831         9.50809
     2019.29363         5.43819         9.39249
     2019.29637         5.21570        10.00760
     2019.29911        -1.06580         9.11329
     2019.30184         3.76571         9.09802
     2019.30458       -13.36679         9.29324
     2019.30732        10.24472         9.88109
     2019.31006         5.37723         9.54845
     2019.31279         1.98773         9.32814
     2019.31553         6.35524         9.60080
     2019.31827        -4.90526         9.45138
     2019.32101        -0.81575         9.20381
     2019.32375       -10.17925         9.50373
     2019.32648        -1.25074         9.16018
     2019.32922         1.00976         9.19508
     2019.33196        -6.44873         9.41103
     2019.33470         4.58778         9.53536
     2019.33744       -14.30772         9.28342
     2019.34017        -0.57021         9.23435
     2019.34291        -2.46271         9.46447
     2019.34565         2.63280         9.53536
     2019.34839        13.18830         9.52991
     2019.35112         7.98581         9.41757
     2019.35386         5.86532         9.89527
     2019.35660        12.36182         9.53209
     2019.35934        -0.05367         9.58117
     2019.36208        11.75383         9.60952
     2019.36481        12.71534        10.05668
     2019.36755         0.14484         9.82765
     2019.37029        -0.35965         9.94107
     2019.37303         0.75986         9.94544
     2019.37577       -12.00664         9.89527
     2019.37850        10.49587         9.57789
     2019.38124         8.24937         9.68041
     2019.38398         7.49588         9.48192
     2019.38672         7.72038         9.54954
     2019.38945       -10.39811         9.79711
     2019.39219        15.58839         9.78511
     2019.39493        12.01990         9.59643
     2019.39767         1.15341         9.64551
     2019.40041        -0.68509         9.58989
     2019.40314        -3.16658         9.74476
     2019.40588         3.62692         9.80583
     2019.40862        23.65643        10.27153
     2019.41136        18.25893        10.07413
     2019.41410        12.88844        10.25626
     2019.41683        -4.96105         9.80256
     2019.41957         4.82745        10.38278
     2019.42231         8.80196        10.13193
     2019.42505         9.34546         9.91599
     2019.42778        11.93597        10.29989
     2019.43052        22.07647        10.40132
     2019.43326        -5.16002        10.47330
     2019.43600        15.90948        10.14393
     2019.43874        -1.53801        10.03923
     2019.44147       -10.93050        10.56055
     2019.44421        -4.89000         9.99669
     2019.44695         1.80051        10.97281
     2019.44969        23.89401        10.90192
     2019.45243        10.50552        10.23227
     2019.45516        -6.49398        10.56273
     2019.45790         2.47253        10.60417
     2019.46064        -8.83496        10.51147
     2019.46338        -0.79946        10.71106
     2019.46611        30.25505        10.71215
     2019.46885         5.43455        10.33806
     2019.47159         6.16006         9.93998
     2019.47433        11.55356        10.96299
     2019.47707         9.29407        10.40459
     2019.47980        22.96058        10.58236
     2019.48254        -0.17592        10.19301
     2019.48528         6.18559        10.57473
     2019.48802         2.66409        10.38932
     2019.49076        -3.74640        10.49511
     2019.49349         9.77810         9.98361
     2019.49623        -0.61939        10.34133
     2019.49897         4.07211        11.05569
     2019.50146       -14.05116        10.96408
     2019.62217        15.40087        10.26281
     2019.62491        14.18337        10.20064
     2019.62765        -2.94112        10.16901
     2019.63039        -5.56561        10.07631
     2019.63860        12.65690        10.18646
     2019.64134         9.88241        10.77431
     2019.64407       -21.71509        10.40132
     2019.64681        -8.92058         9.83637
     2019.64955        11.51493         9.88436
     2019.65229         8.14243        10.11666
     2019.65503         1.34094        10.28462
     2019.65776        -7.68656        10.42531
     2019.66050        -2.97705        10.63035
     2019.66324       -22.46555        10.09921
     2019.66598        -7.20404        10.05668
     2019.66872        13.50647        10.69470
     2019.67145         4.06097        10.36096
     2019.67419       -12.07252        10.40132
     2019.67693       -16.69002        10.65543
     2019.67967         6.75549        10.71869
     2019.68240         3.76799         9.85600
     2019.68514         5.48050        10.63471
     2019.68788         7.37200        10.85938
     2019.69062         6.67351        10.25408
     2019.69336         6.86502        10.27371
     2019.69609        13.60652        10.48966
     2019.69883        22.27103        10.94990
     2019.70157        13.57153        10.86156
     2019.70431        19.74604        11.70026
     2019.70705         1.01154        10.55619
     2019.70978        11.42505        10.91937
     2019.71252        -8.40844        10.42095
     2019.71526         4.35006        10.10685
     2019.71800        14.25957        10.57255
     2019.72073        12.54807        10.91718
     2019.72347         1.24158        10.70560
     2019.72621         9.97308        10.43949
     2019.72895       -16.57241        10.25954
     2019.73169        -6.63790         9.90181
     2019.73442         7.69560        10.69579
     2019.73716        -0.38189        10.21918
     2019.73990         2.48461        10.33152
     2019.74264       -11.59988         9.79602
     2019.74538         3.62162        10.31952
     2019.74811         8.83313        10.10358
     2019.75085         9.45563         9.96943
     2019.75359         8.66214        10.88228
     2019.75633        15.01965        10.66852
     2019.75906         2.88715         9.97379
     2019.76180        -7.18334         9.81674
     2019.76454        21.65916        10.60745
     2019.76728        -6.78233         9.90944
     2019.77002        11.14417        10.08613
     2019.77275        12.14568        10.41986
     2019.77549        -0.03281        10.07740
     2019.77823        -2.67731         9.78075
     2019.78097         1.77420        10.24536
     2019.78371         0.64870        10.18974
     2019.78644        -3.41279        10.23009
     2019.78918        -3.92129        10.72196
     2019.79192         6.57222        10.30861
     2019.79466         6.84773        10.05014
     2019.79739         4.60823        10.16029
     2019.80013        -3.78326        10.53765
     2019.80287        11.71124        10.09158
     2019.80561        -6.03725        10.41877
     2019.80835        -7.13275        10.19410
     2019.81108         9.12176        10.05232
     2019.81382         6.77226        10.38278
     2019.81656       -12.34823         9.86037
     2019.81930        -0.25572         9.86255
     2019.82203         2.34578         9.84728
     2019.82477         1.84529        10.17447
     2019.82751       -13.20121         9.85055
     2019.83025        -4.64470        10.23990
     2019.83299         3.52080        10.27480
     2019.83572         7.54031        10.01633
     2019.83846         6.46582         9.94434
     2019.84120         0.29232         9.80474
     2019.84394         8.39183        10.36315
     2019.84668        -9.75967        10.09594
     2019.84941        17.17184         9.75894
     2019.85215         6.44134        10.48857
     2019.85489       -12.21715        10.26063
     2019.85763         0.27936        10.52456
     2019.86036        -9.38014         9.78511
     2019.86310       -14.88863        10.20064
     2019.86584        -0.39813         9.93344
     2019.86858        13.21238        10.23772
     2019.87132       -13.08912        10.60199
     2019.87405        -2.13661        10.39041
     2019.87679        12.69189        11.48431
     2019.87953        19.54640        10.11121
     2019.88227        13.48491        10.26063
     2019.88501         9.18741        10.49947
     2019.88774        -9.51908        10.06868
     2019.89048         8.51442         9.61388
     2019.89322        16.83593         9.92362
     2019.89596       -13.83557        10.20937
     2019.89869       -16.30906         9.99888
     2019.90143         6.85045        10.13739
     2019.90408        -9.35197        10.46676
     2020.00000         4.48465        10.66089
     2020.00273       -12.77285         9.77421
     2020.00547         8.92466        10.55073
     2020.00821        -3.25283        10.44821
     2020.01095        -6.58833        10.58345
     2020.01368        -0.72382        11.18221
     2020.01642       -12.06932        10.94227
     2020.01916       -10.94581        10.07631
     2020.02190       -18.60231        10.01196
     2020.02464        -9.53080        10.56164
     2020.02737        -6.44829        10.23990
     2020.03011         0.09721        10.59436
     2020.03285       -38.04728         9.40230
     2020.03559       -26.77278         8.77737
     2020.04208       -18.17169        22.83448
     2020.04380       -18.15126         9.58117
     2020.04654        -3.02976         9.83855
     2020.04928        -3.29725         9.58335
     2020.05201       -24.72874        10.44385
     2020.05472        -8.27621        10.87683
     2020.06673        45.58085        20.56488
     2020.06844        12.34929        10.25626
     2020.07118        12.76180        14.44318
     2020.07392         3.01530        10.03705
     2020.07666         7.04281         9.88981
     2020.07939        -0.20569         9.57898
     2020.08213        -8.64418        10.92373
     2020.08487       -14.21268        10.11230
     2020.08761        -5.04817        10.39586
     2020.09034        -9.71166         9.75021
     2020.09308       -10.33516         9.26052
     2020.09582        -0.98965        10.38278
     2020.09856        -9.17715         9.86146
     2020.10130        -0.94664        10.37405
     2020.10403         1.57986        10.16683
     2020.10677         4.84037         9.70441
     2020.10951       -10.29613         9.36740
     2020.11225        -7.49062         9.70332
     2020.11498         4.71189         9.58226
     2020.11772        -9.28661        10.08176
     2020.12046        -4.44310        10.14502
     2020.12320        -7.61360         9.59316
     2020.12594         1.35391         9.53100
     2020.12867        -9.95359         9.95525
     2020.13141       -19.46908         9.78838
     2020.13415        -8.04857         9.58226
     2020.13689         4.89393        10.14066
     2020.13963        -3.88356         9.79602
     2020.14236        -7.62606        10.15484
     2020.14510         6.39445        10.35006
     2020.14784         3.74795        10.31734
     2020.15058        -8.96454         9.55608
     2020.15331        -7.46903         9.91817
     2020.15605        -9.64653         9.45029
     2020.15879        -8.36602         9.54954
     2020.16153        -5.90452        10.00324
     2020.16427         8.91799         9.79602
     2020.16700        -2.20451         9.54627
     2020.16974        -0.49700        10.15484
     2020.17248        -5.88450         9.40448
     2020.17522       -11.42799         9.68368
     2020.17796         4.07952         9.65315
     2020.18069        -1.01998         9.86473
     2020.18343        -2.33347         9.21362
     2020.18617       -16.78197         9.51137
     2020.18891       -10.18446         9.82765
     2020.19164        -6.10696        10.05123
     2020.19438        -7.51345         9.94980
     2020.19712       -12.78794         9.68805
     2020.19986         1.46956        10.09049
     2020.20260        -2.62293         9.84401
     2020.20533         4.10557         9.72404
     2020.20807        -4.65792         9.44593
     2020.21081       -10.12442         9.17981
     2020.21355        -5.51191        10.11230
     2020.21629        -4.30140         9.93671
     2020.21902        10.30210         9.89309
     2020.22176         5.52061         9.55826
     2020.22450        -7.58989         9.88327
     2020.22724       -13.34838         9.60843
     2020.22997        -5.25188         9.35650
     2020.23271        -5.10737         9.75676
     2020.23545         0.14713        10.35224
     2020.23819         1.51964        10.56382
     2020.24093         0.48615         9.79275
     2020.24366        -5.00235         9.86691
     2020.24640         8.49616         9.52663
     2020.24914       -16.32034         9.61279
     2020.25188       -11.45283         9.60080
     2020.25462        -3.17233        10.08940
     2020.25735        -3.35782         9.56153
     2020.26009         2.28169         9.25180
     2020.26283        -4.37481         9.47428
     2020.26557       -21.97130         9.44484
     2020.26830       -25.76080         9.46229
     2020.27104         0.09671         9.66187
     2020.27378       -18.35579         9.60952
     2020.27652        -7.44128         9.95634
     2020.27926       -16.56277         9.61498
     2020.28199       -26.72327         9.76439
     2020.28473       -19.04876         9.47974
     2020.28747        -8.09526         9.70768
     2020.29021         1.21625         9.38267
     2020.29295       -16.76225         9.41975
     2020.29568         1.04826         9.77639
     2020.29842       -11.32024         9.79275
     2020.30116        -4.43073         9.89854
     2020.30390         2.66778         9.35977
     2020.30663        -1.94272        10.01196
     2020.30937         3.41179        10.35878
     2020.31211       -19.09371         9.84619
     2020.31485        -8.02420        10.25299
