# ================= DQRFIT RESULTS ================
# INPUT FILE: series/JUNI.rad
# OUTPUT: LDETRENDED
# FILTER FUNCTION: f(t)
# f(t)=+line(t)+annual(t)
# line(t)=+P 1+P 2*t
# annual(t)=+P 3*sin(2*pi*t+P 4)
# heav(t)=(t<0?0:1)
# TOTAL OBSERVATIONS MTOT=  767
# INITIAL TIME INTERVAL= 2018.3515 - 2004.7885 = 13.5630
# TOTAL OBSERVATIONS AFTER PREFILTER M=  766
# TIME-SPAN= 2018.3515 - 2004.7885 = 13.5630
# OBSERVATIONS: USED M=   766 REJECTED MTOT-M=     1 %USED=   99.8696
# N=  4 PARAMETERS
# MAXSIG= 175.00000
# MAXRES=  19.77713
# SCALE FACTOR FOR LENGTHS: SCL=  10.00000
# SCALE FACTOR FOR SIGMAS: SCLSIG=   1.00000
# CHI^2=    825.749 DOF=   762 CHI^2/DOF=   1.08366
# RMS=      5.952 SDEV=      5.956 MEAN=   -0.00423
#  P #       PARAMETER +-    SIGMA %error PARAMETER NAME
# P 1 =      1241.62421 +-   95.218   7.67 YZERO                              
# P 2 =        -0.61467 +-    0.047   7.70 SLOPE                              
# P 3 =         4.94406 +-    0.313   6.32 ANNUAL AMPLITUDE                   
# P 4 =        -3.12126 +-    0.089   2.86 ANNUAL PHASE                       
#       T            LDETRENDED       SIG_OBS
     2004.78851         3.50442         5.95342
     2004.79124         4.42011         5.85557
     2004.79398         3.08779         6.03046
     2004.79672        -2.78453         6.01172
     2004.79946         6.05515         5.94926
     2004.80220         2.27684         5.96279
     2004.80493         0.93652         5.94197
     2004.80767         8.64820         5.92844
     2004.81041        -3.26411         5.83996
     2004.81315       -14.75943         5.79727
     2004.81588         3.83425         5.84308
     2004.81862         5.40793         6.13456
     2004.82136         6.99762         5.96279
     2004.82410         5.74330         5.85349
     2004.82684         4.47798         5.85869
     2004.82957        10.12867         6.02837
     2005.20740         2.89690         6.13143
     2005.21013         0.56459         6.02629
     2005.21287        -5.58473         6.05232
     2005.21561        -1.39505         6.00443
     2005.21835         0.44063         5.97841
     2005.22109        -4.99668         6.00235
     2005.22382        -3.29600         5.92428
     2005.22656        -5.71332         5.94197
     2005.22930         0.04837         5.94093
     2005.23204        -1.59495         6.01276
     2005.23478        -4.42927         6.23345
     2005.23751         3.96041         6.09396
     2005.24025        10.49810         6.18765
     2005.24299        -0.31822         5.97216
     2005.24573         0.62746         6.11998
     2005.24846        -5.00185         5.93156
     2005.25120        -1.88217         6.00547
     2005.25394         9.51651         6.27301
     2005.25668         5.74319         6.26468
     2005.25942         1.42588         6.09188
     2005.26215         3.96656         6.16995
     2005.26489        10.70524         6.15017
     2005.26763        -1.05607         6.13351
     2005.27037         6.65761         6.11582
     2005.27311        -1.47971         6.08042
     2005.27584         0.91697         6.18765
     2005.27858        -3.21934         6.09500
     2005.28132         3.77134         6.19597
     2005.28406        -2.37598         6.17828
     2005.28679        -2.47829         6.11478
     2005.28953         2.35839         6.00131
     2005.29227         4.81607         6.18140
     2005.29501         3.36075         6.02213
     2005.29775         0.80244         5.91907
     2005.30048        -0.14288         5.96487
     2005.30322        -0.62020         5.97424
     2005.30596         1.85649         5.99298
     2005.30870        -1.60683         6.00027
     2005.31144         3.54685         5.93885
     2005.31417        -1.28247         5.94301
     2005.31691        -3.63778         6.02421
     2005.31965        -0.09910         6.07106
     2005.32239        -0.23142         6.19285
     2005.32512        -2.57873         6.00339
     2005.32786        -7.62105         5.97320
     2005.33060        -3.74537         5.96487
     2005.33334        -0.25168         5.97216
     2005.33608         1.51300         6.16474
     2005.33881        -1.12932         6.00964
     2005.34155        -2.38664         5.98986
     2005.34429        -7.35095         5.91074
     2005.34703        -2.23227         5.93052
     2005.34977        -2.73859         5.97008
     2005.35250        -5.05390         6.18036
     2005.35524         1.27578         6.16474
     2005.35798         0.18946         6.13143
     2005.36072        -3.60186         6.17932
     2005.36345       -10.98517         6.23553
     2005.36619        -4.14949         6.19806
     2005.36893         2.07819         6.32402
     2005.37167        -0.61512         6.22304
     2005.37441         7.17356         6.29695
     2005.37714         4.02324         6.34067
     2005.37988        -7.39208         6.41979
     2005.38262        -2.17839         6.41666
     2005.38536        -1.25071         6.24074
     2005.38810         0.24997         6.11894
     2005.39083        -0.70834         6.20326
     2005.55237         2.69695         6.10333
     2005.55510         6.36463         6.24698
     2005.55784        -0.98169         6.05960
     2005.56058         0.12499         6.12310
     2005.56332         1.73268         6.12415
     2005.56606        -2.12364         6.21055
     2005.56879         5.86304         6.26260
     2005.57153         4.11473         6.30736
     2005.57427        -3.10959         6.38023
     2005.57701        -2.18691         6.15954
     2005.57974       -10.53823         6.31465
     2005.58248         3.26246         6.16058
     2005.58522         9.49214         6.17099
     2005.58796         5.50282         5.98153
     2005.59070        -0.01849         5.96383
     2005.59343        -0.02181         5.98361
     2005.59617         4.16087         5.99819
     2005.59891         2.63855         6.02213
     2005.60165         2.31024         5.97320
     2005.60439        -0.06408         6.05336
     2005.60712        -2.25040         6.02317
     2005.60986         5.40829         6.10437
     2005.61260         2.74697         6.11165
     2005.61534         1.17365         5.95967
     2005.61807         6.27333         5.95551
     2005.62081         1.10402         6.04087
     2005.62355         0.40870         6.15433
     2005.62629         3.82938         6.05752
     2005.62903        13.03607         6.19285
     2005.63176         9.19275         6.05440
     2005.63450         4.18443         6.02317
     2005.63724         7.73511         6.02629
     2005.63998         6.09180         5.96487
     2005.95209       -11.70635         6.00027
     2005.95483        -9.14467         6.03358
     2005.95757        -3.50899         5.94405
     2005.96031        -1.07231         5.89721
     2005.96304        -7.39162         5.84828
     2005.96852       -15.24326         6.15329
     2005.97126       -14.90957         6.19389
     2005.97400        -0.83789         6.10228
     2005.97673       -11.31121         6.03566
     2005.97947       -13.11753         5.97424
     2005.98221        -8.83784         5.98569
     2005.98495         5.98384         5.98569
     2005.98768        -0.89148         6.09604
     2005.99042         1.74521         6.13039
     2005.99316        -2.73711         6.03358
     2005.99590        -4.44843         6.07001
     2006.66667        -3.02612         6.99233
     2006.66947        -8.17241         7.59506
     2006.67215        -6.95176         7.38999
     2006.67469        -4.06520         8.01563
     2007.25805        -3.35362         5.95967
     2007.26079        -2.02694         6.04191
     2007.26352        -3.18626         5.91387
     2007.26626         3.61243         5.95551
     2007.26900        10.07411         6.25531
     2007.27174         8.03979         6.00964
     2007.27447         4.30447         5.91699
     2007.27721        10.54716         5.89305
     2007.27995         1.67484         5.83059
     2007.28269         6.54452         5.88472
     2007.28543         6.14121         5.85453
     2007.28816         3.24589         5.87119
     2007.29090         0.87457         5.91491
     2007.29364         1.27025         5.87014
     2007.29638        -0.45506         5.83683
     2007.29911         2.61562         5.83475
     2007.30185         2.45530         5.83579
     2007.30459         1.62299         5.88055
     2007.30733         0.41067         5.93781
     2007.31007        -7.22165         5.95655
     2007.31280         3.25003         5.98465
     2007.31554         4.54572         5.83787
     2007.31828        -3.34260         5.90554
     2007.32102        -3.19192         5.86494
     2007.32376        -3.18623         5.83683
     2007.32649         2.51245         5.91491
     2007.32923         1.71813         5.86702
     2007.33197         3.09281         6.11894
     2007.33471         3.57250         6.08355
     2007.33744        -2.90082         5.87223
     2007.34018        -3.08014         5.87223
     2007.34292        -4.52945         5.90137
     2007.34566         2.52723         5.92532
     2007.34840        -2.30109         5.89617
     2007.35113        -0.44040         5.92948
     2007.35387        -1.69972         6.33755
     2007.35661        -5.34504         6.34484
     2007.35935        -0.33336         5.89513
     2007.36209        -5.05367         5.92219
     2007.36482        -4.16199         6.01276
     2007.36756        -4.28831         5.86182
     2007.89049        -2.81288         5.94614
     2007.89323        -1.63920         6.03150
     2007.89597         1.15349         6.02317
     2007.89870         1.01417         5.93260
     2007.90144         0.50185         5.99298
     2007.90418         2.53254         6.01796
     2007.90692        -1.61278         5.98673
     2007.90966        -0.25010         6.00235
     2007.91239         0.17858         5.97841
     2007.91513         2.90727         6.00339
     2007.91787         1.98795         6.00443
     2007.92061        -8.91037         6.10645
     2007.92334         0.88532         6.17828
     2007.92608         6.72400         6.05336
     2007.92882         2.82668         6.04191
     2007.93156        -0.34264         6.06689
     2007.93430        -2.42695         6.04607
     2007.93703        -3.69127         6.07938
     2007.93977        -4.06359         6.04191
     2007.94251         1.44910         6.05232
     2007.94525         0.80678         6.19910
     2007.94799         0.33546         6.15121
     2007.95072         0.34915         6.12727
     2007.95346         2.14483         6.15538
     2007.95620         1.28351         6.09604
     2007.95894         8.23519         6.14288
     2007.96167         8.32288         6.17724
     2007.96441        -0.61544         6.15121
     2007.96715         6.04024         6.29383
     2007.96989        -5.10607         6.04399
     2007.97263        -2.80439         6.10645
     2007.97536        -5.87071         6.14497
     2007.97810         1.66997         6.20326
     2007.98084         1.75566         6.15642
     2007.98358         5.87634         6.02525
     2007.98632         2.78502         6.17099
     2007.98905         2.26571         6.12310
     2007.99179        -3.67861         6.13976
     2007.99453         4.81207         6.25739
     2007.99727        -2.28225         5.96592
     2008.00000       -10.02756         5.97008
     2008.00274        -5.34688         5.97320
     2008.00548         1.55780         5.93156
     2008.00822        -0.33251         5.95446
     2008.01096        -9.48083         5.94197
     2008.01369         0.41585         5.92428
     2008.01643         1.69753         5.92948
     2008.01917        -3.75678         6.02629
     2008.02191        -6.59210         6.18452
     2008.02465       -15.14442         6.02942
     2008.02738        -6.88673         5.99090
     2008.03012        -4.01105         6.03878
     2008.03286       -10.81437         5.95030
     2008.03560        -6.90269         5.91907
     2008.03833        -4.62000         5.98049
     2008.04107        -6.51432         6.00755
     2008.04381        -6.14764         5.99819
     2008.04655        -4.73395         6.00860
     2008.04929        -6.49827         5.87327
     2008.05202        -2.90359         5.95655
     2008.05476        -5.28291         5.90241
     2008.05750        -4.47422         5.88680
     2008.06024        -1.74054         5.89305
     2008.06298        -1.12386         5.89929
     2008.06571        -9.12417         5.89096
     2008.06845        -0.17249         5.95134
     2008.07119         2.21219         5.95551
     2008.07393         8.06487         5.90866
     2008.07666         4.49556         6.18348
     2008.07940        -2.20976         6.26468
     2008.08214        -2.41308         5.92219
     2008.08488        -4.11839         5.96071
     2008.08762        -6.03671         5.87847
     2008.09035        -1.56003         6.00235
     2008.09309         1.75665         5.86286
     2008.09583        -4.27866         6.00964
     2008.09857         4.52302         6.06481
     2008.10131         3.59570         6.06065
     2008.10404        -0.90361         5.88159
     2008.10678        -3.87793         5.88472
     2008.10952        -9.39825         5.90346
     2008.11226        -6.00657         5.93364
     2008.11499        -6.92288         5.86806
     2008.11773        -0.00020         5.91178
     2008.12047        -3.32452         5.87431
     2008.12321        -3.35183         6.02109
     2008.12595        -3.88115         5.85765
     2008.12868        -4.40647         5.92844
     2008.13142        -3.40079         5.88472
     2008.13416        -0.62210         5.86910
     2008.13690        -3.19742         5.87431
     2008.13964        -0.36574         5.88680
     2008.14237        -3.65805         5.88576
     2008.14511         1.87963         5.91074
     2008.14785        -8.82869         5.94301
     2008.15059        -3.80200         5.89617
     2008.15332        -7.12032         5.91074
     2008.15606        -6.89364         5.87639
     2008.15880        -4.63496         5.83787
     2008.16154        -8.41627         5.87535
     2008.16428         4.02941         6.01276
     2008.16701        -3.81491         5.91491
     2008.16975       -10.57922         5.89096
     2008.17249        -6.48554         5.90658
     2008.17523        -4.27486         6.02421
     2008.17784        -6.15825         6.17411
     2009.36619       -12.94481         6.12206
     2009.36893        -3.75412         5.96487
     2009.37167        -7.61444         5.91907
     2009.37441        -8.46376         6.04087
     2009.37714       -13.64408         5.97841
     2009.37988        -4.71339         6.13456
     2009.38262        -0.60771         5.92948
     2009.38536        -3.74203         5.98882
     2009.38810        -4.61634         5.96175
     2009.39083        -7.90566         6.15850
     2009.39357        -5.24698         6.30736
     2009.39631        -6.42630         6.31569
     2009.39905        -2.40561         6.23345
     2009.40178        -4.47293         5.97841
     2009.40452        -4.43225         5.93989
     2009.40726         0.99044         6.02837
     2009.41000        -2.50588         6.37502
     2009.41274        -7.51020         6.46663
     2009.41547         0.15648         6.24594
     2009.41821        -8.09683         6.23033
     2009.42095       -12.82815         6.48953
     2009.42369        -5.55747         6.99650
     2009.42643        -1.09078         6.30840
     2009.42916        -4.79410         6.07418
     2009.43190        -4.68742         5.94822
     2009.43464        -6.29374         6.18452
     2009.43738         0.32095         5.96904
     2009.44011        -2.68037         6.01276
     2009.44285        -4.63569         5.92948
     2009.44559        -5.19300         5.97008
     2009.44833        -5.40432         5.92844
     2009.45107        -4.92364         6.24802
     2009.45380        -7.28396         6.10124
     2009.45654        -2.96327         6.13560
     2009.45928        -2.38959         6.06377
     2009.46202       -10.28591         6.04191
     2009.46475        -4.61722         6.07626
     2009.46749        -3.37454         6.13768
     2009.47023         0.42914         6.05752
     2009.47297        -5.59918         5.90241
     2009.47571        -1.16949         5.95759
     2010.30254        -8.84726         6.02421
     2010.30528       -19.68558         6.10333
     2010.30801       -12.64790         5.92948
     2010.31075       -12.19922         5.93364
     2010.31349       -15.43953         5.89825
     2010.31623       -14.34585         5.89825
     2010.31896       -12.68417         6.30632
     2010.32170       -12.42948         5.97008
     2010.32444        -5.68880         5.98569
     2010.32718       -10.89412         5.86182
     2010.32992       -13.84144         5.89096
     2010.33265        -6.77475         5.86598
     2010.33539       -17.03907         6.00027
     2010.33813        -9.88239         5.92844
     2010.34087        -9.27970         5.82226
     2010.34361        -8.01502         5.80144
     2010.34634       -13.65034         5.88264
     2010.34908       -13.61666         5.79415
     2010.35182       -14.82497         5.83891
     2010.35456       -12.34729         5.87951
     2010.35729       -13.44261         5.83163
     2010.36003       -16.22892         5.87743
     2010.36277       -12.39524         5.77333
     2010.36551       -16.26056         6.02317
     2010.36825       -15.33888         5.95863
     2010.37098       -13.12719         5.81081
     2010.37372       -13.36651         5.88784
     2010.37646        -9.99283         5.79519
     2010.37920       -14.19214         6.13976
     2010.38193        -7.70946         6.21888
     2010.38467        -6.47378         6.00651
     2010.38741        -9.32609         6.05232
     2010.39015        -9.43441         5.91491
     2011.26079        -9.55226         5.91074
     2011.26352        -2.23357         5.92636
     2011.26626        -8.53689         5.78478
     2011.26900        -1.91421         6.01276
     2011.27174        -5.75053         5.96904
     2011.27447        -8.22084         6.05336
     2011.27721       -12.24416         5.98153
     2011.27995        -3.88048         5.97945
     2011.28269        -4.48579         5.72961
     2011.28543        -6.01911         5.76188
     2011.28816       -10.05843         5.70983
     2011.29090        -9.33775         5.98049
     2011.29364        -0.27906         5.75147
     2011.29638        -1.62638         5.87119
     2011.29911        -4.80870         5.72649
     2011.30185        -9.64501         6.03150
     2011.30459        -4.42233         5.69318
     2011.30733        -5.11265         5.68693
     2011.31007        -8.35597         5.76605
     2011.31280         0.18072         5.98778
     2011.31554        -5.24260         5.73065
     2011.31828        -5.01392         5.74106
     2011.32102         0.95277         5.80768
     2011.32376        -5.02455         5.88264
     2011.32649       -10.71387         5.71295
     2011.32923       -10.85619         5.82330
     2011.33197        -9.23850         5.74210
     2011.33471       -15.81782         5.99402
     2011.33744       -10.64514         5.79727
     2011.34018        -6.84045         5.89825
     2011.34292        -9.94677         5.85661
     2011.34566        -5.73009         5.90554
     2011.34840        -4.92241         5.83996
     2011.35113        -4.85672         5.82746
