# ================= DQRFIT RESULTS ================
# INPUT FILE: series/KAHL.rad
# OUTPUT: LDETRENDED
# FILTER FUNCTION: f(t)
# f(t)=+line(t)+annual(t)+jumps(t)
# line(t)=+P 1+P 2*t
# annual(t)=+P 3*sin(2*pi*t+P 4)
# jumps(t)=+P 5*heav(t-2009.5578  )+P 6*heav(t-2011.6500  )
# heav(t)=(t<0?0:1)
# TOTAL OBSERVATIONS MTOT= 1527
# INITIAL TIME INTERVAL= 2011.7752 - 2007.3593 =  4.4158
# TOTAL OBSERVATIONS AFTER PREFILTER M= 1504
# TIME-SPAN= 2011.7752 - 2007.3593 =  4.4158
# OBSERVATIONS: USED M=  1504 REJECTED MTOT-M=    23 %USED=   98.4938
# N=  6 PARAMETERS
# MAXSIG= 175.00000
# MAXRES=  23.32652
# SCALE FACTOR FOR LENGTHS: SCL=  10.00000
# SCALE FACTOR FOR SIGMAS: SCLSIG=   1.00000
# CHI^2=   1436.652 DOF=  1498 CHI^2/DOF=   0.95905
# RMS=      6.014 SDEV=      6.016 MEAN=   -0.02135
#  P #       PARAMETER +-    SIGMA %error PARAMETER NAME
# P 1 =      4432.52899 +-  541.454  12.22 YZERO                              
# P 2 =        -1.78315 +-    0.270  15.12 SLOPE                              
# P 3 =         3.44100 +-    0.225   6.53 ANNUAL AMPLITUDE                   
# P 4 =        -2.74074 +-    0.086   3.13 ANNUAL PHASE                       
# P 5 =       335.37369 +-    0.633   0.19 OFFSET 2009.5578                   
# P 6 =     -1175.32684 +-    1.155   0.10 OFFSET 2011.6500                   
#       T            LDETRENDED       SIG_OBS
     2007.35934         3.37201         5.82885
     2007.36208        -0.79811         5.84843
     2007.36481        -7.78823         5.84550
     2007.37029         3.81554         5.73483
     2007.37303         4.47142         5.96791
     2007.37577        -1.89270         5.97770
     2007.37850        -5.04582         5.85725
     2007.38124        -0.11793         6.00708
     2007.38398        -2.70505         5.80926
     2007.38672         0.52583         5.76226
     2007.38945        -0.25029         5.78184
     2007.39219        -3.88841         5.92776
     2007.39493         0.75848         5.74267
     2007.39767        -5.22864         5.77792
     2007.40041        12.40624         5.86508
     2007.40314         4.26412         5.80241
     2007.40588        -8.16100         5.74952
     2007.40862       -10.50911         5.75148
     2007.41136        -5.65123         5.74659
     2007.41410        -7.16335         5.65453
     2007.41683         2.52053         5.67412
     2007.41957         0.23641         5.63592
     2007.42231         2.26230         5.87488
     2007.43052         5.21394         5.63397
     2007.43326         1.44882         5.65159
     2007.43600         0.09571         5.69958
     2007.43874         0.37059         5.80632
     2007.44421        -3.52065         5.70252
     2007.44695        -2.15677         5.90328
     2007.44969        -3.59988         5.63886
     2007.45243        -5.94600         5.64963
     2007.45516        -5.03412         5.63886
     2007.45790        -1.48224         5.73483
     2007.46064        -2.66136         5.69370
     2007.47433        -3.42195         5.73092
     2007.47707        -6.55406         5.82003
     2007.47980        -5.62918         5.69958
     2007.48254       -10.79530         5.62221
     2007.48528        -7.43342         5.64376
     2007.48802        -2.02854         5.64768
     2007.49092         2.26064         7.46821
     2007.49454         7.58109        11.36488
     2007.49623        12.94311        15.13424
     2007.49926        19.25052         8.75600
     2007.50263         4.33752        10.05359
     2007.50356       -12.21581        10.07415
     2007.50823         9.97151        11.44029
     2007.51066        13.98984         8.33588
     2007.51311         0.64922         7.12252
     2007.51540         5.30328         5.73875
     2007.51813         1.02517         5.70937
     2007.52069        -2.07828         8.86177
     2007.52908       -10.53631        11.35313
     2007.53188         6.62969        10.78219
     2007.53456         4.31346        10.56381
     2007.53730         0.89534        10.49624
     2007.54004         1.24322        10.53149
     2007.54277         2.16410        10.50995
     2007.54551         4.33899        10.51876
     2007.54825         1.32387        10.49819
     2007.55099        -7.95625        10.51974
     2007.55365        -2.14450        10.87621
     2007.55647        -2.23548        10.48644
     2007.55920        -7.09260        10.45119
     2007.56205        -5.93252        17.30243
     2007.56468         0.07716        10.53149
     2007.56741         0.73204        10.54618
     2007.57015         1.21092        10.61375
     2007.57289        -3.68219        10.47861
     2007.57563         2.13069        10.47469
     2007.57837         4.73157        10.50799
     2007.58110         2.74245        10.54520
     2007.58384        -2.92267        10.50211
     2007.58658        -0.54778        10.48057
     2007.58932         1.19710        10.44139
     2007.59206         6.96598        10.48155
     2007.59479        -4.25014        10.77142
     2007.59753        -4.99126        10.73715
     2007.60027        -0.13837        10.45902
     2007.60301         3.22751        10.51876
     2007.60574        -0.01761        12.30600
     2007.60848        -0.75273        10.87817
     2007.61122         4.87315        10.68035
     2007.61396         1.65004        10.56675
     2007.61670         9.75592        11.34823
     2007.61943         6.77680        11.43246
     2007.62304        13.81522        19.15137
     2007.62491       -11.86844        11.06913
     2007.62770         1.98555        11.31886
     2007.63039        -3.47667        11.18175
     2007.63312       -12.10279        10.98001
     2007.63586        -7.56491        10.96043
     2007.63860         0.31997        10.97120
     2007.64134        -9.38614        10.64999
     2007.64407         7.11874        11.01233
     2007.64681        -1.61438        11.00646
     2007.64955         2.65350        11.00450
     2007.65229         0.92738        10.99177
     2007.65503         0.68827        10.77142
     2007.65776         3.65315        10.71658
     2007.66050        11.10903        10.84193
     2007.66324         5.16391        10.89775
     2007.66598         0.54479        10.91146
     2007.66872         8.32868        10.78024
     2007.67145         6.72656        10.65586
     2007.67419         2.62444        10.81843
     2007.67693        -6.39868        11.30612
     2007.67967         8.16920        10.74792
     2007.68531         3.02027        11.60971
     2007.68788         3.69285        10.96630
     2007.69062         9.47073        10.88796
     2007.69336        10.48661        10.74988
     2007.69609        12.14050        10.72637
     2007.69883        -1.67762        10.85466
     2007.70157         4.84126        10.81843
     2007.70431         3.96314        11.05346
     2007.70705         6.56402        10.83410
     2007.70978         6.61691        10.86544
     2007.71252         5.92479        11.13670
     2007.71526         9.46967        10.77730
     2007.71800        12.11355        10.56675
     2007.72073         6.00943        10.58731
     2007.72347        14.96632        10.57850
     2007.72621        12.06720        10.58242
     2007.72895        17.60508        10.80570
     2007.73169         9.63896        10.82039
     2007.73442        -0.89416        10.66076
     2007.73716         8.15873        10.89188
     2007.73990         5.08461        10.61963
     2007.74264        16.44849        10.49428
     2007.74538         7.73837        11.07697
     2007.74811        -7.52275        10.93790
     2007.75085         4.38814        11.28654
     2007.75359         2.95402        11.03779
     2007.75633        -0.54010        10.86935
     2007.75884        -1.52063        11.35215
     2007.76192         4.95788        11.08284
     2007.76454         9.55855        10.62453
     2007.76728         0.60843        11.21701
     2007.77002         8.62531        11.74388
     2007.77275         4.45319        11.31886
     2007.77549         1.65507        10.54128
     2007.77823         4.60696        10.94182
     2007.78040         8.44582        15.25666
     2007.78331         8.11601        10.07807
     2007.78747        26.09343        12.67422
     2007.78918        10.48448         5.82885
     2007.79192         8.92637         5.76323
     2007.79466         7.77725         5.76323
     2007.79739        11.39413         5.89544
     2007.80013        12.73801         5.68783
     2007.80270         1.15459         5.96791
     2007.80561         0.06378         5.89250
     2007.80835        -0.91034         5.76030
     2007.81108         2.77854         5.72210
     2007.81382         6.09942         6.08445
     2007.81656         2.57030         5.87781
     2007.81930         1.48019         5.71623
     2007.82203        -2.56493         5.65551
     2007.82477        -5.92105         5.73973
     2007.82751         1.13083         5.67608
     2007.83025         4.13871         5.70056
     2007.83299         3.36160         5.83374
     2007.83572         3.07048         5.56052
     2007.83846        -0.18164         5.67706
     2007.84120         9.57925         5.67901
     2007.84400        -2.17177         5.72112
     2007.84674        -4.85388         5.72015
     2007.84948        -2.05300         5.76128
     2007.85221         4.18888         5.82493
     2007.85495         5.24776         5.82493
     2007.85769         6.31464         5.80437
     2007.86043         3.89953         5.65159
     2007.86316         7.50441         5.89152
     2007.86590         6.52129         5.75344
     2007.86864         0.82417         5.67803
     2007.87219         3.16449        10.05065
     2007.87412         5.80594         5.78674
     2007.87685         0.45282         5.88369
     2007.87959        -4.01130         5.87781
     2007.88233         2.79558         5.75638
     2007.88507         1.90346         5.75246
     2007.88781        -5.53865         5.74854
     2007.89054        -3.79277         5.72406
     2007.89328        -0.41989         5.87879
     2007.89642         8.23870         7.38791
     2007.89869        -2.34124         5.87194
     2007.90153        -5.81818         5.92384
     2007.90423        -4.02136         5.96203
     2007.90697        -4.00448         5.86606
     2007.91332         4.33984        11.34040
     2007.91518         1.05117         5.88467
     2007.91792         3.26405         5.76030
     2007.92066         3.91793         6.00610
     2007.92340        -2.19619         5.83864
     2007.92614         0.24069         5.82297
     2007.92887        -3.91742         5.84746
     2007.93161        -3.24654         5.82003
     2007.93400        -6.45428         9.15458
     2007.94343        -9.01746        11.26891
     2007.94530        -7.38513         5.93559
     2007.94804        -9.30625         5.81318
     2007.95078        -6.44237         6.08934
     2007.95345        -2.72460         5.67216
     2007.95619        -5.83071         5.66922
     2007.95893         0.65317         5.75736
     2007.96167         1.02705         5.74071
     2007.96440         2.51693         5.70252
     2007.96714        -1.30819         5.63984
     2007.96988       -11.79230         5.66922
     2007.97262        -8.22242         5.72406
     2007.97535       -10.27254         5.62907
     2007.97809        -9.25266         5.67901
     2007.98083        -9.23978         5.68097
     2007.98357        -8.41589         5.60067
     2007.98631        -2.07301         5.80143
     2007.98904        -7.15413         5.71819
     2007.99178        -3.26225         5.65159
     2007.99452        -6.15437         5.75834
     2007.99726        -5.92148         5.62907
     2008.00045       -18.98579         7.25472
     2008.00273       -11.90072         5.62123
     2008.00547         3.09916         5.50176
     2008.00913         1.63668        10.03400
     2008.01060        10.53932         6.38901
     2008.01377         2.18695         5.70154
     2008.01642        -4.71831         5.48119
     2008.01916       -11.00643         5.56933
     2008.02190       -25.62155         5.64082
     2008.02446         5.15201         6.02177
     2008.02831       -12.30312        10.05848
     2008.03011        -7.37390         5.75736
     2008.03285       -11.30702         5.58304
     2008.03559       -10.52614         5.63397
     2008.03833        -8.08625         5.63201
     2008.04106       -11.66037         5.63886
     2008.04380        -6.84149         5.65845
     2008.04654        -6.68561         5.84354
     2008.04928       -11.59173         5.79947
     2008.05201       -10.31384         5.63397
     2008.05475        -6.71296         5.62907
     2008.05749        -8.66908         5.66824
     2008.06023        -4.91320         5.75932
     2008.06297         0.54268         5.71231
     2008.08327        -1.18311        13.06594
     2008.08487        -1.53726         5.63397
     2008.08761         0.74962         5.68391
     2008.09308       -23.91561         5.67118
     2008.09582         0.48827         5.76226
     2008.09856         0.41215         5.83570
     2008.10217        -5.36542         9.70202
     2008.10403        -0.09809         5.73386
     2008.10677        -2.50120         5.63201
     2008.10951        -8.07231         5.66237
     2008.11225        -2.97944         5.54191
     2008.11498        -3.36356         5.56150
     2008.11861        -8.16810         9.38472
     2008.12046        -3.93179         5.59773
     2008.12320        -1.18891         5.96203
     2008.12571       -10.04144        16.70310
     2008.12871        -2.26108         7.00794
     2008.13141        -6.40327         5.51939
     2008.13415         1.01762         5.58696
     2008.13689         2.75150         5.63690
     2008.13968         3.59248         7.42610
     2008.14236        -2.24874         5.56346
     2008.14510        -0.54586         5.57717
     2008.14784         3.34103         5.55954
     2008.15058        -3.17509         5.56248
     2008.15331        -9.15821         5.61438
     2008.15697         0.86432         9.85479
     2008.15879        -4.25145         5.57423
     2008.16153        -4.88656         5.63201
     2008.16427        -6.76468         5.64376
     2008.16664        -7.54244         6.56921
     2008.17014       -10.57221         6.82579
     2008.17248        -5.20704         5.56541
     2008.17522        -6.10915         5.70546
     2008.17796        -5.52027         5.54485
     2008.18069        -3.52539         8.52587
     2008.18343        -4.27951         5.66335
     2008.18611        -2.15073         5.65551
     2008.18891        -5.41274         5.48609
     2008.19164         2.50814         5.56737
     2008.19438        -4.07398         5.62123
     2008.19712         5.31190         6.84537
     2008.19986        -0.15622         5.62123
     2008.20260        -0.21733         5.50568
     2008.20533         0.04955         5.50861
     2008.20807        -4.98957         5.81612
     2008.21081         3.92731         5.92384
     2008.21355        -2.84381         6.26954
     2008.21629        -2.03992         5.61536
     2008.21902        -6.98504         5.70350
     2008.22176        -9.91316         5.67216
     2008.22450        -4.51728         5.76226
     2008.22724        -1.65540         5.69958
     2008.22997        -0.31251         5.76226
     2008.23271        -0.33463         5.76715
     2008.23544         7.68022         9.97524
     2008.23902         4.06962         9.06057
     2008.24093         0.45501         5.67803
     2008.24366        -0.31810         5.67020
     2008.24640        -4.80422         5.63984
     2008.24914        -5.46334         5.65355
     2008.25188         0.09154         5.82297
     2008.25462         1.61542         5.68391
     2008.25735         2.57231         5.72112
     2008.26009         6.33719         5.57325
     2008.26186         3.37334        10.38166
     2008.26646        -3.11746         9.37199
     2008.26830        -3.82217         5.62711
     2008.27104         4.23972         5.72602
     2008.27378         0.69960         5.63397
     2008.27652        -3.45852         5.68881
     2008.27926        -6.71164         5.71035
     2008.28199         0.43624         5.82591
     2008.28473         5.29313         5.72308
     2008.28747         8.46801         5.69958
     2008.29021         3.69489         5.71819
     2008.29295         4.97377         5.63495
     2008.29568         3.83265         5.65159
     2008.29842         2.79454         5.67706
     2008.30116         5.91042         5.62515
     2008.30390         8.85130         5.64572
     2008.30663         1.55918         5.72406
     2008.30937         1.80606         5.77107
     2008.31211        -4.29505         6.16181
     2008.31462        -2.36058         6.30381
     2008.32389         8.00496         8.84806
     2008.32580        13.09736         5.90621
     2008.32854         5.67824         5.71819
     2008.33128         0.20212         5.92580
     2008.33401         0.48000         5.60067
     2008.33675         2.62688         5.70937
     2008.33880        -6.52846         8.22424
     2008.34223         1.29765         5.65747
     2008.34496         1.14553         6.05507
     2008.34770         3.46341         5.65649
     2008.35044         1.91329         5.57227
     2008.35318        -0.53682         6.11481
     2008.35592         8.04706         5.60361
     2008.35865         6.66494         6.11187
     2008.36139         8.35782         6.04332
     2008.36413         4.52870         5.52820
     2008.36687         0.19359         5.55366
     2008.36961        -4.21553         5.53114
     2008.37234        -7.93165         5.55856
     2008.37468       -12.23048        11.35901
     2008.37873        20.50774         9.71475
     2008.38056         0.58300         7.05788
     2008.38329        -2.19412         5.72308
     2008.38603         6.06076         5.58500
     2008.38877         2.99264         5.68685
     2008.39151         1.95052         5.77694
     2008.39425         1.44841         5.60850
     2008.39698         5.21329         5.67216
     2008.39972         9.67717         5.59479
     2008.40246         0.54005         6.45169
     2008.40520         3.86693         8.29475
     2008.40794         2.04982         5.61438
     2008.41067        -2.64630         5.69566
     2008.41341         2.87358         5.76128
     2008.41615        -3.81454         5.76519
     2008.41889         1.92734         5.72504
     2008.42162        -6.54777         5.81416
     2008.42465         6.15862         8.30650
     2008.42710         6.30499         5.79751
     2008.42984         5.91788         5.81514
     2008.43258         4.98075         5.85039
     2008.43531        -0.22736         5.81220
     2008.43805         4.59652         5.83766
     2008.44079        -1.56359         5.80241
     2008.44353        -2.94072         5.69468
     2008.44626        -1.20484         5.72308
     2008.44900        -0.73895         5.83472
     2008.45174        -4.47107         5.84941
     2008.45448         0.93681         5.79555
     2008.45722         0.90669         5.66139
     2008.45995         7.86857         5.74757
     2008.46269        -1.35554         5.89936
     2008.46543        -1.52666         5.79457
     2008.46817         4.14022         5.73679
     2008.47091         5.33411         5.77205
     2008.47364        -9.76502         5.87879
     2008.47638         1.52687         5.84256
     2008.47912         0.09775         5.82787
     2008.48186        -4.42037         5.78870
