# ================= DQRFIT RESULTS ================
# INPUT FILE: series/KELS.rad
# OUTPUT: LDETRENDED
# FILTER FUNCTION: f(t)
# f(t)=+line(t)+annual(t)
# line(t)=+P 1+P 2*t
# annual(t)=+P 3*sin(2*pi*t+P 4)
# heav(t)=(t<0?0:1)
# TOTAL OBSERVATIONS MTOT= 3567
# INITIAL TIME INTERVAL= 2007.6906 - 1997.7741 =  9.9165
# TOTAL OBSERVATIONS AFTER PREFILTER M= 3560
# TIME-SPAN= 2007.6906 - 1997.7741 =  9.9165
# OBSERVATIONS: USED M=  3560 REJECTED MTOT-M=     7 %USED=   99.8038
# N=  4 PARAMETERS
# MAXSIG= 175.00000
# MAXRES=  30.41969
# SCALE FACTOR FOR LENGTHS: SCL=  10.00000
# SCALE FACTOR FOR SIGMAS: SCLSIG=   1.00000
# CHI^2=   3073.482 DOF=  3556 CHI^2/DOF=   0.86431
# RMS=      7.124 SDEV=      7.125 MEAN=    0.00752
#  P #       PARAMETER +-    SIGMA %error PARAMETER NAME
# P 1 =      2892.27158 +-   77.661   2.69 YZERO                              
# P 2 =        -1.43660 +-    0.039   2.70 SLOPE                              
# P 3 =         4.27699 +-    0.155   3.62 ANNUAL AMPLITUDE                   
# P 4 =        -2.81148 +-    0.049   1.73 ANNUAL PHASE                       
#       T            LDETRENDED       SIG_OBS
     1997.77413        -1.90257         7.86232
     1997.77687        -4.89864         7.82328
     1997.77960        -1.47771         8.49079
     1997.78234        -6.04677         8.65813
     1997.78508       -12.72284         8.59584
     1997.78782        -6.09691         8.96121
     1997.79055        -8.82798         8.03710
     1997.79329        -5.34504         8.62745
     1997.79603         3.57089         8.05941
     1997.79877        -5.28118         8.59119
     1997.80151         7.79376         8.09753
     1997.80424         9.65969         8.67951
     1997.80698         1.63362         7.99062
     1997.80972        11.31456         8.81432
     1997.81246         8.71349         8.63582
     1997.81520         1.33142         8.47033
     1997.81793         2.66136         8.23048
     1997.82067        -7.86571         7.57505
     1997.82341         1.96422         7.97016
     1997.82615        -5.16684         8.44337
     1997.82888        -8.18591         8.48149
     1997.83162        13.51302         8.44058
     1997.83436        -1.51104         8.14123
     1997.83710        15.00389         8.30299
     1997.83984         5.60782         8.23512
     1997.84257        -5.02024         8.65813
     1997.84531        -9.81631         8.10125
     1997.84805        -2.49238        11.23242
     1997.85079        -2.22745         8.32995
     1997.85352         5.01149         8.23326
     1997.85626         4.39842         8.08080
     1997.85900        11.11835         8.60700
     1997.86174         6.47229         8.97515
     1997.86448         6.30522         9.70309
     1997.86721         1.16915         8.15238
     1997.86995        11.43009         7.78144
     1997.87269         6.96602         9.54133
     1997.87543        10.41295         7.95436
     1997.87817        16.66889         8.42943
     1997.88090         3.40382         9.75144
     1997.88364        11.33275         8.08545
     1997.88638        11.10869         9.36748
     1997.88912         1.26862        10.03778
     1997.89185         2.38855         8.47405
     1997.89459         8.74449         9.06347
     1997.89733        15.65142         8.97143
     1997.90007         3.47235         8.20259
     1997.90281        -2.99671         9.29868
     1997.90554        15.56822         8.19887
     1997.90828        13.39415         8.88125
     1997.91102        -4.83591         8.19050
     1997.91376        15.71902         8.69253
     1997.91650        -5.04505         8.27975
     1997.91923        -0.10812         7.94413
     1997.92197         7.95882         9.32378
     1997.92471         2.47175         8.17469
     1997.92745         5.05068         8.84035
     1997.93018        -3.49438         8.92123
     1997.93292        -2.40345         8.85057
     1997.93566         6.65448         9.04860
     1997.93840        -1.40758         8.15610
     1997.94114         8.30635         9.00583
     1997.94387        -5.49972         8.17284
     1997.94661        -9.40778         8.01944
     1997.94935        -0.79185         7.91810
     1997.95209        -1.69292         8.23698
     1997.95483         6.92602         8.69067
     1997.95756        -0.66905         7.43932
     1997.96030       -19.36212         8.69439
     1997.96304        -1.44618         9.68264
     1997.96578         2.87875         8.29648
     1997.96851         9.02368         7.89579
     1997.97125       -14.81638         8.80409
     1997.97399        -9.29045         7.75355
     1997.97673         1.83948         8.33460
     1997.97947         0.75241         7.39376
     1997.98220        -5.84765         8.30950
     1997.98494         8.05528         8.63582
     1997.98768        -4.51679         8.36342
     1997.99042         4.82915         7.36680
     1997.99316         9.37308         7.54065
     1997.99589        -0.55099         7.89486
     1997.99863        -0.10405         7.40957
     1998.00411        15.50881         7.93019
     1998.00684         8.21475         8.02502
     1998.00958         4.78368         8.02409
     1998.01232        -2.12439         9.12669
     1998.01506        -2.55545         8.15331
     1998.01780         4.59148         8.25372
     1998.02053         1.35241         8.41548
     1998.02327         2.94935         9.48834
     1998.02601         1.53828         7.72566
     1998.02875       -20.74479         8.91565
     1998.03149       -26.82385         8.52054
     1998.03422        24.47008         7.71078
     1998.03696        -5.70899         8.41083
     1998.03970         2.83194         8.62559
     1998.04244         6.06888        10.00431
     1998.04517        11.20481         8.49451
     1998.04791         6.59974         9.03186
     1998.05065        11.76068         7.90230
     1998.05886        17.55348         8.09939
     1998.06160         9.80541         8.25186
     1998.06434        -1.78366         8.32809
     1998.06708        -1.91072         7.89114
     1998.06982        -3.52679         8.78550
     1998.07255        -8.99286         8.53820
     1998.07529        -2.24992         8.41548
     1998.07803       -11.05599         8.40247
     1998.08077         1.02994         8.54657
     1998.08350         2.63588         8.15517
     1998.08624        -0.05619         8.01293
     1998.08898        -0.65526         7.88185
     1998.09172        -3.59632         7.72659
     1998.09446         2.10061         7.69219
     1998.09719        -0.72946         8.41083
     1998.09993         3.04448         8.19701
     1998.10267       -10.25959         8.31136
     1998.10541         2.59234         7.71450
     1998.10815        -7.74673         7.85302
     1998.11088        -5.03479         7.84094
     1998.11362       -14.58286         8.08916
     1998.11636        16.34307         8.68881
     1998.11910        -9.88299         7.31660
     1998.12183        -0.11906         7.77493
     1998.12457         9.32487         7.90044
     1998.12731         3.73981         7.17250
     1998.13005         2.19374         7.83629
     1998.13279         0.81167         8.54378
     1998.13552        -4.56239         7.88185
     1998.13826        -7.54946         7.57970
     1998.14100        -3.94453         7.96180
     1998.14374       -18.89459         7.26547
     1998.14648        -0.03266         7.98039
     1998.14921        -4.13973         7.10928
     1998.15195        -5.92579         8.43315
     1998.15469        -9.94586         7.06930
     1998.15743       -13.57493         7.46814
     1998.16016        -5.49699         7.10370
     1998.16290        -6.90306         7.12137
     1998.16564       -10.24313         7.10835
     1998.16838        -2.85120         7.28220
     1998.17112        -1.63026         7.11858
     1998.17385        -2.85033         6.68348
     1998.17659        -1.27840         6.50499
     1998.17933        -5.48546         7.84652
     1998.18207        -9.20853         7.15111
     1998.18480       -12.14260         6.78947
     1998.18754       -21.96766         8.80037
     1998.19028        -0.52773         7.13996
     1998.19302        -0.35980         7.14461
     1998.19576       -13.63086         6.99493
     1998.19849        -6.07593         7.10091
     1998.20123        -5.45200         7.57691
     1998.20397        -9.99206         7.21154
     1998.20671        -4.66713         6.63421
     1998.20945        -0.78520         6.42131
     1998.21218        -6.64626         5.85886
     1998.21492        -5.73933         6.61097
     1998.21766        -6.07040         7.26825
     1998.22040        -1.08046         7.07581
     1998.22313         3.21147         7.57970
     1998.22587        -6.24460         7.41329
     1998.22861        -9.33266         7.37145
     1998.23135       -15.01373         7.06001
     1998.23409        -7.04480         7.16785
     1998.23682        -3.10687         6.64630
     1998.23956         3.79407         6.80155
     1998.24230        -9.39600         6.10894
     1998.24504        -9.63607         6.11452
     1998.24778        -2.61613         6.06525
     1998.25051         1.34680         5.92486
     1998.25325        -7.00927         5.91557
     1998.25599        -3.86633         5.93881
     1998.25873        -2.70040         6.18518
     1998.26146        -2.84547         6.34136
     1998.26420        -5.07153         6.33021
     1998.26694        -7.61460         6.58773
     1998.26968        -6.68367         6.70952
     1998.27242        -5.77373         5.93509
     1998.27515        -3.87580         6.30696
     1998.27789        -2.86987         6.26606
     1998.28063        12.50107         5.85142
     1998.28337        -6.02600         5.79936
     1998.28611        -0.78607         6.18425
     1998.28884        -2.15813         5.99924
     1998.29158        -5.70920         5.92393
     1998.29432        -4.38627         6.42224
     1998.29706       -15.18834         6.17588
     1998.29979        -6.22340         6.81922
     1998.30253         2.02653         6.98098
     1998.30527        -1.67054         6.99121
     1998.30801        -1.58160         6.63886
     1998.31075        -9.87867         7.44304
     1998.31348         0.80526         6.45292
     1998.31622        -5.12980         6.04944
     1998.31896        -6.59287         7.00237
     1998.32170       -14.17294         7.13531
     1998.32444        -4.74900         6.63886
     1998.32717        -3.94207         6.61748
     1998.32991         2.35086         7.60666
     1998.33265        18.23480         7.48766
     1998.33539         4.24873         7.81119
     1998.33812         2.75366         7.58714
     1998.34086         9.73660         7.60573
     1998.34360         1.14453         7.91624
     1998.34634         1.52146         7.74797
     1998.34908         9.29740         7.39934
     1998.35181        -0.04367         7.17064
     1998.35455         0.50626         6.15636
     1998.35729         8.71019         5.87931
     1998.36003         5.13513         6.25397
     1998.36277         3.12406         6.24096
     1998.36550         1.66899         6.71323
     1998.36824         1.43693         7.58621
     1998.37098         1.12586         6.95495
     1998.37372        -0.92121         7.21712
     1998.37645        -3.23727         7.05908
     1998.37919         0.33966         6.01876
     1998.38193        -0.61241         5.86258
     1998.38467        -4.75947         6.48081
     1998.38741         6.63246         7.34542
     1998.39014        -5.78261         7.30916
     1998.39288        -6.32167         7.51276
     1998.39562       -12.45974         7.29800
     1998.39836        -0.49581         7.79074
     1998.40110        -0.88587         6.94194
     1998.40383         1.15906         6.79412
     1998.40657        -3.10201         6.04851
     1998.40931        -4.49107         5.98436
     1998.41205        -3.28214         6.17123
     1998.41478         2.54579         5.84491
     1998.41752        -0.76227         6.05130
     1998.42026         1.72066         6.94287
     1998.42300         5.47859         7.13717
     1998.42574         5.92152         7.28220
     1998.42847         6.24346         6.46687
     1998.43121        -4.97461         6.67512
     1998.43395         2.00332         6.12010
     1998.43669        -1.52174         5.94904
     1998.43943         0.33819         6.34322
     1998.44216         5.54112         6.21492
     1998.44490        13.79406         5.97414
     1998.44764         1.69499         6.22422
     1998.45038        -2.40908         5.96763
     1998.45311         3.65986         6.82759
     1998.45585         4.13579         6.78389
     1998.45859         3.76772         6.59609
     1998.46133         3.11866         6.78668
     1998.46407         3.29359         6.78296
     1998.46680        -1.73148         6.74391
     1998.46954         1.88746         6.98656
     1998.47228         1.97439         6.97912
     1998.47502         8.39632         6.77087
     1998.47775        17.66026         6.97819
     1998.48049         1.86619         6.93264
     1998.48323         0.10812         6.83595
     1998.48597         1.25505         6.74298
     1998.48871        -4.35301         6.86942
     1998.49144        -1.04808         6.18332
     1998.49418        -2.10215         5.98065
     1998.49692        -0.99621         6.39156
     1998.49966        -2.73328         6.04200
     1998.50240         3.74765         5.96670
     1998.50513         5.18859         5.91185
     1998.50787        -2.72948         6.14520
     1998.51061        -1.76455         6.11545
     1998.51335        -2.89061         5.99273
     1998.51608         3.16632         6.03364
     1998.51882         5.11325         6.24839
     1998.52156        -0.15381         6.44920
     1998.52430        -3.14788         6.29395
     1998.52704        -7.27295         6.36274
     1998.52977        -5.68901         6.06618
     1998.53251        -2.49408         5.96112
     1998.53525         9.39685         6.05781
     1998.53799         0.45879         6.15450
     1998.54073         3.73672         6.24653
     1998.54346         3.05965         6.17960
     1998.54620         3.20958         6.08198
     1998.54894        -2.43748         6.57378
     1998.55168         3.72645         6.69371
     1998.55441         9.07338         6.71788
     1998.55715        -1.37868         7.56947
     1998.55989         8.51725         6.60539
     1998.56263         0.90918         6.94380
     1998.56537        -7.83088         7.50346
     1998.56810        -3.88095         6.38227
     1998.57084        -0.17102         6.99307
     1998.57358        -6.87008         7.82513
     1998.57632        -5.44515         8.13844
     1998.57906        -5.47722         7.80003
     1998.58179         3.84372         7.96459
     1998.58453        -2.57635         7.83908
     1998.58727        -8.53942         7.23943
     1998.59001         0.43052         7.51555
     1998.59274         6.94345         7.31195
     1998.59548        -2.55662         8.42664
     1998.59822        -7.27868         8.05291
     1998.60096         2.28625         8.41176
     1998.60370         1.55718         7.83071
     1998.60643        -7.04288         7.30916
     1998.60917        -5.43195         7.66616
     1998.61191        -8.82502         8.64790
     1998.61465        -1.69209         8.03710
     1998.61739        -1.07215         8.65627
     1998.62012         7.57778         7.55274
     1998.62286       -10.30529         8.14959
     1998.62560        -6.02135         7.47186
     1998.62834        -1.73642         8.06778
     1998.63107         2.16851         7.74797
     1998.63381        -2.47055         7.94785
     1998.63655        -6.66962         8.13937
     1998.63929       -13.89269         8.73715
     1998.64203         2.24525         8.26023
     1998.64476        -6.49782         7.85302
     1998.64750        -6.49389         7.89393
     1998.65024         1.52305         8.38294
     1998.65298         2.70198         7.87348
     1998.65572         5.22091         8.72507
     1998.65845        -2.08115         8.13100
     1998.66119         6.52778         7.64199
     1998.66393         3.45671         7.63269
     1998.66667         2.86365         8.78736
     1998.66940         3.63458         7.68847
     1998.67214         0.25151         8.61908
     1998.67488         7.12044         8.47870
     1998.67762         8.94438         7.63269
     1998.68036         6.68231         7.60108
     1998.68309        13.91824         8.95098
     1998.68583        12.09518         8.65906
     1998.68857        11.40611         8.68509
     1998.69131         6.73604         8.58004
     1998.69405         3.72798         8.07801
     1998.69678         0.36091         8.08359
     1998.69952        -2.08216         7.93577
     1998.70226         9.55378         8.34018
     1998.70500         7.31571         8.56702
     1998.70773        16.10464         8.14309
     1998.71047        10.90458         8.28719
     1998.71321        15.52051         9.32099
     1998.71595        -1.50956         8.84778
     1998.71869         7.32238         8.74738
     1998.72142        -8.55769         8.53076
     1998.72416         7.90424         9.20013
     1998.72690         3.67418         8.77062
     1998.72964         3.95611         8.90171
     1998.73238         7.70004         8.97980
     1998.73511        -2.03402         7.79631
     1998.73785         6.81291         9.12669
     1998.74059        -2.13115         7.99620
     1998.74333        -3.69223         8.72879
     1998.74606        15.34771         8.85894
     1998.74880       -11.32936         7.93205
     1998.75154         0.53757         8.30671
     1998.75428        -8.71849         8.28068
     1998.75702        -3.80456         8.22769
     1998.75975        -3.40163         9.16574
     1998.76249        -0.15569         8.44523
     1998.76523        10.80524         8.16168
     1998.76797        12.22017         8.43872
     1998.77070        -9.58489         8.25186
     1998.77344         0.69104         8.11055
     1998.77618         3.72697         9.34052
     1998.77892         9.04191         8.47684
     1998.78166         1.42484         8.35784
     1998.78439       -10.31023         8.98073
     1998.78713        12.17471         8.12821
     1998.78987        -6.92336         9.04953
     1998.79261       -21.16843         7.93298
     1998.79535        -1.37549         8.62094
     1998.79808        -8.47056         8.02316
     1998.80082       -11.46663         8.58190
     1998.80356         7.69630         8.02502
     1998.80630        -1.46576         8.09195
     1998.80903        -1.37183         9.20850
     1998.81177        -1.23690         7.95343
     1998.81451        -1.28496         7.49045
     1998.81725        10.62897         7.98783
     1998.81999         0.82090         9.17131
     1998.82272       -11.70816         7.52485
     1998.82546        -4.17823         7.85302
     1998.82820        -8.44030         8.43594
     1998.83094        -5.15636         7.58435
     1998.83368        -9.03843         7.71078
     1998.83641        -8.92350         8.65534
     1998.83915       -12.25956         8.57074
     1998.84189         6.36937         8.76969
     1998.84463        14.43130         9.17689
     1998.84736         2.08724         7.32961
     1998.85010        -4.52483         8.46476
     1998.85284        -1.87590         9.24755
