# ================= DQRFIT RESULTS ================
# INPUT FILE: series/KITT.rad
# OUTPUT: LDETRENDED
# FILTER FUNCTION: f(t)
# f(t)=+line(t)
# line(t)=+P 1+P 2*t
# heav(t)=(t<0?0:1)
# TOTAL OBSERVATIONS MTOT=  567
# INITIAL TIME INTERVAL= 2018.5051 - 2004.7502 = 13.7550
# TOTAL OBSERVATIONS AFTER PREFILTER M=  566
# TIME-SPAN=    0.0000 -    0.0000 =  0.0000
# OBSERVATIONS: USED M=   566 REJECTED MTOT-M=     1 %USED=   99.8236
# N=  2 PARAMETERS
# MAXSIG= 175.00000
# MAXRES=  15.72850
# SCALE FACTOR FOR LENGTHS: SCL=  10.00000
# SCALE FACTOR FOR SIGMAS: SCLSIG=   1.00000
# CHI^2=    588.302 DOF=   564 CHI^2/DOF=   1.04309
# RMS=      5.958 SDEV=      5.962 MEAN=    0.08157
#  P #       PARAMETER +-    SIGMA %error PARAMETER NAME
# P 1 =     -1253.98218 +-  113.434   9.05 YZERO                              
# P 2 =         0.62345 +-    0.056   9.05 SLOPE                              
#       T            LDETRENDED       SIG_OBS
     2004.75018        -4.46072         5.74593
     2004.75291         0.79657         5.75308
     2004.75565         3.65786         5.75921
     2004.75839         3.22716         5.79802
     2004.76113         0.50545         5.75716
     2004.76387         4.68074         5.73572
     2004.76660         2.39704         5.76636
     2004.76934         0.46633         5.92262
     2004.77208         5.37762         6.03803
     2004.77482         7.17592         5.91241
     2004.77755         3.81621         5.90526
     2004.78029         3.22750         5.88891
     2004.78303         1.90280         5.91036
     2004.78577         1.00809         5.77146
     2004.78851         7.40538         5.84806
     2004.79124        11.02867         5.78066
     2004.79398         6.37597         5.82457
     2004.79672       -12.18174         5.79291
     2004.79946        -5.17545         5.82968
     2004.80220        -4.89215         5.85623
     2004.80493       -14.93586         5.85215
     2004.80767         1.78743         5.80823
     2004.81041         3.56673         5.74389
     2004.81315       -12.29698         5.72550
     2004.81588        -4.66469         5.73367
     2004.81862        -2.59639         6.06969
     2004.82136        -1.51810         6.05641
     2004.82410        -8.04881         5.83581
     2004.82684         3.18548         5.77146
     2004.82957        11.41178         5.91955
     2004.83231         8.47407         5.75512
     2004.83505        -0.54664         5.91955
     2004.83779         5.81466         5.73265
     2004.84052         8.10895         5.86542
     2004.84326        11.97224         5.75410
     2004.84600         8.57954         5.74082
     2004.84874         5.05583         5.77351
     2004.85148        -0.38188         5.80925
     2004.85421        -3.24558         6.12178
     2004.85695       -18.88229         5.85521
     2004.85969       -10.07700         5.79189
     2004.86243        -0.81071         5.85521
     2004.86517        -6.44441         5.75104
     2004.86790       -14.51112         5.70916
     2004.87064        -9.72583         5.73572
     2004.87338         2.40847         5.69691
     2005.25120        -2.60809         5.83070
     2005.25394        11.14121         6.23310
     2005.25668         9.86450         6.21676
     2005.25942         5.53979         5.96756
     2005.26215        -2.61892         5.98185
     2005.26489         1.30438         6.02373
     2005.26763        11.19067         6.04313
     2005.27037         4.80196         6.00534
     2005.27311         7.13526         5.96960
     2005.27584         7.72755         5.98696
     2005.27858         7.69584         5.95632
     2005.28132         5.24714         6.07377
     2005.28406         4.35243         6.06765
     2005.28679         1.69872         6.02884
     2005.28953         7.13602         5.88687
     2005.29227         2.79431         5.91036
     2005.29501         3.07960         5.87564
     2005.29775         5.71789         5.87155
     2005.30048         6.89319         5.84193
     2005.30322         4.71048         5.83887
     2005.30596         4.23677         5.90832
     2005.30870         4.34707         5.87768
     2005.31144         7.69136         5.89709
     2005.31417         3.15165         5.86440
     2005.31691         3.41695         5.87666
     2005.31965         5.04024         5.89504
     2005.32239         3.70153         6.04007
     2005.32512        -1.15017         5.92772
     2005.32786         2.38312         5.95019
     2005.33060         6.89241         5.93079
     2005.33334         5.95071         5.84602
     2005.33608         1.13700         6.00432
     2005.33881         6.34129         5.88381
     2005.34155         4.63758         5.89811
     2005.34429        -0.61312         5.87666
     2005.34703         3.77217         5.85930
     2005.34977         5.05146         5.89300
     2005.35250        -0.76724         5.96449
     2005.35524         6.52705         6.04415
     2005.35798         1.74734         6.08296
     2005.36072        -7.67536         6.07786
     2005.36345        -3.39507         6.14424
     2005.36619         2.33622         6.09522
     2005.36893         0.78452         6.15446
     2005.37167        -5.16019         6.14118
     2005.37441         2.03310         6.16263
     2005.37714         6.59239         6.11360
     2005.37988        12.26269         6.12484
     2005.38262        -3.88202         6.14833
     2005.38536        -1.37373         6.05130
     2005.38810        -1.89343         6.00228
     2005.39083        -3.11114         6.12892
     2005.39357        -4.60985         5.98798
     2005.39631        -2.37555         5.98492
     2005.39905        -3.83126         6.04620
     2005.40178        -2.59597         6.05845
     2005.40452         3.14133         6.16263
     2005.40726        -2.31538         6.01352
     2005.41000        -0.73609         6.00024
     2005.41274         0.02620         5.99513
     2005.41547         0.27850         5.95939
     2005.41821        -0.97621         5.86645
     2005.42095        -1.23292         5.86645
     2005.42369         0.58938         5.91649
     2005.42643         4.99967         5.90934
     2005.42916         3.89996         5.88279
     2005.43190         3.20826         5.92466
     2005.43464         2.48155         5.93079
     2005.43738        -1.63216         6.03394
     2005.44011        -3.28586         6.08909
     2005.44285        -3.02457         6.14220
     2005.44559        -3.02528         6.09011
     2005.44833        -1.41699         6.04824
     2005.45107         2.28931         5.98492
     2005.45369        -3.58033         6.24638
     2005.66736         3.52046         5.90423
     2005.67009         4.19475         5.85215
     2005.67283         3.77905         5.88279
     2005.67557         7.00834         5.88279
     2005.67831        -0.16237         5.82661
     2005.68105        -1.46507         5.84398
     2005.68378        -0.15778         5.92058
     2005.68652         1.65351         5.91036
     2005.68926         0.87481         5.88891
     2005.69200        -1.92990         6.01556
     2005.69473         3.55739         6.06050
     2005.69747         0.90369         5.93385
     2005.69983         6.84722         7.15433
     2005.95757        -4.28847         5.83989
     2005.96031        -0.57718         5.83887
     2005.96304        -5.55889         5.73265
     2005.96578       -10.36459         5.92977
     2005.96852        -6.65830         6.04109
     2005.97126        -5.44301         5.89504
     2005.97400        -1.38271         5.94202
     2005.97673        -7.25242         5.95632
     2005.97947        -2.23213         5.85317
     2005.98221        -5.11483         5.89709
     2005.98495        -3.85454         5.90423
     2005.98768        -3.33625         5.96143
     2005.99042        -5.44196         5.96653
     2005.99316        -0.52166         5.93998
     2005.99590         1.98663         5.95019
     2005.99864        -2.97708         5.97777
     2006.66941       -14.57127         6.22186
     2006.67215       -10.58698         6.21165
     2006.67488       -10.66268         6.41081
     2006.67762       -14.15739         6.55890
     2006.68036       -13.44910         6.21369
     2006.68310        -6.64181         6.45268
     2006.68584        -1.82351         6.52111
     2006.68857        -1.01222         6.19225
     2006.69131        -4.50093         6.12484
     2006.69405        -6.38663         6.08807
     2006.69679       -10.22434         6.03394
     2006.69953        -4.68405         6.05743
     2006.70226        -1.75375         6.26476
     2006.70500         1.89854         6.25352
     2006.70774        -8.85417         5.94713
     2006.71048        -2.95787         5.90832
     2006.71321        -0.29558         5.92977
     2006.71595        -0.02229         5.93385
     2006.71869         1.05400         5.93487
     2006.72143        -8.75570         6.18714
     2006.72417         1.62959         6.36893
     2006.72690        -1.31412         6.07786
     2006.72964        -2.02182         6.04007
     2006.73238        -3.85653         5.86134
     2006.73512        -4.47724         5.88585
     2006.73786        -6.54194         5.97675
     2006.74059        -4.13365         5.96551
     2006.74333        -2.56336         5.98288
     2006.74607         1.40894         5.94407
     2006.74881        -1.30977         5.96347
     2006.75154         1.19752         6.29131
     2006.75428        -4.50519         6.24025
     2006.75702        -5.88789         6.08909
     2006.75976        -0.19360         5.97879
     2006.76250        -0.50331         5.92568
     2006.76523       -11.61201         6.10237
     2006.76797       -10.02672         6.10952
     2006.77071        -6.17043         5.98185
     2006.77321        -3.28198         6.52724
     2007.24162        -1.05502         5.75512
     2007.24436         4.16228         5.77861
     2007.24710         7.71057         5.79904
     2007.24983        -1.98714         5.82866
     2007.25257        -5.08484         5.76329
     2007.25531        -0.52755         5.79700
     2007.25805        -2.77026         5.90015
     2007.26079        -0.39097         5.91241
     2007.26352         5.64633         5.75410
     2007.26626        11.19362         5.93998
     2007.26900        13.09291         5.99411
     2007.27174        11.37621         6.13301
     2007.27447        15.72850         6.55890
     2007.27721         9.83479         5.76329
     2007.27995         5.29609         6.13097
     2007.28269         3.30138         6.18510
     2007.28816         8.09397         6.31072
     2007.29090         1.13626         6.08399
     2007.29364         1.99155         5.90117
     2007.29638         3.63885         5.81334
     2007.29911         3.60814         5.98696
     2007.30185         6.86243         6.09522
     2007.30459        -7.45728         5.97368
     2007.30733         0.96702         6.01964
     2007.31007        -3.24069         6.19531
     2007.31280         2.80360         6.26067
     2007.31554         1.40690         5.91343
     2007.31828         3.79119         5.83478
     2007.32102        -3.58952         5.87666
     2007.32376         5.07278         6.15344
     2007.32649         4.24507         5.94611
     2007.32923         1.23136         5.82764
     2007.89049         1.30344         5.81742
     2007.89323        -0.50526         5.97573
     2007.89597         2.10803         5.93896
     2007.89870         0.99132         5.88483
     2007.90144        -0.93638         5.85010
     2007.90418         1.82591         5.89811
     2007.90692        -2.43780         5.90526
     2007.90966        -3.24550         5.89913
     2007.91239         0.58579         5.86032
     2007.91513         3.16408         5.89504
     2007.91787         2.56737         5.86134
     2007.92061        -9.39533         5.95326
     2007.92334         4.20196         6.06458
     2007.92608         3.51425         5.92875
     2007.92882         2.59555         5.97368
     2007.93156        -9.22716         6.00943
     2007.93430         3.85113         5.91445
     2007.93703        -1.85457         5.96858
     2007.93965       -17.20420         6.59975
     2010.32444         0.57599         5.97471
     2010.32718         6.46929         5.76636
     2010.32992         4.15058         5.75104
     2010.33265         3.74687         5.74593
     2010.33539         0.99617         5.87462
     2010.33813         5.29046         5.91241
     2010.34087         1.30275         5.73367
     2010.34361        -1.03595         5.71631
     2010.34634         2.25234         5.82253
     2010.34908         5.19763         5.72244
     2010.35182         2.39592         5.76636
     2010.35456         0.59622         5.78883
     2010.35729         2.31951         5.74695
     2010.36003         3.60680         5.83887
     2010.36277         3.80910         5.66933
     2010.36551        -2.02861         5.92262
     2010.36825         0.25468         5.87972
     2010.37098         2.97398         5.70201
     2010.37372         6.83827         5.74695
     2010.37646         3.76756         5.73265
     2010.37920         3.50786         5.97164
     2010.38193         9.00915         6.09828
     2010.38467         8.05944         5.88994
     2010.38741        10.41273         5.89198
     2010.39015         7.76903         5.83376
     2010.39289         2.46332         5.81129
     2010.39562        -0.73239         5.82764
     2010.39836         3.57691         5.82355
     2011.40042        -6.98082         5.75410
     2011.40315        -9.37953         5.75716
     2011.40589       -21.95024         5.72550
     2011.40863        -6.75595         5.71529
     2011.41137        -7.83365         5.74797
     2011.41410        -8.97036         5.74797
     2011.41684        -8.75907         5.70508
     2011.41958        -6.38777         5.65810
     2011.42232       -13.05748         5.64584
     2011.42506        -9.30319         5.71938
     2011.42779        -6.65789         5.72550
     2011.43053       -13.81260         5.69793
     2011.43327       -11.54131         5.70814
     2011.43601       -15.77501         5.67852
     2011.43875       -16.16072         5.77248
     2011.44148       -12.95443         5.79904
     2011.44422       -10.16514         5.74695
     2011.44696       -11.99984         5.85215
     2011.44970        -8.27255         5.72346
     2011.45243       -14.87626         5.73265
     2011.45517       -10.60596         5.72142
     2011.45791        -9.53567         5.71835
     2011.46065       -10.05238         5.76227
     2011.46339       -13.47308         5.80619
     2011.46612       -12.50179         5.72142
     2011.46886        -6.00550         5.68465
     2011.47160       -13.82020         5.73265
     2011.47434       -14.89691         5.91036
     2011.47708        -6.91262         5.79495
     2011.47981        -5.65033         5.75104
     2011.48255        -5.07603         5.70201
     2011.48529       -15.42974         5.69282
     2011.48803        -7.52745         5.74593
     2011.49076        -8.03915         5.78168
     2011.49350       -11.09786         5.73265
     2011.49624        -5.96857         5.73265
     2011.49898       -13.49127         5.72755
     2011.50172        -8.27198         5.73163
     2011.50445       -10.55469         5.79597
     2011.50719       -13.96839         5.84398
     2011.50993       -12.32510         5.77555
     2011.51267        -7.23881         5.79802
     2011.51541        -2.60052         5.82661
     2011.51814        -2.48222         5.77759
     2011.52088        -5.32193         5.74287
     2011.52362        -8.84664         5.75308
     2011.52636       -11.72034         5.63665
     2011.52887        -5.20091         6.18918
     2012.83505         6.12375         5.79700
     2012.83779         1.27704         5.81844
     2012.84052         4.08534         5.75002
     2012.84326         4.87163         5.75921
     2012.84600         4.62592         5.74695
     2012.84874         6.46622         5.75614
     2012.85148        10.60651         5.80210
     2012.85421        -0.15520         5.80415
     2012.85695         3.48810         5.82049
     2012.85969         6.52839         5.73980
     2012.86243         4.78768         5.73367
     2012.86517         5.47597         5.81027
     2012.86790         3.22327         5.90628
     2012.87064         6.42156         5.69997
     2012.87338         4.56785         5.79597
     2012.87612         3.94815         5.73061
     2012.87885         7.48144         5.72448
     2012.88159         3.35373         5.69282
     2012.88433         9.38703         5.70406
     2012.88707         5.14832         5.82559
     2012.88981         8.57761         5.85010
     2012.89254         4.35991         5.75002
     2012.89528         1.52720         5.67954
     2012.89802         3.72549         5.70508
     2012.90076         6.14678         5.74082
     2012.90350         6.52808         5.71121
     2012.90623         4.65637         5.62644
     2012.90897         5.44366         5.77248
     2012.91171         2.05496         5.68874
     2012.91445         2.40425         5.67546
     2012.91718        -5.08846         5.72244
     2012.91992        10.33284         5.74185
     2012.92266         4.99913         5.89709
     2012.92540         4.75342         5.59784
     2012.93361         6.03330         6.58750
     2012.93635         0.87359         5.86338
     2012.93909         2.23689         5.61214
     2012.94183         3.08018         5.59478
     2012.94456        10.93947         6.34238
     2012.94730         8.51277         5.97777
     2012.96920         0.37411         6.62222
     2012.97194         4.53740         5.69384
     2012.97468         4.90170         5.63461
     2013.04039        -2.07027         6.53439
     2013.04313        -1.63198         6.27599
     2013.04586         1.63432         6.16263
     2013.04860        -0.05039         6.00739
     2013.05134         2.11690         5.81844
     2013.05408         0.65420         5.67852
     2013.05682         2.82249         5.65401
     2013.05955         1.87478         5.69691
     2013.06229        -1.58392         5.77146
     2013.06503        -1.28763         5.72244
     2013.06777         3.58566         6.20961
     2013.07050        -0.93204         6.04722
     2014.71595         3.29510         6.63652
     2014.71869         6.73839         5.85010
     2014.72143        -3.00032         6.06050
     2014.72417         5.42698         6.32910
     2014.72690        10.46127         6.16467
     2014.72964         2.04756         5.95122
     2014.73238         6.93086         6.20042
     2014.73512        -0.50585         5.82764
     2014.73786         4.62544         5.88789
     2014.74059        -2.65926         5.85113
     2014.74333         2.08803         5.88585
     2014.74607         2.15032         6.33115
     2014.74881         4.95762         6.65797
     2014.75154         3.27691         5.94100
     2014.75428        -0.14380         6.09828
     2014.75702        -4.03451         5.84091
     2014.75976         1.37379         6.16059
     2014.76250         0.44908         6.31378
     2014.76523        -0.84863         5.86645
     2014.76797        -0.57633         5.95939
     2014.77071        -2.22604         6.15854
     2014.77345        -0.48475         6.23208
     2014.77619         0.74755         6.28927
     2014.77892         2.58084         6.23208
     2014.78166         2.10313         6.19429
