# ================= DQRFIT RESULTS ================
# INPUT FILE: series/KLTS.rad
# OUTPUT: LDETRENDED
# FILTER FUNCTION: f(t)
# f(t)=+line(t)+annual(t)
# line(t)=+P 1+P 2*t
# annual(t)=+P 3*sin(2*pi*t+P 4)
# heav(t)=(t<0?0:1)
# TOTAL OBSERVATIONS MTOT= 3705
# INITIAL TIME INTERVAL= 2022.7488 - 2011.8248 = 10.9240
# TOTAL OBSERVATIONS AFTER PREFILTER M= 3697
# TIME-SPAN= 2022.7488 - 2011.8248 = 10.9240
# OBSERVATIONS: USED M=  3697 REJECTED MTOT-M=     8 %USED=   99.7841
# N=  4 PARAMETERS
# MAXSIG= 175.00000
# MAXRES=  32.84618
# SCALE FACTOR FOR LENGTHS: SCL=  10.00000
# SCALE FACTOR FOR SIGMAS: SCLSIG=   1.00000
# CHI^2=   5105.238 DOF=  3693 CHI^2/DOF=   1.38241
# RMS=      7.017 SDEV=      6.994 MEAN=    0.57130
#  P #       PARAMETER +-    SIGMA %error PARAMETER NAME
# P 1 =       102.26084 +-   70.240  68.69 YZERO                              
# P 2 =        -0.05013 +-    0.035  69.45 SLOPE                              
# P 3 =         4.96639 +-    0.154   3.10 ANNUAL AMPLITUDE                   
# P 4 =         2.59051 +-    0.037   1.44 ANNUAL PHASE                       
#       T            LDETRENDED       SIG_OBS
     2011.82477         0.45911         6.73240
     2011.82751         2.09624         6.53017
     2011.83025         4.50238         6.55721
     2011.83299         0.61652         6.45844
     2011.83572        -0.06435         6.45609
     2011.83846         6.37479         6.39025
     2011.84120         9.42193         6.45257
     2011.84394         9.76007         6.47726
     2011.84668        10.60820         6.49254
     2011.84941         4.66334         6.51135
     2011.85215        -4.04452         6.50430
     2011.85489        -2.88138         6.54192
     2011.85763         3.99675         6.63246
     2011.86036        12.54789         6.51958
     2011.86310        16.21903         6.62540
     2011.86584        14.67016         6.55133
     2011.86858        11.83430         6.52429
     2011.87132         9.73844         6.48549
     2011.87405         5.40158         6.43258
     2011.87679         7.17371         6.52781
     2011.87916         9.58683         7.87288
     2011.88227         7.64199         6.48901
     2011.88501         3.42312         6.48314
     2011.88774         5.26726         6.61364
     2011.89048         7.25440         6.58895
     2011.89322         9.40454         6.58778
     2011.89596         3.41667         6.52311
     2011.89869         4.42281         6.57249
     2011.90143        -1.28205         6.50077
     2011.90417         1.93209         6.59483
     2011.90668         5.53421         7.66360
     2011.90965         5.78836         6.53604
     2011.91238         4.77950         6.61952
     2011.91512        -1.35937         6.56426
     2011.91786         4.44177         6.83586
     2011.92060        -2.81509         6.64421
     2011.92334        -2.27995         6.66538
     2011.92607        -5.82982         6.65009
     2011.92881        -0.57168         6.57837
     2011.93155         5.99146         6.68184
     2011.93429         4.30660         6.69595
     2011.93702         1.28073         6.71123
     2011.93976         0.15087         6.54898
     2011.94250         4.56501         6.56897
     2011.94524         3.55514         6.61717
     2011.94798        10.68728         6.69125
     2011.95071         5.82442         6.56426
     2011.95345         2.69156         6.56426
     2011.95619         3.24669         6.58308
     2011.95893        -0.75217         6.44434
     2011.96165         7.56797         6.59483
     2011.96449         8.94011         6.89230
     2011.96714         4.48524         6.45139
     2011.96988         4.53138         6.39143
     2011.97262         0.81752         6.38320
     2011.97535        -1.29535         6.94638
     2011.97809         7.76079         6.51958
     2011.98083         5.61293         6.53017
     2011.98357         7.37907         6.43023
     2011.98631         7.85620         6.47843
     2011.98904         8.28134         6.39378
     2011.99178        10.41748         6.59366
     2011.99452        11.23761         6.40789
     2011.99726         6.31975         6.39143
     2012.00273         5.91003         6.42435
     2012.00547         8.82016         6.37967
     2012.00821         7.93330         6.43375
     2012.01095         3.42644         6.47961
     2012.01368         8.41958         6.39378
     2012.01642        11.83771         6.42787
     2012.01916         6.41085         6.33146
     2012.02190         8.87499         6.33852
     2012.02464         6.83612         6.42670
     2012.02737         1.08726         6.33029
     2012.03011         3.56040         6.38437
     2012.03285         3.90754         6.38084
     2012.03559         8.14167         6.48078
     2012.03833         4.82281         6.33146
     2012.04106         5.86695         6.36321
     2012.04380         5.09809         6.33852
     2012.04654         8.64922         6.39731
     2012.04928        15.04636         6.37144
     2012.05201         7.51650         6.33499
     2012.05475        13.35563         6.42200
     2012.05749         5.97677         6.42317
     2012.06023         8.75291         6.55133
     2012.06297         3.82505         6.49842
     2012.06570         5.69918         6.44786
     2012.06844        10.54132         6.45021
     2012.07118         1.41746         6.31500
     2012.07392         2.47060         6.43375
     2012.07666         4.82373         6.49842
     2012.07939         7.17687         7.61657
     2012.08213         8.87901         6.40789
     2012.08487         9.80214         6.32323
     2012.08761         1.31928         6.42435
     2012.09034        -1.83958         6.34557
     2012.09308         3.09056         6.52664
     2012.09582         3.94569         6.37497
     2012.09856         4.74183         6.36321
     2012.10130         5.56697         6.50783
     2012.10403         4.04011         6.33734
     2012.10677         2.14124         6.45962
     2012.10951         0.56438         6.40083
     2012.11225         3.84652         6.41847
     2012.11498         5.17565         6.39260
     2012.11772         7.10479         6.37144
     2012.12046         7.21793         6.39966
     2012.12320         4.98607         6.42082
     2012.12594         1.06520         6.35968
     2012.12867         1.51834         6.41024
     2012.13141         2.13548         6.42670
     2012.13415         6.89461         6.39495
     2012.13689         6.35175         6.40789
     2012.13963         3.44989         6.52781
     2012.14236         6.80103         6.65715
     2012.14510         1.98516         6.42552
     2012.14784        -2.28870         6.34910
     2012.15058         0.15744         6.30677
     2012.15331        -1.44742         6.29384
     2012.15605         5.52371         6.44198
     2012.15879         7.39685         6.45257
     2012.16153         7.75399         6.31265
     2012.16427         5.51912         6.37144
     2012.16700        -1.22674         6.43375
     2012.16974        -1.55360         6.29501
     2012.17248        -0.27246         6.27855
     2012.17522         2.26967         6.35968
     2012.17796         2.52481         6.35027
     2012.18069        -0.58605         6.39025
     2012.18343        -4.25591         6.30207
     2012.18617         0.17022         6.32911
     2012.18891         2.51036         6.42200
     2012.19164         4.86450         6.49607
     2012.19438         5.67463         6.32794
     2012.19712         5.12777         6.40083
     2012.19986         3.03791         6.31971
     2012.20260         9.51205         6.43493
     2012.20533        11.32718         6.47726
     2012.20807         5.28632         6.38084
     2012.21081         6.39946         6.32088
     2012.21355         6.23460         6.31500
     2012.21629         3.48773         6.30677
     2012.21902         0.07087         6.27973
     2012.22176        -2.16099         6.40436
     2012.22450        -5.81486         6.34087
     2012.22724         1.09928         6.44551
     2012.22997         3.60742         6.35498
     2012.23271         4.55756         6.34440
     2012.23545         3.32969         6.41259
     2012.23819         5.46183         6.40906
     2012.24093         0.74097         6.41964
     2012.24366        12.46010         6.57720
     2012.24640         6.45824         6.32676
     2012.24914         5.62638         6.44669
     2012.25188        -5.24148         6.33734
     2012.25462        -4.50735         6.33734
     2012.25735         0.62679         6.39260
     2012.26009        -1.38907         6.26680
     2012.26283        -3.28393         6.37967
     2012.26557        -6.02480         6.37026
     2012.26830        -2.76466         6.34440
     2012.27104        -2.57152         6.42552
     2012.27378        -1.41039         6.34675
     2012.27652         0.86975         6.31853
     2012.27926         5.11389         6.50312
     2012.28199         0.68203         6.37732
     2012.28473         7.58816         6.33264
     2012.28747         2.29930         6.41377
     2012.29021        -6.04956         6.35733
     2012.29295        -5.14742         6.35380
     2012.29568        -4.90929         6.35263
     2012.29842         0.60385         6.42317
     2012.30116        -6.85901         6.45139
     2012.30390        -5.85288         6.34204
     2012.30663       -13.30974         6.38202
     2012.30937        -8.84360         6.40789
     2012.31211         5.62654         6.69948
     2012.31368        -4.71439        19.54582
     2012.31759         3.47981         6.46550
     2012.32032        -4.67005         6.45844
     2012.32306        -5.58291         6.30912
     2012.32580        -4.78378         6.35027
     2012.32854        -3.36564         6.51606
     2012.33128        -0.90550         6.52194
     2012.33401        -6.01537         6.54898
     2012.33675        -1.91123         6.33617
     2012.33949        -1.01309         6.45139
     2012.34223        -6.48395         6.33969
     2012.34496       -12.16582         6.32676
     2012.34770        -7.50368         6.42787
     2012.35044        -7.88654         6.33969
     2012.35318        -4.54740         6.41377
     2012.35592        -1.46027         6.35027
     2012.35865        -7.62513         6.27973
     2012.36139        -4.92599         6.28091
     2012.36413        -9.88286         7.12510
     2012.36687       -12.81272         6.31265
     2012.36961        -0.33958         6.35027
     2012.37234         3.33556         6.36791
     2012.37508        -1.80331         6.30442
     2012.37782         0.36283         6.49842
     2012.38056        -6.13803         7.07807
     2012.38329        -3.49090         6.45492
     2012.38603        -2.47576         6.52781
     2012.38877        -3.71562         6.50783
     2012.39151         3.69352         6.46432
     2012.39425         0.58665         6.44669
     2012.39698        -7.75221         6.45374
     2012.39972         0.59093         6.33029
     2012.40246        -3.09293         6.51841
     2012.40520        -3.46580         6.37261
     2012.40794        -2.31966         6.39848
     2012.41067        -2.05152         6.33617
     2012.41341        -6.25539         6.38790
     2012.41615         1.61575         6.40789
     2012.41889        -3.35911         6.65362
     2012.42162        -2.61997         6.26444
     2012.42436        -0.81284         6.32441
     2012.42710        -5.54270         6.37026
     2012.42984         0.80544         6.39025
     2012.43258        -3.38442         6.38202
     2012.43531        -3.57429         6.36909
     2012.43805        -0.30215         6.22094
     2012.44079        -5.13401         6.28326
     2012.44300       -14.92990         8.37023
     2012.45297         3.30960        22.71214
     2012.45448        -9.58833         6.42082
     2012.45722        -5.36119         6.39378
     2012.45995         0.41995         6.50077
     2012.46269        -0.05091         6.34440
     2012.46543        -0.21278         6.33029
     2012.46817         0.22336         6.24916
     2012.47091        -7.81350         6.33734
     2012.47364        -1.76837         6.45021
     2012.47638         2.65177         7.53544
     2012.47912         5.33991         6.50195
     2012.48186        -3.86795         6.32676
     2012.48459         1.61118         6.30442
     2012.48733        -4.82468         6.24446
     2012.49007        -4.84454         6.30560
     2012.49281        -2.60841         6.31971
     2012.49555        -0.09827         6.31030
     2012.49828        -5.20413         6.35145
     2012.50102        -2.84699         6.35968
     2012.50376         2.70814         6.39613
     2012.50650        -3.43972         6.23152
     2012.50924         0.93142         6.39613
     2012.51197        -4.35544         6.40906
     2012.51471        -4.80031         6.33029
     2012.51745         6.62683         6.44198
     2012.52019         5.92897         6.71006
     2012.52292        -2.75990         6.51723
     2012.52566         5.00724         6.31383
     2012.52840        -0.17862         6.31147
     2012.53114         1.41452         6.43728
     2012.53388         0.71865         6.59248
     2012.53661        -8.23921         6.44904
     2012.53884       -14.85410         8.96046
     2012.77831         4.91891        10.44544
     2012.78028        14.77201         6.82528
     2012.78302         5.58514         7.08277
     2012.78576         6.10228         6.59131
     2012.78850        12.64942         6.47608
     2012.79123        10.52056         6.86055
     2012.79397        14.83069         6.42200
     2012.79671        11.53383         6.38320
     2012.79945        16.06597         6.52194
     2012.80219        14.06510         6.47961
     2012.80492        12.36924         6.41729
     2012.80708         9.68535         8.05042
     2012.81040        11.98252         6.44669
     2012.81314         5.71565         6.39495
     2012.81587         5.38579         6.37614
     2012.81861        -2.06807         6.45374
     2012.82135        -0.54693         6.38320
     2012.82409         5.82720         6.67949
     2012.82683         6.99534         6.45021
     2012.82956        13.81348         6.43728
     2012.83230         5.69561         6.38084
     2012.83504         1.09675         8.29263
     2012.83778         5.56589         6.37967
     2012.84052         8.01303         6.57484
     2012.84325         7.44016         6.41494
     2012.84599         1.41030         6.49019
     2012.84873         6.36444         6.45844
     2012.85147         6.01858         6.61600
     2012.85420         5.96371         6.47608
     2012.85679         5.15884         6.88760
     2012.86905         7.32146        15.59997
     2012.87063         1.23154         6.42082
     2012.87337         4.48267         6.40671
     2012.87611         6.39381         6.38555
     2012.87885         9.57795         6.33499
     2012.88158         7.11808         6.33734
     2012.88432        12.40822         6.36438
     2012.88706        12.77036         6.54428
     2012.88980        13.46450         6.50783
     2012.89253         3.13563         6.29266
     2012.89527         5.31377         6.33381
     2012.89801         8.34191         6.39848
     2012.90075        11.00005         6.32441
     2012.90349         1.58118         6.25857
     2012.90622         5.21732         6.22212
     2012.90896         5.93446         6.32794
     2012.91170        12.70759         8.68886
     2012.91444        12.53173         8.35965
     2012.91718         8.12387         8.32437
     2012.91991         9.90601         8.89697
     2012.92265         8.11114         9.35787
     2012.92539        12.80328         8.88286
     2012.92816         0.84642        10.14210
     2012.93086         5.02256         8.20092
     2012.93360         9.08169         7.78705
     2012.93634         4.35183         6.77472
     2012.93908         4.77497         6.84645
     2012.94182         4.44810         7.83056
     2012.94459        20.38224         9.21207
     2012.94669        17.28635        12.61237
     2012.96129        12.14308         8.81231
     2012.97020         1.42253        11.74701
     2012.97193         6.01761         6.88525
     2012.97467         9.17075         6.49372
     2012.97741         9.28389         6.52546
     2012.97948        13.70499         8.83818
     2012.98347        -3.04781        12.76757
     2012.98636         9.17334         9.31436
     2012.98836        10.93444         6.21624
     2012.99110        10.64057         6.29737
     2012.99384         6.19171         6.35498
     2012.99657         6.60085         6.25386
     2012.99931         3.75399         6.35027
     2013.00205         8.90612         6.34322
     2013.00479         3.36226         6.33029
     2013.00752         2.77340         6.29384
     2013.01026         2.00554         6.34204
     2013.01300         5.36267         6.31853
     2013.01574         7.65081         6.30677
     2013.01848         9.06795         6.43023
     2013.02121        11.11608         6.36556
     2013.02395         1.95322         6.38790
     2013.02669         6.16536         6.47726
     2013.02943        11.21650         6.42317
     2013.03216         3.95163         6.37849
     2013.03490        -1.48123         6.36909
     2013.03764        -0.54909         6.36674
     2013.04038        -2.30895         6.36086
     2013.04312        -5.39082         6.44669
     2013.04585        -1.65768         6.52076
     2013.04859        -2.23254         6.67596
     2013.05016         8.96654        16.75104
     2013.07895         1.42598        12.72877
     2013.08523         3.12629        18.11727
     2013.08692        -6.66262         7.77765
     2013.09606         3.23684        21.79622
     2013.09873         0.67397        21.63397
     2013.12616        -2.31065        17.29424
     2013.12683         1.48938        15.83277
     2013.13958        -0.64298        21.09782
     2013.14270         3.47817        15.55412
     2013.15537        -9.43819         6.49842
     2013.15811        -5.85105         6.34792
     2013.16084        -8.33992         6.37261
     2013.16358        -7.60078         6.46080
     2013.16632        -2.65364         6.35615
     2013.16906        -2.93250         6.51606
     2013.17180        -1.44537         6.41847
     2013.17453        -0.79723         6.30207
     2013.17727         5.05791         6.52311
     2013.18001        -4.87995         6.56074
     2013.18275         1.31618         6.32558
     2013.18548        -3.63468         6.37497
     2013.18822        -3.27354         6.39378
     2013.19096        -0.62741         6.35145
     2013.19370        -1.75127         6.44198
     2013.19590         1.88684        11.08153
     2013.20011         5.66705        12.08680
     2013.20191        -2.20586         6.45492
     2013.20465         1.28028         6.39966
     2013.20739         2.22442         6.49724
     2013.21013         1.79356         6.42905
     2013.21286        -6.14131         6.34322
     2013.21560        -1.33517         6.39613
     2013.21834        -0.18903         6.31735
     2013.22108        -1.84390         6.30089
     2013.22381        -1.45776         6.34910
     2013.22655        -6.62662         6.49607
     2013.22929        -9.05948         6.37497
     2013.23180        -4.90736         6.95932
     2013.23567         3.32484        11.03450
     2013.23750        -8.16707         6.45139
     2013.24024        -7.11394         6.53369
