# ================= DQRFIT RESULTS ================
# INPUT FILE: series/KRMT.rad
# OUTPUT: LDETRENDED
# FILTER FUNCTION: f(t)
# f(t)=+line(t)+annual(t)
# line(t)=+P 1+P 2*t
# annual(t)=+P 3*sin(2*pi*t+P 4)
# heav(t)=(t<0?0:1)
# TOTAL OBSERVATIONS MTOT= 2306
# INITIAL TIME INTERVAL= 2013.7796 - 2006.6010 =  7.1786
# TOTAL OBSERVATIONS AFTER PREFILTER M= 2302
# TIME-SPAN= 2013.7796 - 2006.6010 =  7.1786
# OBSERVATIONS: USED M=  2302 REJECTED MTOT-M=     4 %USED=   99.8265
# N=  4 PARAMETERS
# MAXSIG= 175.00000
# MAXRES=  26.13209
# SCALE FACTOR FOR LENGTHS: SCL=  10.00000
# SCALE FACTOR FOR SIGMAS: SCLSIG=   1.00000
# CHI^2=   3119.150 DOF=  2298 CHI^2/DOF=   1.35733
# RMS=      6.629 SDEV=      6.631 MEAN=    0.00463
#  P #       PARAMETER +-    SIGMA %error PARAMETER NAME
# P 1 =      -569.57496 +-  134.187  23.56 YZERO                              
# P 2 =         0.28373 +-    0.067  23.53 SLOPE                              
# P 3 =         6.20200 +-    0.192   3.10 ANNUAL AMPLITUDE                   
# P 4 =         2.96668 +-    0.043   1.45 ANNUAL PHASE                       
#       T            LDETRENDED       SIG_OBS
     2006.60095         0.98139         6.61863
     2006.60369         7.08161         6.67921
     2006.60643         1.53483         6.61047
     2006.60917         4.78606         6.61280
     2006.61190         3.84428         6.57902
     2006.61464         3.16950         6.60348
     2006.61738         9.43373         6.55105
     2006.62012         3.73595         6.66523
     2006.62286         7.04717         6.56853
     2006.62559         7.03840         6.58251
     2006.75975         6.94433         6.69902
     2006.76249        10.60455         6.82950
     2006.76522         3.38578         6.84465
     2006.76796         3.36200         6.80037
     2006.77070         5.44822         6.64775
     2006.77344         3.72845         6.76193
     2006.77618         8.84967         6.80853
     2006.77891        11.91289         6.68853
     2006.78165        10.23112         6.57902
     2006.78439        10.09734         6.54057
     2006.78713        26.37556         6.96348
     2006.78987        31.03579         6.87144
     2006.79260        12.75701         6.61397
     2006.79534         3.08123         6.67105
     2006.79808        21.29446         6.93086
     2006.80082         6.48168         6.85280
     2006.80355         4.59490         6.60698
     2006.80629         6.14713         6.56853
     2006.80903         3.46935         6.63610
     2006.81177         8.31157         6.68037
     2006.81451         4.55180         6.66756
     2006.81724         2.44502         6.73280
     2006.81998         1.28424         6.46368
     2006.82272         5.18746         6.51610
     2006.82546        17.08869         6.72931
     2006.82820         4.23691         6.44038
     2006.83093         7.30513         6.51610
     2006.83367         9.15536         6.50911
     2006.83641         8.45958         6.71183
     2006.83915        14.52980         6.83766
     2006.84188         0.86003         6.82251
     2006.84462         8.68525         6.77824
     2006.84736         7.98647         6.70717
     2006.85010        18.53970         6.89474
     2006.85284        13.86392         6.84698
     2006.85557        20.52414         6.88309
     2006.85831        11.09937         6.70251
     2006.86105         4.19259         6.86562
     2006.86379        -1.63919         6.83882
     2006.86653        14.32904         7.00775
     2006.86926         3.83326         6.65824
     2006.87200         3.65148         6.64426
     2006.87474        14.49871         6.67921
     2006.87748         1.40693         6.53125
     2006.88021        -2.03285         6.59882
     2006.88295         1.86937         6.88426
     2006.88569         5.02760         6.76892
     2006.88843        15.87282         6.85164
     2006.89117         9.27904         6.71999
     2006.89390        -2.57673         6.90406
     2006.89664        -4.55051         6.79455
     2006.89938        -1.66229         6.60581
     2006.90212        -3.64206         6.84348
     2006.90759         7.10338         6.57203
     2006.91033         0.39961         6.58368
     2006.91295        -0.40514         6.96465
     2006.91581         4.36605         6.56387
     2006.91854        -7.28372         6.51843
     2006.92128        -6.57150         6.54872
     2006.92402        -0.32028         6.68969
     2006.92676        -3.55105         6.56037
     2006.92950        -1.47683         6.65358
     2006.93223        -6.26561         6.64076
     2006.93497         1.09862         6.79455
     2006.93771         3.75784         6.60581
     2006.94045        15.05206         6.70601
     2006.94318        11.25828         6.79455
     2006.94592         2.86151         6.84465
     2006.94866         8.08173         6.70018
     2006.95140        10.17495         6.74795
     2006.95414        12.60518         9.86678
     2006.95687         2.07840         6.60348
     2006.95961         1.81662         6.56387
     2006.96235        -2.52815         6.60814
     2006.96509        -3.48593         6.73047
     2006.96783        11.08929         6.76426
     2006.97056        12.66552         6.75727
     2006.97330         0.69474         6.63144
     2006.97604         8.37796         6.65824
     2006.97878         3.28719         6.72581
     2006.98151         3.74541         6.75377
     2006.98425        -3.16137         6.75727
     2006.98699         6.99986         6.94717
     2006.98973        -6.41392         6.81668
     2006.99794        -8.81225         6.80736
     2007.00342        13.75519         7.16037
     2007.00616         2.93242         6.78057
     2007.00889         4.02764         6.72115
     2007.01163         0.07286         6.71067
     2007.01437         2.98509         6.75261
     2007.01711        -8.71769         6.71649
     2007.01984       -11.47547         6.58834
     2007.02258       -14.26124         6.53474
     2007.02504         3.48906         7.73008
     2007.05544       -10.13856         6.29241
     2007.05817       -18.04434         6.51727
     2007.06091       -14.15412         6.40659
     2007.06365       -14.19290         6.28309
     2007.06639       -10.00267         6.52076
     2007.06913        -9.64045         6.33436
     2007.07186        -9.00223         6.29707
     2007.07460       -12.41100         6.34950
     2007.07734       -16.38278         6.28426
     2007.08008       -13.61556         6.30756
     2007.08282       -12.42833         6.33086
     2007.08555       -12.15211         6.45086
     2007.08829       -12.74989         6.44038
     2007.09103        -4.18766         6.44620
     2007.09377        -3.36744         6.46834
     2007.09650       -10.70522         6.45902
     2007.09924       -11.92799         6.40775
     2007.10198        -3.70177         6.35300
     2007.10472        -2.15355         6.48465
     2007.10746        -7.71932         6.59533
     2007.11019        -6.80510         6.39144
     2007.11293         3.83512         6.51610
     2007.11567        -8.54465         6.32154
     2007.11841       -14.20943         6.35067
     2007.12115        -3.29221         6.37630
     2007.12388        -6.76599         6.56037
     2007.12662        -4.38776         6.42523
     2007.12936        -7.52654         6.57203
     2007.13210        -2.85032         6.44620
     2007.13466        -2.37804         6.93552
     2007.13757         1.42513         6.44387
     2007.14031        -5.45265         6.41707
     2007.14305        -8.57042         6.37979
     2007.14579        -4.55120         6.40076
     2007.14852        -6.22798         6.44038
     2007.15126         6.31025         6.46368
     2007.15400         0.96947         6.39028
     2007.15674        -0.82931         6.35999
     2007.15948        -1.11108         6.54057
     2007.16221        -7.08686         6.70484
     2007.16495        -3.76564         6.65125
     2007.16769        -3.01641         6.60465
     2007.17043       -10.40819         6.51144
     2007.17316        -1.38597         6.54057
     2007.17590        -4.70274         6.51261
     2007.17864        -5.63352         6.81202
     2007.18138         8.46970         6.74678
     2007.18412         1.18893         6.65940
     2007.18685        -2.35585         6.66173
     2007.18959         0.19937         6.57669
     2007.19233         3.88059         6.76193
     2007.19507       -10.22918         6.45203
     2007.19780       -16.56196         6.46834
     2007.20054       -17.48274         6.47533
     2007.20328       -11.15751         6.48115
     2007.20602        -5.67729         6.47416
     2007.20876        -3.46907         6.45902
     2007.21149        -8.22684         6.48348
     2007.21423         2.80738         6.62562
     2007.21697        -9.77440         6.43571
     2007.21971        -2.16617         6.37863
     2007.22245        -5.72195         6.38096
     2007.22518         7.32027         6.42639
     2007.22792        -3.48350         6.44737
     2007.23066        -7.31828         6.42756
     2007.23340        -6.85606         6.48814
     2007.23613       -13.81883         6.46717
     2007.23887       -13.24961         6.40775
     2007.24161        -8.80339         6.44154
     2007.24435        -7.21116         6.37630
     2007.24709        -5.89494         6.38562
     2007.24982        -7.91572         6.42756
     2007.25256       -10.39950         6.34834
     2007.25530       -10.55527         6.40542
     2007.25804        -9.75505         6.45436
     2007.26078        -8.13983         6.45552
     2007.26351        -8.70960         6.36348
     2007.26625         0.87662         6.63377
     2007.26899        -0.96716         6.37513
     2007.27173        -2.50393         6.48348
     2007.27446        -1.66371         6.30406
     2007.27720         0.12451         6.36115
     2007.27994        -7.37426         6.40076
     2007.28268        -2.41804         6.68387
     2007.28542        -3.41882         6.45552
     2007.31553        -3.60736         6.35999
     2007.31827        -6.39514         6.54639
     2007.32101        -8.12092         6.43105
     2007.32375        -6.58069         6.50911
     2007.32648        -8.07847         6.40193
     2007.32922        -2.00525         6.36232
     2007.33196        -2.59802         6.67105
     2007.33470        -3.49880         6.54989
     2007.33744        -8.37558         6.48115
     2007.34017        -8.60635         6.45785
     2007.34291       -13.10013         6.52892
     2007.34565       -12.89791         6.45319
     2007.34839        -3.02168         6.43688
     2007.35112        -8.85046         6.48232
     2007.35386        -5.77624         6.80620
     2007.35660       -14.02701         6.80037
     2007.35934        -5.56079         6.44387
     2007.36208        -5.29657         6.48115
     2007.36481        -9.61934         6.63261
     2007.36755        -2.87112         6.49513
     2007.37029        -5.74590         6.56503
     2007.37303        -2.13468         6.68154
     2007.37577        -7.22045         6.71416
     2007.37850       -11.18123         6.70834
     2007.38124        -4.51801         6.54173
     2007.38397        11.73622         6.60465
     2007.38673        -0.78356         6.49164
     2007.38945       -10.08334         6.43571
     2007.39219        -5.64111         6.64193
     2007.39493        -2.95489         6.64309
     2007.39767        -6.57367         6.54290
     2007.40041         1.68956         6.48115
     2007.40314        -5.64022         6.42989
     2007.40588        -5.96900         6.39144
     2007.40856        -6.41876         6.68620
     2007.41136        -7.10455         6.41474
     2007.41410        -4.33733         6.44154
     2007.41683        -5.10210         6.41008
     2007.41957        -1.03188         6.48698
     2007.42231        -0.03566         6.59649
     2007.42505         3.05157         6.57086
     2007.42778         3.42679         6.38329
     2007.43052         3.32701         6.40775
     2007.43326        -4.49177         6.40542
     2007.43600        -2.58254         6.56737
     2007.43874        -1.98432         6.71999
     2007.44147        -4.50610         6.50678
     2007.44393        -2.57579         7.61474
     2007.44695        -8.71565         6.56154
     2007.44969       -11.71943         6.40193
     2007.45243         0.58580         6.52426
     2007.45516        -8.56498         6.35766
     2007.45790        -5.53176         6.35067
     2007.46064        -3.40153         6.44038
     2007.46338        -2.74931         6.43921
     2007.46611        -4.56509         6.45203
     2007.46885        -1.79686         6.51610
     2007.47159        -0.91164         6.47766
     2007.47433        -7.82742         6.47999
     2007.47707        -8.49019         6.73047
     2007.47980        -4.41697         6.41474
     2007.48254       -12.48975         6.40659
     2007.48528       -10.79752         6.42756
     2007.48802       -11.07230         6.48698
     2007.49076        -0.18008         6.60348
     2007.49389        -3.91497         7.41319
     2007.49726        -2.31192        13.64386
     2007.49920        -4.36647         7.14756
     2007.50193       -11.76725         7.09863
     2007.50444        -6.91996         6.41008
     2007.50718        -5.07574         6.39610
     2007.50992         0.07648         6.61746
     2007.51329        -6.56247         8.68775
     2007.51562        -1.49813         7.17086
     2007.51813        -5.64885         6.38445
     2007.52087        -2.04262         6.39377
     2007.52350        -8.30037         6.69902
     2007.52635        -4.56418         6.62329
     2007.52908         1.92305         6.74795
     2007.53182        -1.23973         6.53707
     2007.53456        -9.77151         6.61513
     2007.53730         0.71672         6.47533
     2007.54004         1.12794         6.61979
     2007.54277         0.99816         6.66872
     2007.54551         0.34139         6.55222
     2007.54825         9.80561         6.58018
     2007.55099         3.79283         6.46368
     2007.55373        15.07005         6.65474
     2007.55646         3.96028         6.52542
     2007.55920         3.28150         6.48698
     2007.56194        -1.25828         6.42523
     2007.56468         2.65995         6.55222
     2007.56741        -2.06383         6.47300
     2007.57015         4.34239         6.57785
     2007.57289         3.00962         6.46018
     2007.57563        -2.75516         6.38678
     2007.57837        -5.66194         6.45319
     2007.58110         0.32429         6.36698
     2007.58384         3.56251         6.50678
     2007.58658        -0.08327         6.46251
     2007.58932         1.14196         6.38795
     2007.59206         1.88418         6.42290
     2007.59479         3.20340         6.47999
     2007.59753         3.72063         6.59999
     2007.60027         5.91085         6.40892
     2007.60301         3.60307         6.38212
     2007.60574         6.99830         6.44620
     2007.60848        -0.30248         6.33436
     2007.61122         3.80974         6.43921
     2007.61396        -0.53804         6.39610
     2007.61670         1.66319         7.02406
     2007.61943         2.29141         6.88426
     2007.62217        10.65063         6.75261
     2007.62491         1.99086         6.68154
     2007.62765         2.50308         6.83300
     2007.63039        14.41230         6.77591
     2007.63312         5.07553         6.58834
     2007.63586         2.62075         6.63144
     2007.63860         0.62297         6.59999
     2007.64134         4.59020         6.45669
     2007.64407         6.96642         6.81552
     2007.64681         2.89664         6.78639
     2007.64955         8.35887         6.96465
     2007.65229         0.59909         6.76542
     2007.65503         0.82631         6.67222
     2007.65776         3.18354         6.69319
     2007.66050         2.18076         6.77824
     2007.66324         5.71498         6.71649
     2007.66598         4.56621         6.67222
     2007.66872        -0.90057         6.78290
     2007.67145         1.01765         6.70717
     2007.67419        19.54087         7.26406
     2007.67693         4.01910         6.73513
     2007.67967         1.86332         6.70018
     2007.68240        14.62654         6.68270
     2007.68514        -1.81523         6.77474
     2007.68788         2.18499         6.81552
     2007.69062         2.74821         6.65591
     2007.69336        10.39544         6.61979
     2007.69609         9.25466         6.62911
     2007.69883         1.08388         6.69785
     2007.70157         5.84911         6.76542
     2007.70431         6.39633         6.93668
     2007.70705        12.09055         6.82717
     2007.70978        20.61478         6.91338
     2007.71252         3.75700         6.62911
     2007.71526         9.98322         6.48931
     2007.71800         5.05445         6.49979
     2007.72073         5.13667         6.52076
     2007.72347        14.51989         6.59067
     2007.72621         5.01212         6.46601
     2007.72895         5.07434         6.53008
     2007.73169         2.43756         6.53008
     2007.73442         4.27478         6.70018
     2007.73716         3.92901         6.65940
     2007.73990        32.15923         6.60115
     2007.74264        10.30145         6.47999
     2007.74538        25.67868         6.58484
     2007.74811        20.80990         6.73047
     2007.75085        20.57112         6.97397
     2007.75359        15.10135         6.78756
     2007.75633        10.32457         6.60931
     2007.75906         4.80679         6.47766
     2007.76180         5.27502         6.55222
     2007.76454         1.66824         6.44504
     2007.76728        12.23346         7.09513
     2007.77002         5.37769         7.10212
     2007.77275         9.68591         6.92037
     2007.77549         4.79913         6.53474
     2007.77823         4.07236         6.48814
     2007.78097        12.98058         6.44387
     2007.78371         5.88380         6.48115
     2007.78644        11.26203         6.54290
     2007.78918         9.11325         6.60698
     2007.79192        11.89447         6.62678
     2007.79466        24.78269         6.69202
     2007.79739        16.38992         6.76193
     2007.80013        27.64414         6.59766
     2007.80264         6.56043         6.90639
     2007.80561        13.69659         6.55688
     2007.80835         6.12681         6.67222
     2007.81108         5.09403         6.84348
     2007.81382        19.55526         6.80503
     2007.81656        -3.62652         6.72931
     2007.81930         2.36270         6.55455
     2007.82203        -4.16607         6.62096
     2007.82477         1.40315         6.80270
     2007.82751         1.46737         6.59300
     2007.83025        -0.52340         6.60581
     2007.83299         1.23782         6.48698
     2007.83572        -3.01596         6.47766
     2007.83846         1.65127         6.56853
     2007.84120         1.69249         6.56154
     2007.84394        -5.45929         6.52659
     2007.84668        -1.49306         6.58834
     2007.84941         6.14816         6.52892
     2007.85215        13.73038         6.72814
     2007.85489        13.75260         7.05552
     2007.85763        17.08983         6.72698
     2007.86036         3.89605         6.59649
     2007.86310        11.00327         6.80853
     2007.86584        16.05250         6.55571
     2007.86858         2.37972         6.50562
