# ================= DQRFIT RESULTS ================
# INPUT FILE: series/KTMT.rad
# OUTPUT: LDETRENDED
# FILTER FUNCTION: f(t)
# f(t)=+line(t)+annual(t)
# line(t)=+P 1+P 2*t
# annual(t)=+P 3*sin(2*pi*t+P 4)
# heav(t)=(t<0?0:1)
# TOTAL OBSERVATIONS MTOT= 2189
# INITIAL TIME INTERVAL= 2022.7488 - 2015.7289 =  7.0198
# TOTAL OBSERVATIONS AFTER PREFILTER M= 2160
# TIME-SPAN= 2022.7488 - 2015.7289 =  7.0198
# OBSERVATIONS: USED M=  2160 REJECTED MTOT-M=    29 %USED=   98.6752
# N=  4 PARAMETERS
# MAXSIG= 175.00000
# MAXRES=  28.97544
# SCALE FACTOR FOR LENGTHS: SCL=  10.00000
# SCALE FACTOR FOR SIGMAS: SCLSIG=   1.00000
# CHI^2=   3256.674 DOF=  2156 CHI^2/DOF=   1.51052
# RMS=      7.803 SDEV=      7.804 MEAN=    0.08803
#  P #       PARAMETER +-    SIGMA %error PARAMETER NAME
# P 1 =     -6608.42651 +-  163.442   2.47 YZERO                              
# P 2 =         3.28257 +-    0.081   2.47 SLOPE                              
# P 3 =         8.73208 +-    0.223   2.55 ANNUAL AMPLITUDE                   
# P 4 =        -3.02455 +-    0.036   1.18 ANNUAL PHASE                       
#       T            LDETRENDED       SIG_OBS
     2015.72895         6.15736         8.13250
     2015.73169         6.08737         7.88177
     2015.73442         6.17638         7.76379
     2015.73716        13.66540         7.60401
     2015.73990         7.45441         7.71954
     2015.74264        -0.80358         7.81787
     2015.74538         0.86043         8.23205
     2015.74811        -2.90855         7.97026
     2015.75085        -3.42154         7.70848
     2015.75359        -9.23853         7.58312
     2015.75633        -2.93851         7.76502
     2015.75906        -4.44650         7.49463
     2015.76180        -7.02549         7.53642
     2015.76454         8.30152         7.86211
     2015.76728        -2.20246         7.61999
     2015.77002         2.77455         7.75887
     2015.77275        18.14956         7.86703
     2015.77549         4.64458         7.92848
     2015.77823         5.44559         7.83753
     2015.78097         3.53060         7.57083
     2015.78371         3.79661         7.56468
     2015.78644         7.99963         7.59664
     2015.78918         2.82364         7.71954
     2015.79192         9.99165         7.66915
     2015.79466         1.30267         7.62982
     2015.79739        -3.39732         7.70725
     2015.80013        11.19669         7.55239
     2015.80287         9.46270         7.63843
     2015.80561         4.15372         7.58189
     2015.80835        -0.51427         7.67776
     2015.81108        -5.92826         7.51184
     2015.81382        -6.27025         7.59418
     2015.81656         2.61577         7.41351
     2015.81930        -3.40622         7.52658
     2015.82203         1.64279         7.47005
     2015.82477        -0.19819         7.39631
     2015.82751         2.83482         7.71094
     2015.83025         6.65683         7.57820
     2015.83299        -5.44516         7.43318
     2015.83572        -7.02714         7.42089
     2015.83846        -0.01213         7.73306
     2015.84120        -6.57712         7.41843
     2015.84394        -3.20910         7.47005
     2015.84668        -0.34209         7.59910
     2015.84941         2.25192         7.60278
     2015.85215        -2.43307         7.45530
     2015.85489         1.50295         7.51429
     2015.85763        -3.23704         7.84490
     2015.86036         3.34797         7.52044
     2015.86310         9.67399         7.65440
     2015.86584        10.41800         7.56223
     2015.86858        -3.60299         7.57329
     2015.87132        -5.53698         7.22056
     2015.87405       -10.79396         7.07553
     2015.87679        -0.92095         7.08782
     2015.87953         0.24606         7.13084
     2015.88227         5.08908         7.15296
     2015.88501       -13.96391         7.09028
     2015.88774        -4.37490         7.23039
     2015.89048        -7.94389         7.25005
     2015.89322         0.37613         7.10749
     2015.89596        -5.66386         7.02514
     2015.89869        -6.35685         7.02268
     2015.90143        -7.58283         6.94894
     2015.90417        -8.16082         6.90470
     2015.90691        -4.01981         6.88011
     2015.90965        -3.26480         6.84570
     2015.91238        -1.41178         6.93911
     2015.91512         5.97323         7.21318
     2015.91786        -4.59676         7.19966
     2015.92060        -3.61975         6.97721
     2015.92334       -13.24173         7.23162
     2015.92607       -13.02372         6.95631
     2015.92881        -6.74471         6.91330
     2015.93155        -4.29669         7.06570
     2015.93429         1.06432         7.09642
     2015.93702         3.45333         7.13084
     2015.93976         2.77034         7.04358
     2015.94250        -6.85364         7.22547
     2015.94524       -28.75963         7.23408
     2015.94798         4.00438         7.04726
     2015.95071         5.17640         6.78302
     2015.95345        -1.65559         6.93173
     2015.95619        -4.12758         6.75721
     2015.95893        -4.43357         7.00548
     2015.96167        -5.55255         6.94280
     2015.96440        -8.56154         6.80637
     2015.96714       -16.90753         7.48726
     2015.96988        -8.81651         7.09519
     2015.97262        -1.93850         6.90838
     2015.97535         6.83751         6.84570
     2015.97809        -0.09748         6.72771
     2015.98083        -1.57546         6.67610
     2015.98357       -22.70745         6.66626
     2016.00273       -30.02236         6.76459
     2016.00547       -22.23835         6.87397
     2016.00821       -19.11133         6.73878
     2016.01095       -15.81432         6.81866
     2016.01368       -26.04831         6.73755
     2016.01642       -19.50730         6.94648
     2016.01916        -6.65528         7.04480
     2016.02190        -1.51927         7.10749
     2016.02464        -9.07626         6.74246
     2016.02737        -9.97624         6.71911
     2016.03011       -25.11323         7.00302
     2016.03285       -28.49522         6.90961
     2016.03559        -7.73721         6.94525
     2016.03833        -8.99919         7.11363
     2016.04106        -5.71918         6.97967
     2016.04380       -16.55917         6.86414
     2016.04654       -19.93316         7.01654
     2016.04928        -7.26314         6.85553
     2016.05201        -8.43713         7.18860
     2016.05475       -12.82612         6.91084
     2016.05749        -0.79610         6.84570
     2016.06023       -10.48209         6.89732
     2016.06297        -0.06708         6.92190
     2016.06570        -6.54907         7.08536
     2016.06844       -27.14705         7.34838
     2016.07118        -5.13404         7.14559
     2016.07392         0.46897         7.15910
     2016.07666        -1.17701         7.23162
     2016.07939         2.88000         7.05341
     2016.08213        -6.39699         7.21195
     2016.08487        -6.73398         7.12223
     2016.08761        -3.54696         7.07922
     2016.09034        -7.26795         7.08659
     2016.09308       -12.96294         7.04972
     2016.09582        11.44008         7.30536
     2016.09856       -14.36291         7.07922
     2016.10130       -13.91790         7.21318
     2016.10403       -29.56889         7.23162
     2016.10677       -14.31987         7.16402
     2016.10951       -13.31786         7.07430
     2016.11225        -6.91685         6.95140
     2016.11498        -7.78383         7.04480
     2016.11772       -13.12882         7.03006
     2016.12046       -12.93681         7.14190
     2016.12320        -4.61180         7.03251
     2016.12594       -15.59078         7.13944
     2016.12867        -8.17177         7.06078
     2016.13141        -5.70476         7.10871
     2016.13415        -4.45274         7.03374
     2016.13689        -3.10273         6.99073
     2016.13963        -9.42472         6.95263
     2016.14236       -10.54471         7.01408
     2016.14510        -8.30869         6.97352
     2016.14784        -9.03768         7.07184
     2016.15058        -9.08667         6.98581
     2016.15331       -10.56065         7.10994
     2016.15605        -1.54564         6.98335
     2016.15879        -5.37263         7.13329
     2016.16153       -13.78562         7.07430
     2016.16427        -5.75660         7.02268
     2016.16700        -3.35959         7.01777
     2016.16974        -4.67058         7.04235
     2016.17248        -0.26557         7.19598
     2016.17522       -11.81455         7.06939
     2016.17796        -3.57054         7.22547
     2016.18069        -2.13353         7.16771
     2016.18343        -7.43151         7.39016
     2016.18617       -14.65850         7.06693
     2016.18891        -3.41149         7.02514
     2016.19164        -4.28648         7.03129
     2016.19438         2.59654         6.97106
     2016.19712        -2.17345         6.90470
     2016.19986        -3.32644         7.20704
     2016.20260       -13.71742         7.21810
     2016.20533       -16.17141         7.41720
     2016.20807       -11.97040         7.21441
     2016.21081       -12.46239         7.06816
     2016.21355        -6.30637         6.95509
     2016.21629       -11.17336         7.00548
     2016.21902        -3.07435         6.92067
     2016.22176        -3.62233         6.99196
     2016.22450        -5.77232         6.91821
     2016.22724        -2.64931         6.90838
     2016.22997        -4.05930         6.95877
     2016.23271       -10.41628         7.04972
     2016.23545        -5.06527         6.98704
     2016.23819       -12.75626         6.90224
     2016.24093        -5.73624         7.06939
     2016.24366        -9.39223         6.91576
     2016.24640        -3.37222         6.95263
     2016.24914       -11.37721         6.90592
     2016.25188        -6.59219         6.98090
     2016.25462        -0.30718         7.00916
     2016.25735        -3.51817         7.02022
     2016.26009        -4.16715         6.98090
     2016.26283        -9.41814         7.04235
     2016.26557       -11.31513         7.16279
     2016.26830        -3.76712         7.13329
     2016.27104       -13.46110         6.94157
     2016.27378        -7.73609         6.94034
     2016.27652        -7.07008         7.06816
     2016.27926        -4.05107         7.06939
     2016.28199        -6.22905         7.22424
     2016.28473       -12.03604         7.06693
     2016.28747       -10.62003         7.01777
     2016.29021        -7.36701         7.17139
     2016.29295        -7.49700         7.14927
     2016.29568        -6.05799         7.14559
     2016.29842       -11.39598         7.27095
     2016.30116       -10.76396         7.31150
     2016.30390       -11.40995         7.12961
     2016.30663        -4.69094         7.15788
     2016.30937        -7.40092         7.02883
     2016.31211        -8.31591         7.04849
     2016.31485       -10.20990         7.20212
     2016.31759        -8.29889         7.13452
     2016.32032        -7.52387         7.20335
     2016.32306       -12.11386         7.07307
     2016.32580       -11.57585         7.16156
     2016.32854       -14.72383         7.15173
     2016.33128       -11.70582         7.25005
     2016.33401        -5.73381         7.36312
     2016.33675        -1.97280         7.22179
     2016.33949        -3.38378         7.18000
     2016.34223       -13.36477         7.23899
     2016.34496        -8.72376         7.44178
     2016.34770         7.57926         7.41228
     2016.35044         2.77727         7.47005
     2016.35318       -11.93172         7.13575
     2016.35592       -16.59671         7.07676
     2016.35865       -18.82369         7.17139
     2016.36139        -2.83168         7.15910
     2016.36413        19.94833         7.16279
     2016.36687        -0.71665         7.13329
     2016.36961        11.87536         7.12223
     2016.37234         9.52437         7.27340
     2016.37508         7.61738         7.29553
     2016.37782        -9.61760         7.25989
     2016.38056        -4.57159         7.13575
     2016.38329         0.61142         7.26726
     2016.38603        -8.63656         7.22424
     2016.38877        16.48545         7.12592
     2016.39151        -0.96754         7.14927
     2016.39425        -0.47553         7.11363
     2016.39698        15.13049         7.30905
     2016.39972        10.38950         7.24514
     2016.40246         3.43651         7.22916
     2016.40520        -2.75348         7.22793
     2016.40794         0.24654         7.10749
     2016.41067        -3.48845         7.10871
     2016.41341        -3.61244         7.14436
     2016.41615         2.38858         7.26849
     2016.41889        -0.79341         7.27832
     2016.42162         8.01660         7.32011
     2016.42436        -2.85839         7.27832
     2016.42710        -4.70337         7.16525
     2016.42984       -11.55336         7.39262
     2016.43258         0.85065         7.14927
     2016.43531         8.88567         7.31150
     2016.43805         3.84768         7.25251
     2016.44079         3.66869         7.10380
     2016.44353         2.27770         7.11978
     2016.44626        -4.82228         7.20458
     2016.44900        -6.92827         7.29061
     2016.45174         7.98174         7.16156
     2016.45448        10.37576         7.16402
     2016.45722         2.59377         7.07922
     2016.45995         4.01678         7.13575
     2016.46269        -2.68421         7.16156
     2016.46543        -1.37719         7.10380
     2016.46817         1.76682         7.10011
     2016.47091         0.05583         7.44055
     2016.47364         7.29285         7.20704
     2016.47638        -0.84714         7.27586
     2016.47912         1.32687         7.36927
     2016.48186        -0.03612         7.05955
     2016.48459         4.47990         7.18983
     2016.48733         3.60091         7.26357
     2016.49007        -1.90008         7.23653
     2016.49281        -3.73806         7.33117
     2016.49555         5.57495         7.20089
     2016.49828         0.96796         7.09151
     2016.50102         4.64397         7.27218
     2016.50376         7.16299         7.42089
     2016.50650        -0.68200         7.41597
     2016.50924         6.37501         7.21441
     2016.51197         1.14903         7.02145
     2016.51471         7.86004         7.22056
     2016.51745         7.08305         7.49586
     2016.52019        -4.13494         7.26603
     2016.52292         4.52308         7.16402
     2016.52566         3.70209         7.16894
     2016.52840         3.51710         7.21933
     2016.53114        -1.86389         7.16525
     2016.53388         5.25813         7.26234
     2016.53661         8.25414         7.21564
     2016.53935         4.16815         7.20458
     2016.54209        12.19017         7.27218
     2016.54483         7.46518         7.25497
     2016.54757         9.40319         7.31273
     2016.55030        12.32120         7.37296
     2016.55304         8.94622         7.35698
     2016.55578         8.39923         7.34960
     2016.55852         5.54424         7.32011
     2016.56125        13.33026         7.39262
     2016.56399         4.36327         7.17139
     2016.56673        11.65228         7.40368
     2016.56947         4.02529         7.37541
     2016.57221         6.34831         7.18737
     2016.57494         6.15932         7.66547
     2016.57768         4.79233         7.21810
     2016.58042         6.39335         7.30290
     2016.58316         4.42736         7.08905
     2016.58590        -2.64263         7.21687
     2016.58863         2.47138         7.57452
     2016.59137        14.09940         7.42458
     2016.59411         8.05141         7.36558
     2016.59685        22.13142         7.45530
     2016.59958         6.82544         7.30290
     2016.60232         8.17745         7.32871
     2016.60506        14.62046         7.52658
     2016.60780         0.34347         7.24759
     2016.61054        14.83249         7.45530
     2016.61327         1.67050         7.16771
     2016.61601         1.62551         7.25374
     2016.61875         5.64253         7.25374
     2016.62149         1.31754         7.19352
     2016.62423         3.23955         7.43318
     2016.62696         5.33956         7.21564
     2016.62970         9.77458         7.33486
     2016.63244        -6.16541         7.48603
     2016.63518         7.22260         7.27586
     2016.63791        11.43161         7.39508
     2016.64065        15.67463         7.20949
     2016.64339         2.70364         7.23899
     2016.64613         1.44265         7.27586
     2016.64887         5.22967         7.16525
     2016.65160         6.77268         7.29430
     2016.65434         0.64269         7.46759
     2016.65708         2.42370         7.29553
     2016.65982        10.72072         7.22670
     2016.66256        12.43873         7.22547
     2016.66529        10.90174         7.30044
     2016.66803         9.63376         7.23776
     2016.67077        11.76877         7.34592
     2016.67351         8.60578         7.22056
     2016.67624         8.37379         7.21564
     2016.67898        13.15181         7.21687
     2016.68172        12.92382         7.19352
     2016.68446         9.98083         7.51307
     2016.68720        11.34085         7.51675
     2016.68993        18.33886         7.57452
     2016.69267        32.35887         7.46145
     2016.69541         4.08788         7.13821
     2016.69815        -0.94410         7.17877
     2016.70089         7.86791         7.13452
     2016.70362         2.59592         7.53765
     2016.70636         5.62394         7.53765
     2016.70910         9.59095         7.63105
     2016.71184        16.34596         7.46390
     2016.71457        13.75297         7.17262
     2016.71731        12.22099         7.21318
     2016.72005         9.73100         7.31273
     2016.72279         7.54901         7.14681
     2016.72553        12.05503         7.29921
     2016.72826        11.23204         7.41843
     2016.73100         6.92905         7.25005
     2016.73374        13.43406         7.17754
     2016.73648        15.25608         7.25251
     2016.73921        12.72109         7.15788
     2016.74195         7.72010         7.11855
     2016.74469         2.40712         7.41228
     2016.74743         3.22913         7.15665
     2016.75017        12.24614         7.16894
     2016.75290         5.94915         7.03866
     2016.75564        18.17917         7.13207
     2016.75838        19.19818         7.25128
     2016.76112         9.37519         7.23285
     2016.76386        14.52420         7.22179
     2016.76659        12.03922         7.18246
     2016.76933        14.10223         7.16402
     2016.77207         8.07224         7.20335
     2016.77481         6.65326         7.21810
     2016.77754         2.23527         7.12961
     2016.78028         4.97328         7.13329
     2016.78302        10.94029         7.33363
     2016.78576        12.33031         7.19843
     2016.78850        13.69432         7.16279
     2016.79123        10.11433         7.06570
     2016.79397        11.56335         7.04726
     2016.79671        13.33836         7.12223
     2016.79945        12.64137         7.25620
     2016.80219         7.09538         7.42458
     2016.80492         8.94140         7.13084
     2016.80766        15.04841         7.11732
     2016.81040         1.84942         7.12346
     2016.81314         4.68144         7.14190
     2016.81587         2.04945         7.13329
