# ================= DQRFIT RESULTS ================
# INPUT FILE: series/KWBU.rad
# OUTPUT: LDETRENDED
# FILTER FUNCTION: f(t)
# f(t)=+line(t)+annual(t)
# line(t)=+P 1+P 2*t
# annual(t)=+P 3*sin(2*pi*t+P 4)
# heav(t)=(t<0?0:1)
# TOTAL OBSERVATIONS MTOT= 3175
# INITIAL TIME INTERVAL= 2022.7488 - 2011.6303 = 11.1185
# TOTAL OBSERVATIONS AFTER PREFILTER M= 3167
# TIME-SPAN= 2022.7488 - 2011.6303 = 11.1185
# OBSERVATIONS: USED M=  3167 REJECTED MTOT-M=     8 %USED=   99.7480
# N=  4 PARAMETERS
# MAXSIG= 175.00000
# MAXRES=  34.56762
# SCALE FACTOR FOR LENGTHS: SCL=  10.00000
# SCALE FACTOR FOR SIGMAS: SCLSIG=   1.00000
# CHI^2=   4116.170 DOF=  3163 CHI^2/DOF=   1.30135
# RMS=      7.670 SDEV=      7.670 MEAN=    0.11279
#  P #       PARAMETER +-    SIGMA %error PARAMETER NAME
# P 1 =      2906.99849 +-   76.722   2.64 YZERO                              
# P 2 =        -1.44218 +-    0.038   2.64 SLOPE                              
# P 3 =         4.98389 +-    0.188   3.77 ANNUAL AMPLITUDE                   
# P 4 =        -3.10796 +-    0.053   1.71 ANNUAL PHASE                       
#       T            LDETRENDED       SIG_OBS
     2011.63034        -3.67366         7.10470
     2011.63312         1.64535         6.91191
     2011.63586         6.68730         6.87655
     2011.63860        14.47025         7.47088
     2011.64134         1.20220         7.23475
     2011.64407        -1.19285         7.02713
     2011.64681         4.73010         7.10356
     2011.64955        11.23105         7.26441
     2011.65229         4.23099         7.29863
     2011.65503         3.08694         6.96324
     2011.65776         5.13089         6.89480
     2011.65919        37.26294       123.10362
     2011.66324        10.64979         7.14805
     2011.66598        -0.61426         7.04082
     2011.66872         2.01968         7.23589
     2011.67145         3.73863         6.89480
     2011.67419         2.39558         6.97807
     2011.67693        14.64153         7.09557
     2011.67967         7.41348         7.20509
     2011.68240         3.93043         6.97009
     2011.68514         0.17438         6.93815
     2011.68788         4.97732         7.08987
     2011.69062         3.00227         7.20623
     2011.69336        -1.35078         7.11953
     2011.69609         4.45217         7.03739
     2011.69883         8.16112         7.07618
     2011.70157         8.57007         7.02484
     2011.70431        10.81001         6.96210
     2011.70705         3.33496         7.03625
     2011.70978         3.29291         7.02713
     2011.71252         1.31186         7.02599
     2011.71526        -1.76819         7.06591
     2011.71800         5.39976         7.00887
     2011.72073         4.19771         6.97921
     2011.72347        -1.92335         6.83548
     2011.72621         7.40060         6.91305
     2011.72895         8.03555         6.92218
     2011.73169        16.30750         7.01458
     2011.73442         2.08145         7.01686
     2011.73716         3.19540         7.06819
     2011.73990         6.85634         6.84118
     2011.74264        10.33229         6.85487
     2011.74538         9.31224         7.10584
     2011.74811        12.36919         7.00431
     2011.75085         5.38914         7.02370
     2011.75359         8.42009         6.97693
     2011.75633        24.21704         7.06591
     2011.75906        27.28898         7.14691
     2011.76180         4.24193         6.88453
     2011.76454         9.06388         6.96895
     2011.76728         6.43883         6.93358
     2011.77002         7.45678         7.07504
     2011.77275        14.99673         7.10470
     2011.77549        12.05767         7.10470
     2011.77823        -5.75338         6.97465
     2011.78097         3.25057         6.91761
     2011.78371         7.37152         7.01686
     2011.78644        21.51647         7.17200
     2011.78918        17.03942         7.14006
     2011.79192         0.76937         7.27467
     2011.87132         2.11087         6.76361
     2011.87405         1.62682         6.80810
     2011.87679        18.37877         6.85943
     2011.87953         2.84972         6.58679
     2011.88227        -2.84033         6.63812
     2011.88501         3.18261         6.68261
     2011.88774        -1.31144         6.81608
     2011.89048        11.38651         6.84460
     2011.89322        14.56446         7.06021
     2011.89596         3.10941         6.94499
     2011.89869        -0.83664         6.86286
     2011.90143         3.15630         6.83320
     2011.90417         3.37825         6.99747
     2011.90691         8.28520         6.82179
     2011.90958         1.11505         7.20280
     2011.91238         1.16810         7.00887
     2011.91512        -6.23795         6.89936
     2011.91786         5.64100         6.95526
     2011.92060        -7.25906         6.73053
     2011.92334        -6.98211         6.91533
     2011.92607        -4.06216         6.82749
     2011.92881        -2.39021         7.03625
     2011.93155         1.63374         6.99633
     2011.93429         1.97169         6.94043
     2011.93702         2.19163         6.77502
     2011.93976         4.66558         6.78528
     2011.94250         5.10253         6.78186
     2011.94524         5.54248         6.49439
     2011.94798         3.30643         6.76475
     2011.95071         7.59338         6.82407
     2011.95345        -0.98067         6.89138
     2011.95619         0.08227         6.99861
     2011.95893        -0.93178         7.00431
     2011.96167         0.76217         7.04310
     2011.96440         0.11312         6.82407
     2011.96714         2.22507         6.72825
     2011.96988         5.00302         6.61303
     2011.97262        -3.75704         6.72140
     2011.97535        -1.77009         6.94727
     2011.97809        -0.93514         7.03511
     2011.98083         3.06181         6.72710
     2011.98357         2.22876         6.66893
     2011.98631         6.96971         6.88795
     2011.98904        25.81366         7.20737
     2011.99178        18.95660         7.07390
     2011.99452        15.52155         6.98264
     2011.99726        -7.69350         6.86057
     2012.00273         0.20140         6.85259
     2012.00547        -0.47665         6.92674
     2012.00821         3.87629         6.85943
     2012.01095         7.78724         6.89480
     2012.01368         3.03119         6.75448
     2012.01642         4.21714         6.62101
     2012.01916         5.59809         6.80354
     2012.02190         7.00504         6.81951
     2012.02464         8.35799         6.83662
     2012.02737         1.04693         6.73053
     2012.03011         0.19888         6.62900
     2012.03285         2.38583         6.79327
     2012.03559         5.98178         6.77730
     2012.03833         7.01173         6.58109
     2012.04106         7.32968         6.49895
     2012.04380         2.62163         6.47842
     2012.04627        11.21819         7.48914
     2012.04928        22.89152         6.92560
     2012.05201         5.03447         6.90735
     2012.05475        11.65242         6.97807
     2012.05749         5.42437         6.81837
     2012.06023        -1.43468         6.98948
     2012.06297         2.80626         6.86514
     2012.06570        12.00321         7.00659
     2012.06844         4.58616         6.85715
     2012.07118        -2.93689         6.74079
     2012.07392        -6.88094         6.86742
     2012.16153         6.20141         6.56968
     2012.16427        -9.98764         6.69174
     2012.16700        -6.81269         6.73167
     2012.16974        -3.58775         6.77616
     2012.17248        -6.49080         6.85259
     2012.17522         3.71215         7.04766
     2012.17796        -6.43690         6.73851
     2012.18069        -3.95695         6.71227
     2012.18343        -6.78300         6.97465
     2012.18617        -4.21805         6.97921
     2012.18891         0.79789         7.14577
     2012.19164         3.78084         6.95298
     2012.19438         5.18779         6.67919
     2012.19712         4.01574         6.82521
     2012.19986        -1.51531         6.82407
     2012.20260        13.74364         7.11497
     2012.20533         4.41258         7.04766
     2012.20807        -3.27747         6.73053
     2012.21081        -3.50952         6.47271
     2012.21355         1.17643         6.44419
     2012.21629        -5.17662         6.69174
     2012.21902         6.87433         6.81837
     2012.22176        -4.81072         7.02142
     2012.22450       -12.82078         6.64497
     2012.22724        -8.01483         6.81380
     2012.22997        -1.87788         6.91875
     2012.23271        -0.38693         6.76247
     2012.23545        -4.47998         6.77730
     2012.23819         2.80697         6.86628
     2012.24093        -4.64809         6.73623
     2012.24366         8.34386         6.88567
     2012.24640         2.39981         6.96210
     2012.24914         1.22176         6.82407
     2012.25188        -8.79029         6.74878
     2012.25462       -15.18034         6.92104
     2012.25735       -12.76639         6.69174
     2012.26009        -4.40645         6.71456
     2012.26283       -12.49050         6.68147
     2012.26557        -8.88755         6.84689
     2012.26830       -10.25860         7.07390
     2012.27104       -11.49865         7.09443
     2012.27378        -3.36170         6.94955
     2012.27652        -0.27875         7.06363
     2012.27926         0.25819         7.13550
     2012.28199        -7.50686         6.84118
     2012.28473       -17.61591         6.85943
     2012.28747        -8.42496         6.97465
     2012.29021         2.61899         6.99975
     2012.29295        -5.31806         6.97921
     2012.30116        -0.56122         6.88681
     2012.30387       -16.91331         6.97009
     2012.30663       -13.78432         6.85031
     2012.30937       -11.31737         7.02827
     2012.31211         4.54458         7.09899
     2012.31485        -6.64448         6.94841
     2012.31759         3.81047         6.82293
     2012.32032        -6.56758         6.81608
     2012.32306        -9.55163         6.81380
     2012.32580       -15.06868         6.85601
     2012.32854        -1.99873         6.82179
     2012.33128        -7.15879         6.86514
     2012.33401        -5.07984         6.82749
     2012.33675         0.32411         6.94157
     2012.33949       -12.06794         6.93130
     2012.34223       -10.54199         6.62329
     2012.34463       -21.64453         7.91807
     2012.34770       -11.61009         6.76361
     2012.35044        -2.48215         6.84346
     2012.35318        -8.34620         6.85145
     2012.35592        -7.01025         6.61645
     2012.35865        -5.51530         6.81038
     2012.36139        -6.95835         6.72026
     2012.36413        -9.51940         6.64611
     2012.36687        -9.75846         6.73053
     2012.36961        -7.03751         6.73851
     2012.37234        -5.36756         6.80354
     2012.37508        -3.01061         6.80468
     2012.37782        -6.66366         6.89138
     2012.38056       -11.03971         6.74536
     2012.38329       -13.65976         6.91647
     2012.38603       -12.39182         6.96438
     2012.38877        -6.80387         7.16402
     2012.39151        -3.27592         6.91305
     2012.39425        -6.73997         6.86400
     2012.39698       -25.17002         7.11268
     2012.39972       -12.62007         6.88339
     2012.40246        -4.85913         6.78414
     2012.40520        -7.89318         6.73281
     2012.40794        -8.65123         6.60048
     2012.41067       -10.12028         6.82179
     2012.41341       -13.78033         6.85829
     2012.41615        -6.86438         6.97123
     2012.41889        -4.13043         7.13208
     2012.42162        -7.56649         6.87997
     2012.42436         4.38146         7.01686
     2012.42710        -8.14959         6.76019
     2012.42984        -4.61664         6.80125
     2012.43258       -11.66569         6.95526
     2012.43531        -1.23574         6.78871
     2012.44079       -15.56885         6.76475
     2012.44353       -11.68890         6.80125
     2012.44900       -10.84900         6.93130
     2012.45174        -3.67005         6.89936
     2012.45448        -5.67010         6.87426
     2012.45722        -2.27316         6.93130
     2012.45995         4.20279         7.01458
     2012.46269        -2.90426         6.82977
     2012.46543        -7.08131         6.83434
     2012.46817        -0.31836         6.77274
     2012.47091        -9.21841         6.84232
     2012.47364        -4.25147         7.00773
     2012.47638        -0.39552         6.98834
     2012.47912        -5.38957         6.80924
     2012.48186        -3.91162         6.87312
     2012.48459       -11.04867         6.92446
     2012.48642       -30.33204        12.95569
     2012.49007        -1.16477         6.94271
     2012.49281        -4.67483         6.78300
     2012.49555        -5.08088         6.85715
     2012.49828        -6.59093         7.04538
     2012.50102        -2.79598         6.98035
     2012.50376        -7.73003         6.99861
     2012.50650        -6.74608         6.93016
     2012.50924        -5.25813         6.99861
     2012.51197        -4.92119         7.05108
     2012.51471        -2.60224         6.92674
     2012.51745         0.87671         7.06021
     2012.52019       -10.41434         7.16288
     2012.52292        -3.70939         6.85373
     2012.52566        -3.47244         6.96895
     2012.52840         6.26650         6.93587
     2012.53114        -2.05155         6.95298
     2012.53388        -2.73160         7.08531
     2012.53661       -10.34765         6.87198
     2012.53935         3.25230         6.90164
     2012.54209        -0.89975         7.08873
     2012.54483         7.29520         7.16402
     2012.54757        -8.55886         7.01344
     2012.55030        -5.53891         6.94499
     2012.55304        -1.22296         7.11953
     2012.55578         0.64599         6.80125
     2012.55852        -3.61506         6.98834
     2012.56125        -1.97311         7.10584
     2012.56399        -3.00417         7.10356
     2012.56673         2.63578         6.92446
     2012.56947         0.19973         6.98150
     2012.57221        -0.02032         7.01116
     2012.57494         0.66663         7.07732
     2012.57768        -0.61842         7.09899
     2012.58042         0.24153         7.10242
     2012.58316        -9.02453         6.99176
     2012.58590        -0.42958         7.01344
     2012.58863         0.28637         6.89023
     2012.59137        -4.42068         7.13550
     2012.59411         3.12027         7.03055
     2012.59685        -3.83378         7.24273
     2012.59958        -3.47284         7.01686
     2012.60232         7.28211         7.32373
     2012.60506        -2.09294         6.89822
     2012.60780         2.15401         6.84574
     2012.61054         5.86096         7.02713
     2012.61327         3.94891         6.92104
     2012.61601         4.26986         7.07162
     2012.61875         8.05080         6.95298
     2012.62149         1.97575         6.92788
     2012.62423         5.34570         7.06591
     2012.62696         6.55965         7.30890
     2012.62970        -6.53440         7.08759
     2012.63244         8.98255         7.04880
     2012.63518         4.67349         7.01686
     2012.63791         3.46944         7.05679
     2012.64065         9.48539         6.99290
     2012.64339         7.00534         7.04880
     2012.64613        13.51529         7.12295
     2012.64827        13.37838         9.26873
     2012.65160         4.97719         7.24387
     2012.65434         0.63313         7.17657
     2012.65708         9.77008         7.28266
     2012.65982         6.28503         7.15717
     2012.66256         9.01198         6.95070
     2012.66529        14.71393         6.96781
     2012.66803         7.29788         7.11725
     2012.67077         2.35782         6.90164
     2012.67351         6.14977         7.01686
     2012.67624         4.13972         6.99290
     2012.67898         9.28967         6.75106
     2012.68172        -0.10238         6.89936
     2012.68446         0.22457         7.02484
     2012.68720         5.79252         6.86514
     2012.68993         9.93046         6.91419
     2012.69267         2.76841         7.04310
     2012.69541         0.78436         6.96553
     2012.69815        -2.42869         7.21535
     2012.70089        -0.81774         6.94043
     2012.70362        -4.17979         6.94271
     2012.70636         5.65515         6.96667
     2012.70910        -1.10190         6.87883
     2012.71184         1.54505         6.75220
     2012.71457         5.34900         6.91077
     2012.71731         9.36095         6.93587
     2012.72005         7.23590         6.86286
     2012.72279        13.54785         6.78871
     2012.72553         7.42679         6.91077
     2012.72826         8.95774         7.12865
     2012.73100         1.29269         6.98492
     2012.73473        -4.05793        16.95865
     2012.73648         6.68159         7.65455
     2012.73921         5.98254         7.46860
     2012.74195         8.53349         7.69219
     2012.74469         6.83043         7.28836
     2012.74743         8.99838         7.48457
     2012.75017         8.62733         7.58496
     2012.75290         7.10628         7.51766
     2012.75564         2.53623         7.38076
     2012.75838         0.29418         7.31688
     2012.76112         4.54012         7.21421
     2012.76386        13.38407         7.48571
     2012.76659         7.54702         7.21649
     2012.76933         6.46897         7.45149
     2012.77207         0.21592         7.36708
     2012.77481         2.27387         7.28608
     2012.77754         6.82382         7.20737
     2012.78028        10.73676         7.26783
     2012.78302         9.61971         7.39331
     2012.78576        -0.56434         7.33970
     2012.78850        19.31761         7.57127
     2012.79123        24.77456         7.79943
     2012.79397         6.68351         7.36822
     2012.79671         5.01045         7.39902
     2012.79945        11.38640         7.75265
     2012.80219        18.86135         7.49370
     2012.80492         6.90330         7.00317
     2012.80766         1.20725         7.68421
     2012.81040         9.11520         7.09329
     2012.81314         0.38015         7.24159
     2012.81587        -3.17191         7.14348
     2012.81861        -2.65296         7.39559
     2012.82135         2.03399         7.55074
     2012.82409        11.86594         8.10743
     2012.82683        -3.81711         7.75722
     2012.82956         2.65484         7.64656
     2012.83230        10.04478         7.85875
     2012.83504        12.45973         7.84049
     2012.83778         4.25168         7.39445
     2012.84052         2.91863         7.67850
     2012.84325        -1.70142         7.41727
     2012.84599        -2.75447         7.66824
     2012.84873        -2.20652         7.69219
     2012.85147         6.23942         7.47773
     2012.85420        -1.11563         7.34540
     2012.85694       -24.89468         7.58382
     2012.85968        -6.67773         7.32144
     2012.86242         4.42222         7.20851
     2012.86516         6.16117         7.42069
     2012.86789        -1.01789         7.68877
     2012.87063         0.04806         7.55188
     2012.87337         0.91701         7.54047
     2012.87611         5.65796         7.71045
