# ================= DQRFIT RESULTS ================
# INPUT FILE: series/LCRS.rad
# OUTPUT: LDETRENDED
# FILTER FUNCTION: f(t)
# f(t)=+line(t)+annual(t)
# line(t)=+P 1+P 2*t
# annual(t)=+P 3*sin(2*pi*t+P 4)
# heav(t)=(t<0?0:1)
# TOTAL OBSERVATIONS MTOT= 2153
# INITIAL TIME INTERVAL= 2022.7488 - 2015.4671 =  7.2817
# TOTAL OBSERVATIONS AFTER PREFILTER M= 2147
# TIME-SPAN= 2022.7488 - 2015.4671 =  7.2817
# OBSERVATIONS: USED M=  2147 REJECTED MTOT-M=     6 %USED=   99.7213
# N=  4 PARAMETERS
# MAXSIG= 175.00000
# MAXRES=  55.23976
# SCALE FACTOR FOR LENGTHS: SCL=  10.00000
# SCALE FACTOR FOR SIGMAS: SCLSIG=   1.00000
# CHI^2=   2163.406 DOF=  2143 CHI^2/DOF=   1.00952
# RMS=      5.877 SDEV=      5.876 MEAN=    0.18739
#  P #       PARAMETER +-    SIGMA %error PARAMETER NAME
# P 1 =        77.26721 +-  112.638 145.78 YZERO                              
# P 2 =        -0.03801 +-    0.056 146.76 SLOPE                              
# P 3 =         5.02678 +-    0.173   3.45 ANNUAL AMPLITUDE                   
# P 4 =        -2.99057 +-    0.048   1.61 ANNUAL PHASE                       
#       T            LDETRENDED       SIG_OBS
     2015.46714         8.74518        75.54011
     2015.46885       -14.18176        10.99498
     2015.47151         1.56634        10.80307
     2015.47433        -3.79755        10.40519
     2015.47708        -3.07345        11.43405
     2015.47982        -0.38034        10.60614
     2015.48256         4.97276        11.68524
     2015.48529         1.33887         9.03572
     2015.48803        -2.54103        10.20123
     2015.49076        -4.03593        10.45945
     2015.49349       -22.66482        11.99772
     2015.49622         0.85628        13.61637
     2015.49895       -13.00661        11.67117
     2015.50169         6.32649         9.04476
     2015.50440        -3.05741        12.17154
     2015.50718       -17.14730        12.78142
     2015.50992        20.29080        12.68095
     2015.51266         8.71091        13.50585
     2015.51540         0.64001        11.14469
     2015.51774        14.52510        12.81759
     2015.52367         8.61733        11.77366
     2015.52635         4.21443         5.50904
     2015.52908        10.23853         5.51909
     2015.53182         0.76864         5.47589
     2015.53456         5.23374         5.53115
     2015.53730         0.80784         5.57837
     2015.54004         8.83995         5.59545
     2015.54277         3.99805         5.62961
     2015.54554         5.72116        10.49863
     2015.54825        13.65526        10.63628
     2015.55101         9.73636        10.66040
     2015.55374        16.37147        11.35367
     2015.55648        14.06757        10.97388
     2015.55921        11.17868         9.48283
     2015.56193        14.13478        13.10696
     2015.56468         8.57988         5.54923
     2015.56741        10.47099         5.59143
     2015.57015        12.28409         5.64770
     2015.57289         5.43120         5.76224
     2015.57563         9.67930         5.48091
     2015.57837         7.41640         5.49196
     2015.58110         9.98351         5.58340
     2015.58384        13.89461         5.54722
     2015.58658        15.69772         5.71803
     2015.58932        16.19182         5.60449
     2015.59206        11.10992         5.62459
     2015.59479        13.38203         5.52914
     2015.59753        10.96113         5.52211
     2015.60027        13.97424         5.72004
     2015.60301        12.65534         5.69693
     2015.60574        10.55445         5.72205
     2015.60848        13.13155         5.78435
     2015.61122        20.36965         5.66980
     2015.61315        21.83073         8.61171
     2015.62577        12.74821         9.65364
     2015.62765        13.96228         5.46082
     2015.63039        14.14138         5.56732
     2015.63312        22.77349         5.55426
     2015.63586        23.84659         5.54923
     2015.63860        10.33669         5.40756
     2015.64134        12.98880         5.41460
     2015.64407        12.15690         5.43972
     2015.64681         9.80801         5.67583
     2015.64955        11.86111         5.42665
     2015.65229         9.71921         5.41460
     2015.65503        15.88232         5.41158
     2015.65776        16.40842         5.54019
     2015.66050        12.76653         5.49196
     2015.66324        15.73363         5.49397
     2015.66598        10.59673         5.59746
     2015.66872         9.40084         5.65373
     2015.67145        15.40394         5.45278
     2015.67419         9.47005         5.42565
     2015.67693         9.85515         5.38948
     2015.67967         3.85925         5.54321
     2015.68240         4.16336         5.42665
     2015.68514         7.86246         5.47086
     2015.68788        10.78357         5.54220
     2015.69062        13.95967         5.70497
     2015.69336         8.03178         5.64870
     2015.69609        14.01288         5.43570
     2015.69883        15.35098         5.50302
     2015.70157        17.60909         5.58139
     2015.70431        16.01119         5.42565
     2015.70705        12.36730         5.44072
     2015.70978        19.03140         5.41058
     2015.71252         4.79850         5.43369
     2015.71526        10.70861         5.41058
     2015.71800        12.72471         5.45881
     2015.72073        13.65382         5.49699
     2015.72347        16.13892         5.83157
     2015.72621         8.31502         5.41359
     2015.72895         7.53413         5.40656
     2015.73169        12.20423         5.43268
     2015.73442         5.05134         5.49799
     2015.73713        10.96344         5.58942
     2015.73992        12.24654         5.59545
     2015.74264        10.14365         5.54722
     2015.74538        17.80975         5.70899
     2015.74811        11.69686         5.69995
     2015.75085         2.62796         5.44072
     2015.75359         7.35306         5.46483
     2015.75633        11.83617         5.44273
     2015.75906        11.77127         5.51708
     2015.76180         6.36038         5.42163
     2015.76454         8.16948         5.44474
     2015.76728         4.22358         5.47488
     2015.77002         5.64969         5.57837
     2015.77275         8.00579         5.54120
     2015.77549         7.73190         5.56832
     2015.77823        12.80300         5.49699
     2015.78097        10.72610         5.46785
     2015.78371         8.85221         5.48493
     2015.78644         6.27131         5.46483
     2015.78918         6.43842         5.46383
     2015.79192         9.88552         5.41661
     2015.79466        12.99463         5.45579
     2015.79739         4.08173         5.46383
     2015.80013         7.35183         5.68789
     2015.80287         5.89994         5.44976
     2015.80561         7.69404         5.40154
     2015.80835         4.14615         5.47388
     2015.81108         1.11125         5.48292
     2015.81382         4.93535         5.47086
     2015.81656         6.32046         5.49096
     2015.81930         6.69156         5.45278
     2015.82182         4.51066         6.08778
     2015.87679         8.11475         5.59143
     2015.87953        29.96885        17.68862
     2015.88227         8.64896         5.60449
     2015.88501        -2.63794         5.75320
     2015.88774         0.59516         5.47790
     2015.89048         5.23427         5.53215
     2015.89322        10.58337         5.58440
     2015.89596         5.22848         5.47689
     2015.89869         9.51258         5.49297
     2015.90143         0.19368         5.54421
     2015.90417        -3.81721         5.54622
     2015.90691        -0.32811         5.54321
     2015.90965         3.23100         5.86171
     2015.91238         3.70810         5.55727
     2015.91454        -0.13882         7.71748
     2015.93776        17.29306         8.89405
     2015.93976        11.81414         5.97123
     2015.94250         6.35224         5.69392
     2015.94524         4.92335         5.59344
     2015.94798        11.45445         5.67181
     2015.95071        -1.21744         5.52411
     2015.95345         4.40866         5.46684
     2015.95619         4.06476         5.56832
     2015.95893         5.37587         5.69593
     2015.96167        12.09297         5.64468
     2015.96440         4.80708         5.53215
     2015.96714         6.37118         5.54823
     2015.96988        11.23729         5.45077
     2015.97262        16.99639         5.46283
     2015.97535         5.57849         5.45881
     2015.97809         6.47160         5.50302
     2015.98083         1.69870         5.52411
     2015.98357        -5.82619         5.47991
     2015.98631        -6.26909         5.57335
     2015.98904         2.19101         5.47488
     2015.99178         0.56612         5.48895
     2015.99452        -1.91378         5.50603
     2015.99726        -0.86267         5.53818
     2016.00000        -1.91957         5.52010
     2016.00273        -4.70047         5.53115
     2016.00547         0.81564         5.53517
     2016.00821         1.27974         5.51708
     2016.01095         5.94885         5.50000
     2016.01368        -3.23305         5.49196
     2016.01642         1.02605         5.67081
     2016.01916         1.41416         5.73511
     2016.02190         3.52326         5.65071
     2016.02464         1.53937         5.43469
     2016.02737        -4.51453         5.55627
     2016.03011         1.31057         5.45881
     2016.03285        -0.08832         5.44273
     2016.03559         2.63978         5.47890
     2016.03724        12.98285        12.43679
     2016.04476        -6.32987        10.34892
     2016.04654         6.61820         5.47589
     2016.04928         2.29830         5.41862
     2016.05201        -1.10059         5.46584
     2016.05475         0.35751         5.43771
     2016.05749         1.82861         5.48895
     2016.06023         2.04672         5.44072
     2016.06297         0.38182         5.39149
     2016.06570        -0.40107         5.37139
     2016.06844        -1.97697         5.41661
     2016.07118        -3.98386         5.77128
     2016.07392        -0.57476         5.47086
     2016.07666         1.37234         5.53316
     2016.07939         3.48745         5.35833
     2016.08213         1.35255         5.56430
     2016.08487         3.17466         5.36536
     2016.08761        -5.32424         5.37139
     2016.09034        -4.51814         5.70698
     2016.09196        -2.63608        14.38400
     2016.11498       -10.08920         5.47187
     2016.11772        -8.61810         5.40555
     2016.12046        -4.43499         5.51407
     2016.12320         2.90411         5.30809
     2016.12594        -3.46878         5.34326
     2016.12867         4.90432         5.35733
     2016.13141         7.94542         5.33723
     2016.13415         3.55553         5.37742
     2016.13689         0.45363         5.36135
     2016.13957        -3.85227         5.41058
     2016.14239       -11.39216         5.43369
     2016.14510        -8.15306         5.33723
     2016.14784        -7.24695         5.40053
     2016.15058        -5.62485         5.33020
     2016.15331        -5.59374         5.49900
     2016.15605         2.54636         5.36938
     2016.15879        -8.40553         5.42063
     2016.16153        -4.69843         5.45378
     2016.16427        -3.13133         5.34929
     2016.16700        -1.94722         5.35331
     2016.16974         0.22188         5.45780
     2016.17248        -3.25701         5.50101
     2016.17522         0.21609         5.44876
     2016.17796         6.11719         5.41560
     2016.18069         2.27330         5.47790
     2016.18343        -4.08860         5.52211
     2016.18617        -0.69949         5.36838
     2016.18891         2.31761         5.32015
     2016.19164        -4.70629         5.31915
     2016.19438         5.91282         5.26790
     2016.19712         5.60492         5.28599
     2016.19986         3.40703         5.65272
     2016.20260        -3.66387         5.42565
     2016.20533        -6.57777         5.63464
     2016.20807        -0.79366         5.45378
     2016.21081        -7.08956         5.39551
     2016.21355        -4.18545         5.39249
     2016.21629         0.66365         5.49799
     2016.21902        -4.83925         5.23676
     2016.22176        -4.19114         5.22570
     2016.22450        -8.14904         5.33924
     2016.22724        -5.84593         5.41862
     2016.22997         0.15417         5.19456
     2016.23271        -8.31173         5.20561
     2016.23545        -2.04262         5.27896
     2016.23819        -1.89252         5.28599
     2016.24093         2.73059         5.32718
     2016.24366        -3.50831         5.27293
     2016.24640        -1.06120         5.30709
     2016.24914        -3.86810         5.28699
     2016.25188        -4.70200         5.45881
     2016.25462        -2.92889         5.43570
     2016.25735         0.78521         5.36034
     2016.26009        -8.60068         5.28498
     2016.26283        -2.98558         5.35130
     2016.26557        -3.44248         5.28097
     2016.26830        -2.75237         5.28297
     2016.27104        -0.47627         5.34125
     2016.27378         0.51184         5.27393
     2016.27652        -5.99606         5.22972
     2016.27926         4.72104         5.29704
     2016.28199        -5.73585         5.56933
     2016.28473        -0.16275         5.31613
     2016.28747       -11.02264         5.39752
     2016.29021       -13.06454         5.22972
     2016.29295        -9.69044         5.25082
     2016.29568        -4.33433         5.27293
     2016.29842        -2.95123         5.42063
     2016.30116        -3.41612         5.39651
     2016.30390        -5.81502         5.38546
     2016.30663         5.33708         5.37340
     2016.30937         1.80119         5.26790
     2016.31211         0.20529         5.28800
     2016.31485         0.63240         5.33422
     2016.31759         1.84150         5.33522
     2016.32032        -2.18340         5.32919
     2016.32306        -8.11829         5.27494
     2016.32580        -3.11719         5.27896
     2016.32854        -2.11508         5.32116
     2016.33128        -9.74398         5.29704
     2016.33401        -4.20187         5.33422
     2016.33675        -3.33077         5.31513
     2016.33949        -2.00667         5.31915
     2016.34223         1.30644         5.39551
     2016.34496        -3.02846         5.44373
     2016.34770         4.58465         5.37340
     2016.35044         4.09275         5.54019
     2016.35318         1.77885         5.23776
     2016.35592       -10.59304         5.22972
     2016.35865        -9.78794         5.24379
     2016.36139        -0.43283         5.27494
     2016.36413         1.22127         5.36135
     2016.36687        -0.62163         5.28900
     2016.36961         2.50348         5.27293
     2016.37234         7.04958         5.24580
     2016.37508        -0.98631         5.32819
     2016.37782        -7.44321         5.27494
     2016.38056        -3.99011         5.52713
     2016.38329        -1.04200         5.21767
     2016.38603         2.99410         5.20360
     2016.38877         9.91721         5.21365
     2016.39151         4.62631         5.23073
     2016.39425        -1.74459         5.31111
     2016.39698         3.50552         5.20661
     2016.39972         6.21962         5.22671
     2016.40246         0.00473         5.32517
     2016.40468        -0.50519         6.59216
     2016.41091       -10.98995         5.74114
     2016.41341        -6.75986         5.28599
     2016.41615        -0.43275         5.26991
     2016.41889         0.88935         5.31814
     2016.42162         0.36545         5.36536
     2016.42436        -3.00744         5.32216
     2016.42705        -0.93934         5.30207
     2016.42984        -0.06623         5.26991
     2016.43258         3.75087         5.25484
     2016.43531         6.10998         5.36034
     2016.43721         4.07205         8.77649
     2016.44354        -4.20071         5.29503
     2016.44626        -3.66961         5.21566
     2016.44900         6.00250         5.28599
     2016.45174         5.47260         5.29403
     2016.45448         1.32470         5.23575
     2016.45722         3.40281         5.32316
     2016.45995        -1.78609         5.25585
     2016.46269         2.46002         5.24178
     2016.46543        -2.54188         5.20762
     2016.46817        -1.42378         5.21465
     2016.47091         2.04233         5.28297
     2016.47364        -3.63957         5.29704
     2016.47638         5.09254         5.34828
     2016.47912         4.84464         5.40154
     2016.48186         2.72274         5.48995
     2016.48459        -2.61315         5.26589
     2016.48733        -1.47505         5.27896
     2016.49007         2.76206         5.30407
     2016.49281         0.80916         5.31613
     2016.49555         2.71726         5.34426
     2016.49828         6.09637         5.27393
     2016.50102         6.96847         5.29604
     2016.50376         6.57058         5.47790
     2016.50650         8.69068         5.38245
     2016.50924         7.43978         5.28800
     2016.51197         1.09589         5.25685
     2016.51471         4.34499         5.30508
     2016.51745         4.67110         5.37642
     2016.52019         8.20820         5.37943
     2016.52292         2.68531         5.26690
     2016.52566         3.18641         5.26489
     2016.52840         4.59151         5.27896
     2016.53114         1.92662         5.31111
     2016.53388         0.84572         5.24781
     2016.53661         8.67883         5.31412
     2016.53935         6.51393         5.29403
     2016.54209         5.75003         5.32417
     2016.54483         8.99514         5.33120
     2016.54757         7.56024         5.29403
     2016.55030         0.43735         5.40857
     2016.55304         6.85445         5.29905
     2016.55578        14.42755         5.53215
     2016.55852         6.21066         5.30407
     2016.56125         5.81876         5.24379
     2016.56399         4.79687         5.24680
     2016.56673        10.38297         5.33522
     2016.56947         0.08907         5.64268
     2016.57221         6.73618         5.30207
     2016.57494         8.75328         5.38546
     2016.57768         8.76139         5.31010
     2016.58042        11.67549         5.27494
     2016.58316         5.57659         5.38747
     2016.58590         7.24170         5.32316
     2016.58863         9.07780         5.27192
     2016.59137         2.98891         5.23776
     2016.59411        10.12701         5.26489
     2016.59685         8.62011         5.32116
     2016.59958         9.97222         5.45077
     2016.60232         7.21132         5.29403
     2016.60506        11.50643         5.37240
     2016.60780         7.51853         5.30307
     2016.61054         2.61364         5.28699
     2016.61327         7.28874         5.29604
     2016.61601         2.24884         5.30006
     2016.61875         4.93995         5.24278
     2016.62149         8.05405         5.33020
     2016.62423         9.46916         5.40756
     2016.62696        10.91626         5.28297
     2016.62970         2.49636         5.28097
     2016.63244         1.94447         5.43067
     2016.63518         7.52557         5.27092
     2016.63698        13.05364         8.95534
     2016.64078        14.16478         5.64167
     2016.64339         7.12888         5.29302
     2016.64613         6.78399         5.28297
