# ================= DQRFIT RESULTS ================
# INPUT FILE: series/LKVW.rad
# OUTPUT: LDETRENDED
# FILTER FUNCTION: f(t)
# f(t)=+line(t)+annual(t)
# line(t)=+P 1+P 2*t
# annual(t)=+P 3*sin(2*pi*t+P 4)
# heav(t)=(t<0?0:1)
# TOTAL OBSERVATIONS MTOT= 3230
# INITIAL TIME INTERVAL= 2022.7488 - 2013.7112 =  9.0376
# TOTAL OBSERVATIONS AFTER PREFILTER M= 3223
# TIME-SPAN= 2022.7488 - 2013.7112 =  9.0376
# OBSERVATIONS: USED M=  3223 REJECTED MTOT-M=     7 %USED=   99.7833
# N=  4 PARAMETERS
# MAXSIG= 175.00000
# MAXRES=  21.46962
# SCALE FACTOR FOR LENGTHS: SCL=  10.00000
# SCALE FACTOR FOR SIGMAS: SCLSIG=   1.00000
# CHI^2=   2586.220 DOF=  3219 CHI^2/DOF=   0.80342
# RMS=      5.100 SDEV=      5.100 MEAN=    0.00688
#  P #       PARAMETER +-    SIGMA %error PARAMETER NAME
# P 1 =      5165.10473 +-   69.030   1.34 YZERO                              
# P 2 =        -2.56360 +-    0.034   1.33 SLOPE                              
# P 3 =         1.50591 +-    0.126   8.36 ANNUAL AMPLITUDE                   
# P 4 =        -0.77386 +-    0.084  10.87 ANNUAL PHASE                       
#       T            LDETRENDED       SIG_OBS
     2013.71115        -1.95662         5.10375
     2013.71389        -9.23460         4.94062
     2013.71663        -2.95358         4.94600
     2013.71937         4.06944         4.96482
     2013.72210         4.37046         5.03474
     2013.72484         5.33948         5.11182
     2013.72758         4.92550         4.93703
     2013.73032         7.02852         5.03294
     2013.73305        -0.27047         4.96303
     2013.73579        -8.49345         4.89760
     2013.73853        -0.45643         4.84202
     2013.74127         1.75559         4.92449
     2013.74401         8.97261         5.11541
     2013.74674         8.62363         5.05535
     2013.74948        -1.91535         4.94779
     2013.75222        -4.13633         4.87250
     2013.75496        -6.93132         4.87788
     2013.75770        -7.68030         4.92090
     2013.76043        -9.04728         4.96661
     2013.76317        -4.93926         4.95138
     2013.76591         0.58276         4.98902
     2013.76865        -2.77722         4.89491
     2013.77138        -8.72620         4.93703
     2013.77412        -4.35318         5.05446
     2013.77686        -4.30817         4.96572
     2013.77960        -4.36315         4.96930
     2013.78234        -8.38713         4.92897
     2013.78507       -11.11211         4.90297
     2013.78781       -17.65409         4.93166
     2013.79055        -7.54007         5.01322
     2013.79329        -7.77205         4.96482
     2013.79603        -2.93503         4.89222
     2013.79876        -7.71402         4.90566
     2013.80150        -1.34700         4.97916
     2013.80424        -5.28398         5.07059
     2013.80698        -4.39296         4.97378
     2013.80971         0.36606         4.92090
     2013.81245        -0.24892         4.88594
     2013.81519        -5.58690         4.93883
     2013.81793        -6.02688         4.94958
     2013.82067        -8.10687         5.06342
     2013.82340        -3.75685         4.96034
     2013.82614         1.30917         5.01053
     2013.82888        -0.42681         4.91194
     2013.83162        -6.88179         4.95317
     2013.83436        -0.72777         5.12885
     2013.83709        -3.67675         5.12527
     2013.83983        -1.16473         5.02398
     2013.84257        -3.34372         4.96213
     2013.84531        -6.13970         5.07417
     2013.84804        -9.34768         4.95855
     2013.85078        -2.42266         4.98544
     2013.85352        -5.98964         5.01681
     2013.85626        -2.90762         4.88505
     2013.85900        -0.72160         4.93345
     2013.86173        -4.35658         4.98992
     2013.86447        -1.58757         5.06073
     2013.86721        -5.04155         4.98813
     2013.86995        -1.77853         4.93883
     2013.87269         6.94149         4.85816
     2013.87542        10.69451         4.96841
     2013.87816         0.44753         4.99171
     2013.88090        -2.14945         5.05714
     2013.88364         3.43557         5.27137
     2013.88637         1.68158         4.92359
     2013.88911        -1.93940         4.95138
     2013.89185       -14.46338         4.96034
     2013.89459       -15.00236         4.96661
     2013.89664         0.74690         7.06763
     2013.90006        -3.28332         5.08045
     2013.90280        -6.03230         5.03563
     2013.90554        -2.46128         4.93614
     2013.90828         1.92273         4.96482
     2013.91102        -5.06325         4.99709
     2013.91375        -5.47223         4.96213
     2013.91649        -6.56221         5.00605
     2013.91923         6.80381         5.14499
     2013.92197         1.05483         5.07238
     2013.92470         0.32585         4.96392
     2013.92744        -1.72913         5.01233
     2013.93018         1.65788         4.96751
     2013.93292         2.25190         4.91552
     2013.93566        -4.06908         4.91552
     2013.93839        -3.00606         4.94331
     2013.94113        -6.45604         4.94421
     2013.94387        -4.73402         4.92538
     2013.94661        -0.58800         4.98185
     2013.94935         1.17702         4.98185
     2013.95208        -4.64497         4.96930
     2013.95482        -8.56995         4.95675
     2013.95756        -4.27693         4.96392
     2013.96030        -4.53491         4.94689
     2013.96303        -0.09889         4.94600
     2013.96577         5.74113         4.94600
     2013.96851        -0.09985         5.01681
     2013.97125        12.00517         5.00874
     2013.97399         3.28118         4.95675
     2013.97672        -5.66580         4.96572
     2013.97946        -0.14678         5.01860
     2013.98220        -1.76276         5.10375
     2013.98494        -4.56074         4.93703
     2013.98767        -9.26772         4.93166
     2013.99041        -0.05770         5.01053
     2013.99315        -9.01268         4.93435
     2013.99589        -2.77767         4.97827
     2013.99863        -7.26265         4.99261
     2014.00416        -3.82946         5.05087
     2014.00684        -3.30559         5.01322
     2014.00958         1.20743         4.96841
     2014.01232        -5.70755         5.02846
     2014.01505        -5.56153         5.06342
     2014.01779        -6.85952         5.04370
     2014.02053         2.66550         5.00067
     2014.02327         4.58252         5.10734
     2014.02600         2.90754         5.14857
     2014.02874         5.90856         4.99530
     2014.03148         5.23958         4.97827
     2014.03422        -3.25740         4.93972
     2014.03696        -3.02038         4.93703
     2014.03969        -1.19937         4.92986
     2014.04243        -1.30035         5.30722
     2014.04517         2.61767         5.08672
     2014.04791        -1.19931         4.93166
     2014.05065         1.10671         4.90925
     2014.05338        -2.56127         4.88415
     2014.05612        -4.81125         4.94958
     2014.05886        -2.17123         4.94600
     2014.06160        -1.28522         5.15484
     2014.06433        -2.02620         5.11272
     2014.06707         1.83482         5.04101
     2014.06981         2.95684         5.00874
     2014.07255        -0.64014         4.95138
     2014.07529        -1.93412         4.94779
     2014.07802         8.38790         5.00785
     2014.08076         8.92092         4.98185
     2014.08321         5.71420         5.47663
     2014.08624        -0.10905         5.00695
     2014.08898        -0.23803         5.16829
     2014.09171        -0.83501         5.33770
     2014.09445         1.24101         4.94241
     2014.09719        -0.83797         5.00336
     2014.09993         8.74705         4.93345
     2014.10266         3.08706         5.08135
     2014.10540         4.41708         4.98185
     2014.10814         0.23310         4.95407
     2014.11088        -0.21488         5.06431
     2014.11362        -0.16186         4.96213
     2014.11635         4.33916         5.00605
     2014.11909        10.41518         5.04191
     2014.12183         2.84720         5.05804
     2014.12457        10.77021         5.13602
     2014.12731         6.76923         4.94869
     2014.13004         0.72225         4.93972
     2014.13278         5.52727         5.18442
     2014.13552         6.87929         5.11541
     2014.13826         1.45331         4.98633
     2014.14099         3.99133         4.95317
     2014.14373         5.48135         4.99171
     2014.14647         2.17836         5.02398
     2014.14921         0.91538         5.01591
     2014.15195         0.84040         5.02219
     2014.15468         1.64042         5.05266
     2014.15742        10.00744         5.10913
     2014.16016        10.46646         5.19787
     2014.16290         3.86948         5.09031
     2014.16564        -0.90950         5.20056
     2014.16837         1.53351         5.22386
     2014.17111         5.97253         5.16202
     2014.17385         1.90155         5.25972
     2014.17659         3.96057         5.20145
     2014.17932         5.94859         5.32515
     2014.18206         1.38161         5.09031
     2014.18480        -1.59737         5.28392
     2014.18754        -1.21235         5.13154
     2014.19028        -0.01834         5.01950
     2014.19301         3.34568         5.03922
     2014.19575         3.02570         4.99888
     2014.19849         1.93272         5.14140
     2014.20123        -1.66826         5.06431
     2014.20397         0.23676         5.05087
     2014.20670         5.57878         5.11092
     2014.20944         5.84380         5.07866
     2014.21218         2.84481         5.02308
     2014.21492         0.21483         5.20325
     2014.21765         7.07285         5.04191
     2014.22039         3.04887         5.02219
     2014.22313         2.21289         5.08045
     2014.22587        -0.04609         5.06073
     2014.22861         3.46393         5.18891
     2014.23134         4.78595         5.09120
     2014.23408         4.47796         5.09569
     2014.23682         7.09198         5.08762
     2014.23956         4.93800         5.19339
     2014.24230         2.80502         5.08583
     2014.24503         0.35604         5.06969
     2014.24777         3.43606         5.23910
     2014.25051        -1.20292         5.09569
     2014.25325        -0.79690         5.06073
     2014.25598         3.13011         5.15753
     2014.25872         1.43313         5.04728
     2014.26146         7.20415         5.14050
     2014.26420        -4.42783         5.04101
     2014.26694         0.80719         5.02219
     2014.26967         1.41421         5.04460
     2014.27241         0.70523         5.19787
     2014.27515         1.33925         5.18174
     2014.27789         2.80226         5.04908
     2014.28062         8.40828         5.03025
     2014.28336         0.73130         5.02039
     2014.28610         4.72332         5.11092
     2014.28884         2.69734         5.65142
     2014.29158        -5.75064         5.00785
     2014.29431        -0.37762         5.06431
     2014.29705         1.75340         5.07776
     2014.29979        -2.36159         5.11541
     2014.30253         0.26943         5.01233
     2014.30527         6.69245         5.03294
     2014.30800        -0.37853         5.05266
     2014.31074         3.72649         5.05535
     2014.31348         3.66751         5.08045
     2014.31622         3.00253         5.01143
     2014.31895        13.29255         5.07417
     2014.32169        -0.98044         5.18622
     2014.32443        -6.82842         5.11451
     2014.32717        -2.90340         5.11182
     2014.32991        -1.43138         5.02756
     2014.33264        -2.63036         5.04370
     2014.33538        -0.79234         5.11451
     2014.33812         7.26568         5.18711
     2014.34086         1.15670         5.05266
     2014.34360         2.06171         5.05266
     2014.34633         2.20173         5.06880
     2014.34907         5.13875         5.29378
     2014.35181         2.17577         5.24000
     2014.35455        -0.79821         5.07238
     2014.35728        -3.92019         5.03205
     2014.36002        -6.64117         4.98992
     2014.36276        -2.48615         5.05625
     2014.36550        -2.44114         5.03832
     2014.36824        -4.30012         5.10555
     2014.37097        -1.79210         5.35742
     2014.37371        -1.19508         5.04191
     2014.37645         7.04394         5.10555
     2014.37919         0.63596         5.13154
     2014.38193        -1.24502         5.14678
     2014.38466        -4.99600         5.17098
     2014.38740         2.99601         5.17008
     2014.39014        -0.23697         5.16381
     2014.39288        -4.14695         5.16739
     2014.39561         4.99107         5.12527
     2014.39835        -2.56991         5.19070
     2014.40109        -3.20689         5.14140
     2014.40383        -0.83287         5.15305
     2014.40657        -0.80685         5.13692
     2014.40930        -0.01584         5.15126
     2014.41204         3.11718         5.18622
     2014.41478         0.75520         5.07597
     2014.41752         6.24422         5.04728
     2014.42026         2.58924         5.11899
     2014.42299        -1.37774         5.05625
     2014.42573         6.41728         5.06252
     2014.42847         5.82430         5.28661
     2014.43121         1.63631         5.04549
     2014.43394         2.33933         5.10017
     2014.43668        -0.23265         5.13154
     2014.43942         4.65837         5.09031
     2014.44216         1.39039         5.07417
     2014.44490         3.72541         5.22834
     2014.44763         8.04143         5.26061
     2014.45037         1.88645         5.07866
     2014.45311        -0.46354         5.07955
     2014.45585         1.04748         5.25703
     2014.45859        -0.49150         5.05714
     2014.46132        -3.18148         5.02756
     2014.46406        -2.64646         5.01143
     2014.46680         0.48256         5.50890
     2014.46954        -2.46042         4.98275
     2014.47227         5.60360         4.99081
     2014.47501        -1.12139         5.02756
     2014.47781         3.05778         5.10465
     2014.48049        -0.89535         5.02577
     2014.48323         0.46167         5.00605
     2014.48596         1.80569         5.19159
     2014.48870         9.93471         5.13333
     2014.49144        -0.19227         5.03025
     2014.49418        -3.10525         4.97020
     2014.49692        -1.41924         4.93435
     2014.49965        -0.18022         5.03205
     2014.50239        -4.59420         5.18084
     2014.50513         6.21682         5.08403
     2014.50787        -3.93116         5.24179
     2014.51060        -8.93714         4.96841
     2014.51334         5.89488         5.00067
     2014.51608         3.33290         4.95227
     2014.51882         2.90291         4.99619
     2014.52156         6.84093         5.17905
     2014.52429        -0.48105         5.00695
     2014.52703         6.00997         5.00874
     2014.52977         3.93499         5.07417
     2014.53251         1.14501         5.06342
     2014.53525         5.12203         5.04101
     2014.53798         5.39605         5.06969
     2014.54072         8.34606         5.22745
     2014.54346         5.50208         5.08583
     2014.54620         3.98710         5.19159
     2014.54893         5.27912         4.98275
     2014.55167         7.24314         5.23910
     2014.55441        -0.44284         5.06700
     2014.55715         0.67218         5.15036
     2014.55989        -3.15580         4.98902
     2014.56262         5.33121         4.95317
     2014.56536        -3.75977         4.98902
     2014.56810        -4.80575         4.98364
     2014.57084        -4.21973         4.95944
     2014.57357        -1.08871         4.96572
     2014.57631        -1.91369         4.98544
     2014.57905        -4.84167         5.13333
     2014.58179        -5.76465         5.10106
     2014.58453        -3.59864         5.09569
     2014.58726        -2.09262         5.23462
     2014.59000         2.02840         5.12437
     2014.59274        -3.21558         5.31619
     2014.59548        -0.11256         5.14947
     2014.59822         2.16846         5.19159
     2014.60095        -2.82752         5.21042
     2014.60369         5.41350         5.11182
     2014.60643        -3.77349         5.13244
     2014.60917         5.30753         5.18084
     2014.61190         3.08055         5.36369
     2014.61464        -0.19243         5.46856
     2014.61738        -3.47141         5.20952
     2014.62012        -2.48239         5.17905
     2014.62286         2.59063         5.03294
     2014.62559         3.70765         5.17546
     2014.62833         1.22966         5.13961
     2014.63107         1.85868         5.18891
     2014.63381         2.19270         5.18980
     2014.63655        -1.83028         5.08045
     2014.63928        -0.13426         5.26241
     2014.64202        -2.79124         5.03205
     2014.64476        -9.11022         5.05714
     2014.64750        -1.32520         5.06880
     2014.65023        -5.80919         5.05894
     2014.65252         5.43166         6.17040
     2014.65942        -5.68764        10.18600
     2014.66119        -8.48911         5.10106
     2014.66392         1.23691         5.09031
     2014.66666         0.58793         5.03205
     2014.66940         1.42595         5.06790
     2014.67214        -2.16104         5.09927
     2014.67488         0.22098         5.01860
     2014.67761        -9.50400         5.02667
     2014.68035        -5.42298         5.03653
     2014.68309       -11.31696         5.08045
     2014.68583        -5.69594         5.09748
     2014.68856        -9.46992         5.08583
     2014.69130        -9.92290         5.01771
     2014.69404        -4.56389         5.00067
     2014.69678       -12.23187         5.06790
     2014.69952        -4.17585         5.01591
     2014.70225        -5.56783         5.03025
     2014.70499        -4.32381         5.16202
     2014.70773        -6.76879         5.09300
     2014.71047         1.01423         5.02129
     2014.71321         2.31325         5.10017
     2014.71594        -5.19374         5.02129
     2014.71868         0.82928         5.05894
     2014.72142        -1.92870         5.01233
     2014.72416         2.11332         4.96392
     2014.72689         0.04834         4.97199
     2014.72963       -12.91564         4.96751
     2014.73237        -5.99162         5.13154
     2014.73511       -10.12960         5.06700
     2014.73785        -5.16359         4.99619
     2014.74058        -7.46557         5.00247
     2014.74332        -0.87755         5.00336
     2014.74606        -1.37653         5.03115
     2014.74880       -10.10651         5.03474
     2014.75154        -8.31649         5.10106
     2014.75427        -7.08647         5.11361
     2014.75701       -10.17545         4.93345
     2014.75975        -8.52244         4.98185
     2014.76249        -5.90742         4.98813
     2014.76522        -7.88240         5.02488
     2014.76796        -5.20538         4.97647
     2014.77070        -7.46236         4.92000
     2014.77344        -8.28234         4.87519
     2014.77618        -7.09732         5.10196
     2014.77891        -6.51130         5.02577
     2014.78165        -9.23429         5.00336
     2014.78439        -0.54027         4.91194
     2014.78713         2.63275         4.95317
