# ================= DQRFIT RESULTS ================
# INPUT FILE: series/LNGV.rad
# OUTPUT: LDETRENDED
# FILTER FUNCTION: f(t)
# f(t)=+line(t)+annual(t)
# line(t)=+P 1+P 2*t
# annual(t)=+P 3*sin(2*pi*t+P 4)
# heav(t)=(t<0?0:1)
# TOTAL OBSERVATIONS MTOT=  497
# INITIAL TIME INTERVAL= 2019.6493 - 2011.6523 =  7.9970
# TOTAL OBSERVATIONS AFTER PREFILTER M=  497
# TIME-SPAN= 2019.6493 - 2011.6523 =  7.9970
# OBSERVATIONS: USED M=   497 REJECTED MTOT-M=     0 %USED=  100.0000
# N=  4 PARAMETERS
# MAXSIG= 175.00000
# MAXRES=  18.79197
# SCALE FACTOR FOR LENGTHS: SCL=  10.00000
# SCALE FACTOR FOR SIGMAS: SCLSIG=   1.00000
# CHI^2=    298.270 DOF=   493 CHI^2/DOF=   0.60501
# RMS=      4.451 SDEV=      4.456 MEAN=    0.00334
#  P #       PARAMETER +-    SIGMA %error PARAMETER NAME
# P 1 =      3141.27055 +-  245.043   7.80 YZERO                              
# P 2 =        -1.55861 +-    0.122   7.80 SLOPE                              
# P 3 =         1.96135 +-    0.343  17.49 ANNUAL AMPLITUDE                   
# P 4 =         1.97093 +-    0.081   4.10 ANNUAL PHASE                       
#       T            LDETRENDED       SIG_OBS
     2011.65230        -3.48270         4.50594
     2011.65504        -7.79743         4.46471
     2011.65777        -3.40316         4.48727
     2011.66051        -2.38490         4.57205
     2011.66325         0.88537         4.52771
     2011.66599        -5.19036         4.48727
     2011.66872        -4.41009         4.47793
     2011.67146        -4.12683         4.35348
     2011.67420        -2.81656         4.39471
     2011.67694         2.93971         4.33793
     2011.67968        -4.67703         4.38459
     2011.68241        -3.08176         4.45927
     2011.68515        -3.35649         4.48727
     2011.68789        -5.62122         4.44604
     2011.69063        -3.85896         4.47871
     2011.69337        -1.36869         4.46938
     2011.69610        -6.84342         4.49505
     2011.69884        -1.85115         4.48105
     2011.70158         0.03711         4.39471
     2011.70432         3.52038         4.42037
     2011.70705        -2.06735         4.59150
     2011.70979         5.14191         4.47016
     2011.71253        -1.78682         4.41804
     2011.71527        -1.44955         4.51838
     2011.71801         2.03272         4.50671
     2011.72066        -1.76014         4.57516
     2014.57906        -6.61802         4.46316
     2014.58180        -6.53275         4.56038
     2014.58454        -5.15049         4.49660
     2014.58727        -6.55322         4.67706
     2014.59001        -3.37895         4.58138
     2014.59275         1.27432         4.60861
     2014.59549         0.19158         4.56816
     2014.59823        -0.80415         4.59616
     2014.60096        -5.53388         4.59927
     2014.60370         0.59638         4.63583
     2014.60644        -2.90935         4.58838
     2014.60918        -0.82208         4.60783
     2014.61191        -8.51081         4.77506
     2014.61465        -4.64955         4.54560
     2014.61739         2.26672         4.67628
     2014.62013        -5.51801         4.65217
     2014.62287        -1.83474         4.51449
     2014.62560         1.03552         4.52694
     2014.62834        -3.73121         4.56583
     2014.63108         2.23506         4.51527
     2014.63382        -0.01068         4.62961
     2014.63656         4.83459         4.53705
     2014.63929         1.67586         4.58838
     2014.64203        -4.22387         4.48338
     2014.64477        -2.92661         4.50671
     2014.64751         2.19466         4.53783
     2014.65024        -7.03507         4.50360
     2014.65298        -2.48080         4.48105
     2014.65572         2.05546         4.46938
     2014.65846         2.78273         4.51371
     2014.66120         0.47500         4.53160
     2014.66393         3.26326         4.50049
     2014.66667         4.79153         4.49660
     2014.66941         0.82780         4.51605
     2014.67215        -2.80693         4.52460
     2014.67488        -2.16967         4.51605
     2014.67762        -6.25040         4.51294
     2014.68036        -5.40413         4.51760
     2014.68310       -10.74487         4.53160
     2014.68584        -4.44260         4.53938
     2014.68857        -2.41433         4.48649
     2014.69131        -3.17506         4.47638
     2014.69405        -3.40480         4.49271
     2014.69679        -8.04153         4.49116
     2014.69953        -0.29126         4.53471
     2014.70226        -4.88499         4.51371
     2014.70500        -3.02073         4.47716
     2014.70774        -6.33846         4.51371
     2014.71048         1.87881         4.54094
     2014.71321        -6.47093         4.56272
     2014.71595         1.43634         4.54016
     2014.71869         0.15861         4.42271
     2014.72143        -5.33512         4.40949
     2014.72417         1.22714         4.45615
     2014.72690        -0.63059         4.49038
     2014.72964        -5.09732         4.46316
     2014.73238         0.31694         4.62183
     2014.73512        -7.36379         4.47171
     2014.73786        -1.55152         4.46627
     2014.74059        -3.83525         4.44060
     2014.74333         3.82001         4.50282
     2014.74607         7.16828         4.49582
     2014.74881        -0.29245         4.46782
     2014.75154         0.53482         4.52460
     2014.75428         0.18008         4.38771
     2014.75702        -6.03765         4.43515
     2014.75976         0.15762         4.43671
     2014.76250         0.49288         4.43826
     2014.76523        -1.06085         4.47093
     2014.76797         1.43342         4.41960
     2014.77071        -2.34231         4.42738
     2014.77345        -4.16705         4.41493
     2014.77619        -0.81378         4.47093
     2014.77892        -1.00851         4.48649
     2014.78166        -0.27124         4.41026
     2014.78440        -2.03398         4.48338
     2014.78714        14.42329         4.52460
     2014.78987        -0.81644         4.41260
     2014.79261        -2.54318         4.48105
     2014.79535        -4.04091         4.48027
     2014.79809         0.36336         4.53238
     2014.80083        -3.71737         4.45927
     2014.80356        -1.06211         4.50671
     2014.80630        -1.47084         4.49193
     2014.80904         2.55343         4.37837
     2014.81178         2.34169         4.44215
     2014.81452        -0.93904         4.53005
     2014.81725        -0.84777         4.40482
     2014.81999         6.92350         4.42271
     2014.82273         3.87476         4.50594
     2014.82547         2.65303         4.45927
     2014.82820        -3.63870         4.47016
     2014.83094        -6.76043         4.56972
     2014.83368        20.35983         4.73773
     2014.83642        -6.24890         4.55183
     2014.83916        13.66437         4.49505
     2014.84189        -1.47237         4.48105
     2014.84463        -6.04010         4.48882
     2014.84737         4.01317         4.49271
     2014.85011         2.65244         4.57983
     2014.85285        -0.19330         4.46938
     2014.86653         2.50804         4.51760
     2014.86927         4.34031         4.55416
     2014.87201         7.40557         4.50905
     2014.87475        -2.79516         4.53860
     2014.87749        -3.35689         4.54016
     2014.88022         2.59238         4.48027
     2014.88296         2.76564         4.54249
     2014.88570        -7.94509         4.68639
     2014.88844         6.52718         4.74706
     2014.89118         5.93944         4.88940
     2014.89391         5.92971         4.61872
     2014.89665         9.94598         4.62105
     2014.89939        -0.94775         4.65217
     2014.90213        -3.55149         4.65761
     2014.90486        -1.99022         4.52305
     2014.90760         3.00905         4.59305
     2014.91034         5.08732         4.53238
     2014.91308        10.81858         4.48493
     2014.91582         3.54685         4.46316
     2014.93224         2.98045         4.96407
     2015.00616        -2.47233         5.04808
     2015.00890         4.33794         4.48649
     2015.01712        -1.97626         4.44760
     2015.01985         5.04600         4.44215
     2015.02259         3.16827         4.54794
     2015.02533         6.49754         5.18964
     2015.02807         1.43381         4.44215
     2015.03081         0.40007         4.59383
     2015.03902         4.78088         4.42738
     2015.04997         2.75994         4.53860
     2015.05271        -0.01379         4.39004
     2015.05545         1.13048         4.35737
     2015.05818         3.90975         4.39237
     2015.06092         3.57201         4.40560
     2015.06366         5.57128         4.48493
     2015.06640         4.16655         4.38071
     2015.06914         1.22682         4.41104
     2015.07187        -2.07292         4.41415
     2015.07461         2.77135         4.41571
     2015.07735        -4.11638         4.41337
     2015.08009        -6.86212         4.43204
     2015.08282        -1.68985         4.39704
     2015.08556         1.61942         4.38926
     2015.08830        -0.91531         4.45927
     2015.09104        10.56095         4.49505
     2015.09378         9.05922         4.43360
     2015.09651         3.40748         4.41337
     2015.15675         0.03637         4.44760
     2015.15948         3.23663         4.44449
     2015.16222         2.24790         4.43904
     2015.16496         0.49717         4.47404
     2015.16770        -2.13956         4.45071
     2015.17044         1.88270         4.43904
     2015.17317        -3.03803         4.59150
     2015.17591        -1.70976         4.55338
     2015.17865        -0.24350         4.45460
     2015.18139         0.03177         4.44993
     2015.18413         1.25804         4.51060
     2015.18686         2.02031         4.50049
     2015.18960        -0.73243         4.48727
     2015.19234        -4.66916         4.61872
     2015.19508        -0.99389         4.49116
     2015.19781         2.30838         4.46549
     2015.20055         9.30464         4.55572
     2015.20329        -4.81909         4.54716
     2015.20603        -2.09382         4.54249
     2015.20877        -5.59856         4.43360
     2015.21150        -6.71629         4.42971
     2015.21424        -5.58602         4.42504
     2015.21698        -2.51275         4.48182
     2015.21972        -2.51649         4.48416
     2015.22246        -5.07122         4.46860
     2015.22519        -6.93395         4.40015
     2015.22793        -0.37868         4.39082
     2015.23067        -2.83442         4.40248
     2015.23341         0.39285         4.56194
     2015.23614        -2.97688         4.63894
     2015.23888         2.96638         4.53860
     2015.24162         2.90565         4.52305
     2015.24436         7.67492         4.63894
     2015.24710         7.94419         4.44138
     2015.24983        -0.30155         4.43904
     2015.25257         2.28672         4.43593
     2015.25531         0.59899         4.41415
     2015.25805         4.37525         4.38459
     2015.26079         9.67152         4.45460
     2015.26352         4.09779         4.42115
     2015.26626         1.46106         4.45382
     2015.26900         2.88432         4.39082
     2015.27174         3.98359         4.47716
     2015.27447         7.05986         4.57516
     2015.27721         2.79013         4.44993
     2015.27995        -0.77561         4.43360
     2015.28269         2.96366         4.47716
     2015.28543        -0.12407         4.51994
     2015.28816        -4.47081         4.56583
     2015.29090         2.89146         4.43826
     2015.29364         0.98173         4.43826
     2015.29638        -0.52100         4.42037
     2015.29911         4.19826         4.39704
     2015.30185         5.31553         4.39315
     2015.30459        -1.30120         4.47716
     2015.30733        -2.10794         4.34104
     2015.31007        -4.25167         4.33715
     2015.31280         0.45960         4.32704
     2015.31554        -3.02313         4.30837
     2015.31828        -4.58587         4.32704
     2015.32102        -1.36060         4.35659
     2015.32376        -3.29933         4.39860
     2015.32649        -3.03206         4.45227
     2015.32923        -2.35880         4.39782
     2015.33197        -2.98253         4.31148
     2015.33471        -3.70726         4.35815
     2015.33744        -7.03800         4.32315
     2015.34018        -3.13673         4.35737
     2015.34292        -1.83446         4.31226
     2015.34566         4.04981         4.31381
     2015.34840        -2.92293         4.32470
     2015.35113        -2.95366         4.34959
     2015.35387        -0.18639         4.33404
     2015.35661         0.06288         4.34493
     2015.35935        -3.07386         4.44604
     2015.36209        -2.05959         4.40871
     2015.36482       -11.95832         4.38226
     2015.36756        -0.09506         4.32004
     2015.37030        -2.82879         4.32237
     2015.37304        -3.08852         4.34726
     2015.37577        -6.01925         4.36904
     2015.37851        -5.81399         4.46082
     2015.38125        -4.53972         4.34259
     2015.38399        -3.91445         4.34648
     2015.38673        -4.33619         4.34337
     2015.38946        -3.79892         4.32781
     2015.39220        -8.37665         4.35193
     2015.39494        -2.37138         4.39860
     2015.39768        -3.72712         4.37293
     2015.40042         2.09515         4.36204
     2015.40315         0.88242         4.47404
     2015.40589        -6.81731         4.35193
     2015.40863        -2.30305         4.40171
     2015.41137        -4.50678         4.39626
     2015.41410       -10.59551         4.40015
     2015.41684        -5.35125         4.37682
     2015.41958        -3.68798         4.36593
     2015.42232        -2.44571         4.35426
     2015.42506        -5.28444         4.47638
     2015.42779        -2.87418         4.42037
     2015.43053        -4.99491         4.34493
     2015.43327        -6.47464         4.32315
     2015.43601        -5.80037         4.48805
     2015.43875         0.64889         4.49582
     2015.44148         2.87716         4.59305
     2015.44422        -4.11157         4.35426
     2015.44696        -1.66431         4.35582
     2015.44970        -5.37904         4.34959
     2015.45243        -2.02877         4.48338
     2015.45517        -7.02950         4.46082
     2015.45791        -7.42624         4.53238
     2015.46065         0.54703         4.54716
     2015.46339        -1.08470         4.49193
     2015.46612        -1.72644         4.35659
     2015.46886        -1.63017         4.40637
     2015.47160         0.19010         4.39626
     2015.47434        -6.30963         4.47793
     2015.47708        -3.30837         4.42115
     2015.47981        -9.29210         4.40871
     2015.48255        -1.22983         4.39082
     2015.48529        -3.92256         4.38071
     2015.48803        -6.74030         4.39626
     2015.49060       -10.72728         4.56816
     2015.49350        -4.41276         4.48260
     2015.49624        -1.06250         4.48260
     2015.49898        -5.13623         4.50516
     2015.50172        -2.59296         4.38537
     2015.50445         4.97431         4.45615
     2015.50719        -4.36743         4.43904
     2015.50993        -0.94816         4.42660
     2015.51267         0.10911         4.46704
     2015.51541         0.79538         4.42971
     2015.51814        -0.09036         4.44293
     2015.52088         2.36391         4.39937
     2015.52362        -2.66582         4.38304
     2015.52636        -0.05156         4.38071
     2015.52909         5.80171         4.37215
     2015.53183         1.10398         4.37371
     2015.53457         1.86325         4.38459
     2015.53731         1.14951         4.36748
     2015.54005         0.33478         4.43749
     2015.54278        -4.35795         4.47093
     2015.54552         6.69931         4.47560
     2015.54826         4.27858         4.45693
     2015.55100         6.52385         4.45849
     2015.55374        -4.81788         4.66461
     2015.55647         2.18938         4.54172
     2015.55921         4.36365         4.47560
     2015.56195         5.65992         4.45460
     2015.56469         5.80119         4.44682
     2015.56742        -2.75055         4.47404
     2015.57016         3.94972         4.59616
     2015.57290         3.76799         4.59772
     2015.57564         3.96725         4.45849
     2015.57838         3.68452         4.45849
     2015.58111         3.79279         4.42971
     2015.58385         1.81706         4.49193
     2015.58659         2.63232         4.52305
     2015.58933         4.44059         4.53160
     2015.59206        -3.36514         4.51371
     2015.59480         8.02613         4.44449
     2015.59754         5.34139         4.46393
     2015.60028         6.80766         4.54249
     2015.60302        10.92593         4.57827
     2015.60575         0.68619         4.52849
     2015.60849         4.07846         4.48493
     2015.61123         3.46073         4.42115
     2015.61397         6.22900         4.42738
     2015.61671         2.83826         4.40715
     2015.61944         5.50953         4.37759
     2015.62218         2.61180         4.37059
     2015.62492        10.65706         4.37837
     2015.62766         4.45433         4.34337
     2015.63039         6.79560         4.34337
     2015.63313         1.82987         4.36515
     2015.63587         5.12013         4.40793
     2015.63861         2.08240         4.36982
     2015.64135         4.27867         4.36826
     2015.64408         0.26194         4.36359
     2015.64682        -0.69880         4.44760
     2015.64956        -3.50753         4.37837
     2015.65230        -4.39226         4.37759
     2015.65504        -0.95200         4.41493
     2015.65777         7.45127         4.50438
     2015.66051         7.01854         4.40093
     2015.66325         7.30381         4.34959
     2015.66599         2.44507         4.49349
     2015.66872        13.56534         4.50205
     2015.67146         8.55661         4.37837
     2015.67420         7.02887         4.36748
     2015.67694         6.52514         4.36593
     2015.67968         1.27541         4.36282
     2015.68241         2.49268         4.34648
     2015.68515         2.16094         4.33481
     2015.68789         6.49721         4.37759
     2015.69063         6.10448         4.36048
     2015.69337         1.96275         4.50982
     2015.69610         3.19801         4.36748
     2015.69884         6.63728         4.42115
     2015.70158         7.99555         4.35970
     2015.70432        10.90281         4.39237
     2015.70705        12.92108         4.40326
     2015.70979         5.97235         4.41571
     2015.71253        -3.20538         4.38693
     2015.71527         5.08588         4.34804
     2015.71801         6.13815         4.35504
     2015.72074         6.51742         4.36359
     2015.72348         7.93469         4.41104
     2015.72622         0.88295         4.38459
     2015.72896        -3.74378         4.36048
     2015.73170         2.26649         4.39548
     2015.73443        -6.72525         4.42971
     2015.73717         2.06202         4.35115
     2015.73991         5.55029         4.48727
     2015.74265         3.23956         4.52149
     2015.74538         8.47482         4.56116
     2015.74812         1.12109         4.61328
     2015.75086        -8.76164         4.35659
