# ================= DQRFIT RESULTS ================
# INPUT FILE: series/LWCK.rad
# OUTPUT: LDETRENDED
# FILTER FUNCTION: f(t)
# f(t)=+line(t)+annual(t)
# line(t)=+P 1+P 2*t
# annual(t)=+P 3*sin(2*pi*t+P 4)
# heav(t)=(t<0?0:1)
# TOTAL OBSERVATIONS MTOT= 3723
# INITIAL TIME INTERVAL= 2022.7488 - 2012.1150 = 10.6338
# TOTAL OBSERVATIONS AFTER PREFILTER M= 3576
# TIME-SPAN= 2022.7488 - 2012.1150 = 10.6338
# OBSERVATIONS: USED M=  3576 REJECTED MTOT-M=   147 %USED=   96.0516
# N=  4 PARAMETERS
# MAXSIG= 175.00000
# MAXRES=  69.99176
# SCALE FACTOR FOR LENGTHS: SCL=  10.00000
# SCALE FACTOR FOR SIGMAS: SCLSIG=   1.00000
# CHI^2=   4326.567 DOF=  3572 CHI^2/DOF=   1.21125
# RMS=      9.818 SDEV=      9.817 MEAN=    0.25651
#  P #       PARAMETER +-    SIGMA %error PARAMETER NAME
# P 1 =     -6095.60906 +-   82.792   1.36 YZERO                              
# P 2 =         3.02867 +-    0.041   1.36 SLOPE                              
# P 3 =         3.65153 +-    0.166   4.54 ANNUAL AMPLITUDE                   
# P 4 =        -3.03577 +-    0.064   2.10 ANNUAL PHASE                       
#       T            LDETRENDED       SIG_OBS
     2012.11498         5.08950         6.62100
     2012.11772         9.37220         6.63641
     2012.12046        11.86791         6.66943
     2012.12320         7.93562         6.54506
     2012.12594         8.20533         6.56047
     2012.12867         5.43204         6.70465
     2012.13141        -1.64126         6.85763
     2012.13415         6.69444         6.65292
     2012.13689         7.17516         6.63531
     2012.13963        13.42987         6.84772
     2012.14236         5.38458         6.77618
     2012.14510         1.68128         6.69694
     2012.14784        -4.91901         6.50104
     2012.15058        12.09070         6.58358
     2012.15332         5.85239         6.68043
     2012.15583         1.08979         7.31986
     2012.15988       -10.49649        16.81114
     2012.16153         2.54753         6.66503
     2012.16427        -2.81376         6.59789
     2012.16700         0.88995         6.67273
     2012.16974         2.59166         6.55827
     2012.17248        -2.38765         6.61220
     2012.17522        -2.42193         6.61110
     2012.17796        -2.40422         6.51205
     2012.18069         4.47849         6.56157
     2012.18343         1.15319         6.60009
     2012.18617         2.62390         6.53076
     2012.18891         2.43261         6.55607
     2012.19164         7.27632         6.71235
     2012.19438         6.14203         6.97098
     2012.19712        -5.02527         6.79379
     2012.19986         4.69244         6.53076
     2012.20260         4.76615         6.79599
     2012.20533         1.57986         6.62100
     2012.20807         7.50657         6.46252
     2012.21081        -3.40174         6.53626
     2012.21355         3.18698         6.45372
     2012.21629         0.48569         6.65732
     2012.21902        -5.62060         6.56157
     2012.22176        -4.30689         6.57698
     2012.22450        -5.90119         6.53076
     2012.22724         1.43352         6.47793
     2012.22998         5.51222         6.48894
     2012.23271         5.12394         6.47023
     2012.23545         1.05865         6.61440
     2012.23819         7.02835         6.51865
     2012.24093         1.89906         6.52525
     2012.24366         1.42077         6.84332
     2012.24640         5.97148         6.52746
     2012.24914         5.04819         6.67273
     2012.25188        -1.70311         6.51535
     2012.25462        -8.25240         6.63641
     2012.25735         3.70531         6.56377
     2012.26009         1.38002         6.62981
     2012.26283         4.68373         6.45812
     2012.26557        -1.75457         6.50985
     2012.26831         4.31413         6.60119
     2012.27104        -1.06715         6.59019
     2012.27378        -4.22544         6.57258
     2012.27652         1.30427         6.52966
     2012.27926         7.87997         6.68594
     2012.28199         0.86568         6.54396
     2012.28473        -5.57261         6.49664
     2012.28747        -0.97890         6.44381
     2012.29021         2.92580         6.64632
     2012.29295        -3.33549         6.46582
     2012.29568        -4.32978         6.47463
     2012.29842        -5.59507         6.60890
     2012.30116         1.23064         6.56377
     2012.30390        -6.88666         6.47353
     2012.30664         0.29004         6.46913
     2012.30937        -2.01824         6.54176
     2012.31211         6.77647         6.72886
     2012.31485         1.71018         6.64962
     2012.31759        -0.71712         6.49994
     2012.32032         4.19859         6.74207
     2012.32306         0.41530         6.51535
     2012.32580        -0.26701         6.53626
     2012.32854        -2.59528         6.64412
     2012.33128         2.92842         6.62871
     2012.33401        -0.01987         6.63201
     2012.33675         1.43384         6.53516
     2012.33949         2.91555         6.58028
     2012.34223        -4.96574         6.48894
     2012.34497       -11.11205         6.54066
     2012.34770        -4.66833         6.56928
     2012.35044        -3.04362         6.76518
     2012.35318        -0.71391         6.51865
     2012.35592         3.02880         6.54837
     2012.35865        -3.46250         6.50104
     2012.36139        -0.13379         6.38548
     2012.36413        -3.14309         7.31546
     2012.36687         0.81763         6.46252
     2012.36961         5.58634         6.42730
     2012.37234        -2.24196         6.58799
     2012.37508         0.44475         6.43061
     2012.37782        -2.11554         6.57808
     2012.38056        -5.84183         6.53516
     2012.38330         3.17686         6.60009
     2012.38603        -0.58842         6.87523
     2012.38877        -3.41271         6.76188
     2012.39151         1.18700         6.58689
     2012.39425         1.40771         6.63421
     2012.39698        -1.08159         6.61440
     2012.39972        -6.88388         6.63531
     2012.40246         5.60083         6.78389
     2012.40520        -2.70746         6.59129
     2012.40794        -3.50175         6.45812
     2012.41067         3.20395         6.53076
     2012.41341        -3.15434         6.79049
     2012.41615        10.25337         6.67383
     2012.41889         5.65408         6.79269
     2012.42162        -4.83121         6.55167
     2012.42436         9.91249         6.56157
     2012.42710         5.34920         6.68484
     2012.42984         7.83891         6.64412
     2012.43258        -3.13638         6.72776
     2012.43531         4.23033         6.51755
     2012.43805         2.23603         6.50985
     2012.44079        -3.54427         6.58799
     2012.44353        -1.78655         6.67383
     2012.44626         6.77316         6.73656
     2012.44900         2.06687         6.54066
     2012.45174        -0.92043         6.58909
     2012.45448         5.07328         6.61660
     2012.45722        10.56899         6.73656
     2012.45995         8.50570         7.07224
     2012.46269         6.43041         6.69914
     2012.46543        -1.17489         6.68264
     2012.46817        -1.89418         6.52085
     2012.47091         4.34653         6.67163
     2012.47364        -0.28076         6.62100
     2012.47638        -0.87105         7.63022
     2012.47912         0.23165         6.65402
     2012.48186        -0.34064         6.67053
     2012.48459         4.73507         6.56708
     2012.48733         0.39678         6.52966
     2012.49007         1.51849         6.72886
     2012.49281         7.80419         6.70465
     2012.49555         5.73490         6.64742
     2012.49833         0.31946         6.63091
     2012.50102         8.23932         6.57588
     2012.50376         8.46802         6.67493
     2012.50650        -0.55327         6.61880
     2012.50924        -1.00656         6.80810
     2012.51197         1.75015         6.61880
     2012.51471        -4.72714         6.65072
     2012.51745         6.69655         6.54617
     2012.52019         2.59827         6.49444
     2012.52292         2.17198         6.79269
     2012.52566         4.03769         6.59239
     2012.52840         6.42640         6.46362
     2012.53114         1.39910         6.63861
     2012.53388         5.86681         6.79819
     2012.53661         6.56052         6.66613
     2012.53935         5.97223         6.79269
     2012.54209         4.66794         6.53406
     2012.54483         5.59264         6.46582
     2012.54757         8.13535         6.50875
     2012.55030         5.13206         6.74537
     2012.55304         4.89577         6.54176
     2012.55578         5.48846         6.53186
     2012.55852         2.16918         6.43941
     2012.56125         7.57389         6.48233
     2012.56399        10.92360         6.50654
     2012.56673         9.48831         6.55167
     2012.56947         8.87802         6.66283
     2012.57221         9.70072         6.47243
     2012.57494         7.97743         6.51535
     2012.57768        10.39614         6.55937
     2012.58042        13.87485         7.30776
     2012.58316        11.19156         6.75417
     2012.58590         5.00626         6.68704
     2012.58858        11.45014         6.65292
     2012.59138        16.97165         6.77728
     2012.59347        12.80132         9.09177
     2012.62434        15.85383         8.46775
     2012.62696        10.32388         6.57918
     2012.62970         4.30459         6.73546
     2012.63244         1.87830         7.06343
     2012.63518        12.49301         6.63751
     2012.63791         5.90771         6.69474
     2012.64065        14.56042         7.69626
     2012.64339        12.31213         6.49994
     2012.64613         8.92184         6.44491
     2012.64887        13.42055         6.54617
     2012.65161        15.07624         6.85102
     2012.65434        16.64296         6.72116
     2012.65708        17.34667         6.65622
     2012.65982        14.17238         6.65182
     2012.66256        10.18309         6.59349
     2012.66529        11.12279         6.63311
     2012.66803         7.08850         6.64081
     2012.67077        14.33921         6.72446
     2012.67351        13.46492         6.49994
     2012.67624        12.17663         6.42400
     2012.67898        17.79133         6.59899
     2012.68172        15.15504         6.64852
     2012.68446         9.72975         6.67933
     2012.68720        11.95746         6.72666
     2012.68994        14.99515         6.52305
     2012.69267         7.90787         6.70685
     2012.69541         6.79658         6.81250
     2012.69815        14.12929         6.71015
     2012.70089         5.98300         6.77838
     2012.70362         4.65870         6.60229
     2012.70636         8.66141         6.52746
     2012.70910         6.85811         6.62210
     2012.71184        17.71483         6.63091
     2012.71457        13.82954         6.58689
     2012.71731         9.86024         6.53956
     2012.72005        15.65295         6.53736
     2012.72279        10.97466         6.60450
     2012.72553        14.74637         6.61110
     2012.72826        17.57808         6.64081
     2012.73100         9.34878         8.28616
     2012.73374        10.53249         6.79709
     2012.73648         7.88820         6.61110
     2012.73921        10.36491         6.88844
     2012.74195        18.45462         7.13827
     2012.74469        15.20132         6.73986
     2012.74743        11.24702         6.67383
     2012.75017        10.78474         6.67163
     2012.75290        17.26745         6.71675
     2012.75564        16.73416         6.62651
     2012.75838         9.55286         6.68374
     2012.76112        14.72857         6.45702
     2012.76386        11.93028         6.59789
     2012.76659        16.80299         6.64301
     2012.76933        18.07270         6.69804
     2012.77207         9.42040         6.60450
     2012.77481        15.92811         6.68043
     2012.77754        10.39482         6.70134
     2012.78028        16.77953         7.06783
     2012.78302         8.76624         6.86203
     2012.78576        10.85393         6.73546
     2012.78850        19.31165         7.03702
     2012.79123        13.67736         6.95888
     2012.79397         8.77707         6.68264
     2012.79671         6.12878         6.74757
     2012.79945         8.64448         6.82461
     2012.80219        17.87019         6.86643
     2012.80493         3.55588         6.85983
     2012.80746         7.98823         7.71827
     2012.87169        17.19969        13.34656
     2012.87337         2.41760         6.63201
     2012.87611         7.60131         6.64742
     2012.87884        16.14703         6.72446
     2013.10335        -0.02393         6.63971
     2013.10594        -0.95079         7.03812
     2013.11720       -10.92088         7.48165
     2013.11978        -4.28869         6.97649
     2013.12251        -5.75898         6.63861
     2013.12526        -3.70430         6.62871
     2013.12799        -3.11556         6.58579
     2013.13073        -3.80186         6.57148
     2013.13347       -10.99015         6.65512
     2013.13618         3.01063         6.63751
     2013.13894        -1.66873         6.44601
     2013.14168        -2.51202         6.74867
     2013.14442        -4.00632         6.87633
     2013.14715         0.12039         6.87744
     2013.14992        -6.48097         6.48453
     2013.15265        -7.19025         6.72776
     2013.15537        -9.61848         6.47903
     2013.15811        -6.04978         6.62541
     2013.16084        -2.99607         6.75747
     2013.16358        -2.23036         6.77398
     2013.16632        -6.20265         6.86753
     2013.16906        -6.55794         6.66723
     2013.17180        -2.72524         6.51975
     2013.17453       -15.40353         7.33197
     2013.17727        -2.70682         6.79709
     2013.18001        -1.34311         6.84332
     2013.18274        -5.24739         6.59789
     2013.18548        -5.59270         6.54947
     2013.18823        -8.57700         6.58138
     2013.19096        -6.38428         6.62210
     2013.19370         0.25843         7.03812
     2013.19644        -2.27286         6.68153
     2013.19917         3.61684         6.74207
     2013.20191         5.48155         6.55167
     2013.20465         0.05626         6.62320
     2013.20737        -6.52698         6.74757
     2013.21013         1.78768         6.52085
     2013.21286        -3.76762         6.57808
     2013.21560        -1.42291         6.68374
     2013.21834        -3.60320         6.70024
     2013.22108       -12.39849         6.71125
     2013.22381        -0.77379         6.56598
     2013.22656        -3.75709         6.60450
     2013.22927        -6.36130         7.01281
     2013.23200        -1.58359         6.61220
     2013.23475        -2.12990         6.62320
     2013.23748        -8.69119         6.66723
     2013.24024        -0.94154         6.60560
     2013.24298        -2.38583         6.55717
     2013.24572         6.34686         6.68153
     2013.24846         5.34259         6.77618
     2013.25119        -0.21771         6.71015
     2013.25393        -5.83500         6.68924
     2013.25667        -4.98829         6.91926
     2013.25941         9.17642         6.80150
     2013.26214         3.46013         6.77949
     2013.26489         9.66082         6.77618
     2013.26762        -3.48046         6.75087
     2013.27036        -2.50975         6.67823
     2013.27310        -3.93204         7.03922
     2013.27583         2.53667         6.67713
     2013.27857         1.58137         6.78059
     2013.28131        -1.07792         6.88734
     2013.28405        -0.71222         6.66723
     2013.28679        -1.31750         6.71565
     2013.28956        -3.76290         6.85873
     2013.29226        -6.10809         6.81360
     2013.29500        -4.05738         6.66172
     2013.29765       -13.63341         7.22521
     2013.31690         0.17729         6.85873
     2013.31964        -3.96601         6.77398
     2013.32238        -3.13331         6.74427
     2013.32512         3.44841         6.82901
     2013.32785         2.18712         6.69474
     2013.33059        -2.13918         6.62871
     2013.33333        -2.03047         6.76188
     2013.33607        -7.27576         6.64962
     2013.33880         0.81195         6.85212
     2013.34155        -1.32336         6.69144
     2013.34428        -1.16764         6.63641
     2013.34702         2.90307         6.60670
     2013.34976        -0.28422         6.66503
     2013.35249        -6.27051         6.67933
     2013.35523        -3.37380         6.79049
     2013.35797         1.75590         7.35178
     2013.36070        -6.05336         6.81030
     2013.36344        -4.10765         6.71455
     2013.36617         2.73406         6.65622
     2013.36892         2.44575         6.72226
     2013.37166         0.40043         6.70575
     2013.37440        -2.17085         6.76628
     2013.37713        -2.41814         6.58909
     2013.37987        -3.26143         6.60229
     2013.38261        -2.65972         6.60780
     2013.38535        -4.80602         6.95888
     2013.38809        -3.04331         6.87744
     2013.39082         0.07640         6.76628
     2013.39287        -0.56080        12.44960
     2013.39907        -2.10358         8.02973
     2013.40177         3.00023         6.76188
     2013.40451         0.21794         6.70134
     2013.40725        -5.57735         7.06013
     2013.40999         4.77536         7.20430
     2013.41273         2.11306         6.66613
     2013.41546        -7.32723         7.08214
     2013.41821        -0.27754         6.94127
     2013.42094         3.57719         6.89615
     2013.42368        -7.92510         6.89174
     2013.42642         2.98860         6.90715
     2013.42915         0.89631         6.71345
     2013.43190        -0.95800         6.82681
     2013.43463         0.11473         6.75087
     2013.43737        -1.60658         6.80260
     2013.44010        -5.13086         6.99520
     2013.44284        -0.36115         6.70024
     2013.44558        -2.64444         6.78389
     2013.44832        -9.67373         6.62541
     2013.45106        -1.91103         6.71235
     2013.45379        -2.01732         6.65182
     2013.45654        -1.72662         6.65732
     2013.45927        -5.14190         7.98901
     2013.46201        -2.73219         6.74097
     2013.46475        -4.41749         6.67823
     2013.46748        -0.46878         7.24833
     2013.47022        -5.75607         6.70245
     2013.47296         0.76564         6.57368
     2013.47569        -3.04164         6.72556
     2013.47806         5.83218         9.64426
     2013.48121         0.58666         9.66297
     2013.48391         2.88547         7.29235
     2013.48665         0.73318         8.72969
     2013.48939         1.62189         7.29125
     2013.49212        -3.41441         8.01432
     2013.49487        -8.54371         8.18161
     2013.49760         4.56201         7.34077
     2013.50034         5.62572         6.54617
     2013.50308        -5.73557         7.08324
     2013.50581        -4.94687         6.61990
     2013.50855        -4.55916         6.57038
     2013.51129        -0.57445         6.61990
     2013.51403         1.78424         6.51975
     2013.51676         3.20997         6.54506
     2013.51950        -1.40733         6.62761
     2013.52224         9.82338         6.80920
