# ================= DQRFIT RESULTS ================
# INPUT FILE: series/MCKI.rad
# OUTPUT: LDETRENDED
# FILTER FUNCTION: f(t)
# f(t)=+line(t)+annual(t)
# line(t)=+P 1+P 2*t
# annual(t)=+P 3*sin(2*pi*t+P 4)
# heav(t)=(t<0?0:1)
# TOTAL OBSERVATIONS MTOT=  775
# INITIAL TIME INTERVAL= 2018.5457 - 2004.1369 = 14.4089
# TOTAL OBSERVATIONS AFTER PREFILTER M=  774
# TIME-SPAN= 2018.5457 - 2004.1369 = 14.4089
# OBSERVATIONS: USED M=   774 REJECTED MTOT-M=     1 %USED=   99.8710
# N=  4 PARAMETERS
# MAXSIG= 175.00000
# MAXRES=  15.46221
# SCALE FACTOR FOR LENGTHS: SCL=  10.00000
# SCALE FACTOR FOR SIGMAS: SCLSIG=   1.00000
# CHI^2=    858.261 DOF=   770 CHI^2/DOF=   1.11462
# RMS=      6.135 SDEV=      6.139 MEAN=    0.02918
#  P #       PARAMETER +-    SIGMA %error PARAMETER NAME
# P 1 =     -1295.83861 +-   95.881   7.40 YZERO                              
# P 2 =         0.64365 +-    0.048   7.41 SLOPE                              
# P 3 =         3.90440 +-    0.317   8.11 ANNUAL AMPLITUDE                   
# P 4 =         2.47866 +-    0.092   3.71 ANNUAL PHASE                       
#       T            LDETRENDED       SIG_OBS
     2004.13690         4.40704         6.35672
     2004.13964         4.73728         6.04105
     2004.14237         6.04052         6.18674
     2004.14511        -8.96625         6.16985
     2004.14785        -3.60901         6.14451
     2004.15059         2.78323         6.22897
     2004.15332         3.48447         6.20047
     2004.15606         5.56871         6.21313
     2004.15880        -0.64306         6.14979
     2004.16154         1.71118         6.20152
     2004.16428         0.68742         6.24481
     2004.16701       -10.10734         6.29443
     2004.16975        -4.10811         6.44223
     2004.17249        -1.27187         6.41795
     2004.17523         5.74837         6.40951
     2004.17797        -5.10739         6.29865
     2004.18070        -1.38215         6.21736
     2004.18344        -8.73492         6.18885
     2004.18618        -4.07468         6.32716
     2004.18892         3.97256         6.25431
     2004.19165        -0.47320         6.15507
     2004.19439         3.84703         6.22158
     2004.19713        -6.11073         6.27754
     2004.19987        -4.92449         6.23003
     2004.20261         4.87775         6.27120
     2004.20534        -3.14601         6.22475
     2004.20808        -3.45778         6.57420
     2004.21082         2.12946         6.52669
     2004.21356        -2.78630         6.47180
     2004.21629        -4.74906         6.45385
     2004.21903        -3.70183         6.50030
     2004.22177        -4.33659         6.53831
     2004.22451        -2.10235         6.55203
     2004.22725         7.06389         6.48869
     2004.22998         3.17813         6.52142
     2004.23272         4.82236         6.59215
     2004.23546        -3.48640         6.53936
     2004.23820        -2.16616         6.48235
     2004.24094        -2.70592         6.73785
     2004.24367         2.39731         6.43379
     2004.24641         5.24755         6.17935
     2004.24915         2.00779         6.37150
     2004.25189         2.82603         6.33244
     2004.25462        -2.25273         6.22792
     2004.25736         6.69850         6.23003
     2004.42163        -0.14623         6.07589
     2004.42437        -1.46999         6.06427
     2004.42711        -4.76075         6.09700
     2004.42985        -7.02652         6.08961
     2004.43259         8.27972         6.14451
     2004.43532        11.37396         6.12234
     2004.43806         1.32920         6.01254
     2004.44080        -0.13857         6.15929
     2004.44354         0.99767         6.18780
     2004.44627        -1.47009         6.21736
     2004.44901         0.72715         6.24058
     2004.45175        -1.95761         6.38522
     2004.45449         2.26162         6.28809
     2004.45723        -2.62214         6.38628
     2004.45996        -7.07190         6.45701
     2004.46270        -8.92666         6.40528
     2004.46544        -5.75043         6.18568
     2004.46818         0.26981         6.09489
     2004.47092        -0.11695         6.26276
     2004.47365         0.40929         6.17935
     2004.47639        -6.84047         6.26276
     2004.47913        -3.57724         6.25325
     2004.48187        -3.00100         6.45913
     2004.48460        -1.48876         6.19413
     2004.48734         4.53648         6.26381
     2004.49008         6.78971         6.22264
     2004.49282        -3.31505         6.48974
     2004.49556       -11.73881         6.33560
     2004.49829         3.50643         6.23319
     2004.50103         1.53567         6.19835
     2004.50377         2.94590         6.15929
     2004.50651        -2.99486         6.27331
     2004.50924        -8.05562         6.23319
     2004.68994         4.07707         6.11812
     2004.69268        -2.93469         6.07589
     2004.69542         1.20155         6.08856
     2004.69816         8.47779         6.21419
     2004.70089        -3.89398         6.36939
     2004.70363        12.43226         6.20047
     2004.70637         6.40850         6.15507
     2004.70911         8.21674         6.02732
     2004.71185         7.36598         6.10439
     2004.71458        -2.00779         6.16351
     2004.71732         3.94345         6.10650
     2004.72006        -1.20531         6.03154
     2004.72280         6.13893         6.03788
     2004.72554         0.32816         6.03154
     2004.72827         4.06940         6.06955
     2004.73101         6.50664         6.05160
     2004.73375         2.45588         6.02310
     2004.73649         3.82112         6.07272
     2004.73922         4.11135         6.15929
     2004.74196         4.90659         6.05583
     2004.74470         3.08083         6.00515
     2004.74744         2.10607         6.06216
     2004.75018         1.04030         6.02415
     2004.75291         3.08254         6.02943
     2004.75565         0.93478         6.08856
     2004.75839         6.03402         6.10861
     2004.76113         3.80726         6.06850
     2004.76387         6.97249         6.05794
     2004.76660         3.43873         6.03049
     2004.76934         1.04297         6.22897
     2004.77208         4.55321         6.31554
     2004.77482        10.33444         6.21947
     2004.77755        10.55768         6.18463
     2004.78029         2.73092         6.20258
     2004.78303         3.59816         6.21841
     2004.78577        -0.66960         6.10228
     2004.78851         8.12163         6.11917
     2004.79124         8.78287         6.03366
     2004.79398        10.51911         6.05266
     2004.79672         8.60735         6.07589
     2004.79946         6.76358         6.04421
     2004.80220        11.16582         6.03999
     2004.80493         6.10906         6.03893
     2004.80767         8.03430         6.05794
     2004.81041         7.19954         5.96186
     2004.81315         7.21177         5.92914
     2004.81588         5.78501         5.95553
     2004.81862         5.33925         6.25853
     2004.82410         8.14072         5.91119
     2004.82684         2.93596         5.97876
     2004.82957         4.63420         6.16035
     2004.83231         8.16344         6.07166
     2004.83505        -2.26932         6.23003
     2004.83779         3.42691         6.00621
     2004.84052         4.84715         6.10756
     2004.84326        11.16839         6.03893
     2004.84600         3.38363         6.01888
     2004.84874         1.86886         6.03788
     2004.85148        -1.30690         6.12551
     2004.85421         1.99534         6.42006
     2004.85695         1.71758         6.09595
     2004.85969        -8.74118         6.03049
     2004.86243        -2.92395         6.07589
     2004.86517        -0.43771         5.97876
     2004.86790        -9.58347         5.94075
     2004.87064       -11.19323         5.94075
     2004.87338         0.21000         5.97031
     2005.22656        -0.60932         6.10650
     2005.22930         1.28592         6.13712
     2005.23204        -4.61785         6.11495
     2005.23478         0.82339         6.15612
     2005.23751        11.51863         6.15401
     2005.24025         8.46787         6.31238
     2005.24299         0.05811         6.15507
     2005.24573         1.05434         6.30182
     2005.24846        -1.07742         6.10545
     2005.25120         1.99882         6.12551
     2005.25394        10.34506         6.40739
     2005.25668         8.39129         6.55731
     2005.25942         4.39853         6.19519
     2005.26215        -1.78223         6.30182
     2005.26489         7.28301         6.35144
     2005.26763         5.62525         6.29126
     2005.27037        11.04648         6.29337
     2005.27311         4.27672         6.24375
     2005.27584         2.74896         6.24270
     2005.27858         3.07920         6.25431
     2005.28132         4.60843         6.31132
     2005.28406        -2.37633         6.30710
     2005.28679         0.13091         6.33771
     2005.28953         2.92215         6.08856
     2005.29227         0.20339         6.13184
     2005.29501         3.76962         6.12867
     2005.29775         7.67886         6.12234
     2005.30048         4.22810         6.07166
     2005.30322        -1.15266         6.06850
     2005.30596         1.58557         6.02943
     2005.30870         7.54781         6.06216
     2005.31144         5.76705         6.16774
     2005.31417         3.50929         6.18463
     2005.31691        -2.66447         6.14768
     2005.31965        -2.01824         6.07483
     2005.32239         1.28300         6.27331
     2005.32512        -0.85576         6.17513
     2005.32786        -0.93052         6.16246
     2005.33060         3.93371         6.09911
     2005.33334         5.67295         6.17090
     2005.33608         6.09719         6.18041
     2005.33881         6.34043         6.14557
     2005.34155         2.44767         6.14768
     2005.34429         0.57390         6.05899
     2005.34703        -7.86686         6.06638
     2005.34977         0.71838         6.05688
     2005.35250        -5.18838         6.17724
     2005.35524         6.78485         6.33032
     2005.35798        -0.94391         6.26698
     2005.36072        -9.10167         6.32082
     2005.36345        -8.40243         6.30287
     2005.36619        -0.06519         6.33138
     2005.36893         7.34004         6.33455
     2005.37167        -0.56772         6.48552
     2005.37441         9.04852         6.32188
     2005.37714         4.84076         6.31132
     2005.37988        -0.38001         6.35777
     2005.38262        -7.55677         6.27859
     2005.38536        -0.99553         6.37361
     2005.38810        -4.72529         6.26064
     2005.39083        -8.21505         6.28493
     2005.39357        -0.94082         6.20891
     2005.39631        -4.32758         6.23742
     2005.39905        -4.86034         6.20786
     2005.40178         1.05490         6.29443
     2005.40452        -1.04287         6.38417
     2005.40726        -2.42463         6.25009
     2005.41000        -0.44339         6.29337
     2005.41274         1.80685         6.22686
     2005.41547        -5.99191         6.19624
     2005.41821        -4.68468         6.06322
     2005.42095        -0.18344         6.17407
     2005.42369         3.41980         6.13184
     2005.42643        -1.46796         6.13606
     2005.42916        -3.50973         6.06005
     2005.43190         1.38851         6.11706
     2005.43464         2.38075         6.12973
     2005.43738         0.24399         6.23742
     2005.44011        -2.60177         6.27120
     2005.44285        -1.01454         6.32399
     2005.44559        -1.64430         6.29232
     2005.44833        -3.92106         6.28598
     2005.66736        -3.08304         6.15190
     2005.67009         2.77420         6.19835
     2005.67283         0.66944         6.14662
     2005.67557         5.20768         6.18252
     2005.67831        -6.29909         6.10967
     2005.68105        -5.18785         6.17618
     2005.68378        -5.16661         6.23003
     2005.68652         1.96163         6.30815
     2005.68926        -0.64514         6.18146
     2005.69200        -5.84290         6.23636
     2005.69473         8.02234         6.17407
     2005.69747        -0.68542         6.19624
     2005.69987         8.75504         7.41881
     2005.95757        -1.21183         6.11073
     2005.96031         0.84440         6.03049
     2005.96304        -1.21336         5.96398
     2005.96578        -9.00912         6.52036
     2005.96852         1.75012         6.58476
     2005.97126        -0.48564         6.12973
     2005.97400        -7.21041         6.19941
     2006.59001         7.98110         6.44857
     2006.59275        -8.88567         6.46968
     2006.59549         0.09257         6.33877
     2006.59823         1.92481         6.35249
     2006.60096        -2.78695         6.16985
     2006.60370         1.64528         6.15296
     2006.60644         2.79652         6.24270
     2006.60918        -0.52524         6.21419
     2006.61191        -3.60300         6.17513
     2006.61465         2.61924         6.17513
     2006.61739         7.01047         6.10650
     2006.62013         7.22271         6.25853
     2006.62287        -4.60205         6.21419
     2006.62560         0.66419         6.13395
     2006.62834        -0.74258         6.29443
     2006.63108         0.77966         6.08750
     2006.63382         6.31890         6.09067
     2006.63656        -0.03186         6.30182
     2006.63929         0.19338         6.16246
     2006.64203         3.82761         6.17302
     2006.64477         7.08585         6.19308
     2006.64751         7.52809         6.33244
     2006.65024         3.56033         6.52881
     2006.65298         0.66456         6.53092
     2006.65572        -1.23620         6.51086
     2006.65846        -3.12696         6.52669
     2006.66120         1.49028         6.49502
     2006.66393         2.02552         6.52775
     2006.66667        -4.41925         6.50664
     2006.66941        -1.61501         6.57315
     2006.67215        -0.23877         6.47180
     2006.67488         3.14247         6.60377
     2006.67762        -5.77430         6.75052
     2006.68036        -9.26906         6.61538
     2006.68310         5.25718         6.80858
     2006.68584        -0.48158         6.75263
     2006.68857         3.66666         6.35355
     2006.69131         1.81389         6.34827
     2006.69405         1.87113         6.32927
     2006.69679         3.34437         6.31238
     2006.69953         7.25761         6.29232
     2006.70226        13.03584         6.50664
     2006.70500         3.83708         6.44118
     2006.70774         4.13732         6.30815
     2006.71048         6.29556         6.17724
     2006.71321         6.68880         6.15401
     2006.71595         9.57503         6.30182
     2006.71869         8.18227         6.23953
     2006.72143         9.51451         6.48552
     2006.72417        10.86075         6.63966
     2006.72690         5.87198         6.36094
     2006.72964         6.53122         6.29020
     2006.73238         6.93846         6.18357
     2006.73512         4.66570         6.14134
     2006.73786        -0.39706         6.20574
     2006.74059         9.29517         6.22052
     2006.74333        13.75841         6.18991
     2006.74607         9.40965         6.17302
     2006.74881         9.11789         6.22897
     2006.75154         5.32012         6.54148
     2006.75428         1.56136         6.59004
     2006.75702        12.30260         6.34088
     2006.75962        10.01393         6.57843
     2007.24162        -6.31631         5.95870
     2007.24436         8.43593         6.04210
     2007.24710        -7.46184         6.04105
     2007.24983        -5.10760         6.13606
     2007.25257        -6.05936         6.01254
     2007.25531         0.95988         6.01465
     2007.25805        -4.16689         6.17513
     2007.26079         0.01935         6.10017
     2007.26352         2.20559         5.97770
     2007.26626         5.76483         6.03471
     2007.26900         0.34707         6.19413
     2007.27174         4.67330         6.20363
     2007.27447         4.01254         6.09383
     2007.27721         2.79578         5.96292
     2007.27995         4.97302         5.98192
     2007.28269         3.54025         5.98826
     2007.28543         2.87649         6.01465
     2007.28816         0.09973         5.99882
     2007.29090         1.51797         6.02732
     2007.29364         0.83421         6.02521
     2007.29638         3.38244         6.03788
     2007.29911         0.54068         6.09278
     2007.30185         5.75792         6.01148
     2007.30459        -5.53084         5.97664
     2007.30733         3.21939         6.06427
     2007.31007         2.49363         6.14979
     2007.31280         2.74987         6.08644
     2007.31554         3.95411         6.04105
     2007.31828         1.72335         6.11706
     2007.32102         1.47658         6.00832
     2007.32376        -5.28018         6.02310
     2007.32649        -1.62494         5.99776
     2007.32923        -2.01470         6.01254
     2007.33163        -4.99425         6.89832
     2007.89049        -5.89096         6.10334
     2007.89323        -6.82072         6.25642
     2007.89597        -4.46948         6.24481
     2007.89870        -4.04724         6.16985
     2007.90144        -6.34101         6.13501
     2007.90418       -11.87977         6.14557
     2007.90692        -5.00953         6.25959
     2007.90966        -9.70829         6.11600
     2007.91239        -2.31006         6.19096
     2007.91513         1.85618         6.21630
     2007.91787        -3.74858         6.12762
     2007.92061       -12.30634         6.29548
     2007.92334        -4.12610         6.33560
     2007.92608        -4.60887         6.13501
     2007.92882        -5.41563         6.25009
     2007.93156       -10.30439         6.19519
     2007.93430         0.26285         6.19730
     2007.93703        -4.42392         6.21947
     2007.93977        -5.60168         6.17196
     2007.94251        -3.64244         6.22052
     2007.94525        -5.40920         6.37467
     2007.94799        -2.33396         6.35883
     2007.95072        -1.92873         6.39895
     2007.95346        -1.33349         6.27120
     2007.95620        -2.66925         6.26381
     2007.95894         3.20499         6.31871
     2007.96167         2.49122         6.31343
     2007.96441        -8.90754         6.22475
     2007.96715        -8.16730         6.27859
     2007.96989        -3.96406         6.23319
     2007.97263        -7.21582         6.32504
     2007.97536        -9.27859         6.27437
     2007.97810        -7.27235         6.25536
     2007.98084         0.82289         6.21841
     2007.98358        -5.45487         6.22686
     2007.98632         0.03737         6.36200
     2007.98905        -2.13640         6.28387
     2007.99179        -3.05616         6.22475
     2007.99453        -5.31392         6.33455
     2007.99727        -0.32968         6.06005
     2008.00000       -11.18345         6.10228
     2008.00274        -8.27021         6.12867
     2008.00548        -0.68997         6.02415
     2008.00822         1.02027         6.08328
     2008.01096         1.11751         6.02099
     2008.01369         2.33674         6.02627
     2008.01643        -1.47302         6.02838
     2008.01917        -1.28378         6.15084
