# ================= DQRFIT RESULTS ================
# INPUT FILE: series/MCMV.rad
# OUTPUT: LDETRENDED
# FILTER FUNCTION: f(t)
# f(t)=+line(t)
# line(t)=+P 1+P 2*t
# heav(t)=(t<0?0:1)
# TOTAL OBSERVATIONS MTOT=  270
# INITIAL TIME INTERVAL= 2005.6450 - 2004.0027 =  1.6423
# TOTAL OBSERVATIONS AFTER PREFILTER M=  270
# TIME-SPAN= 2005.6450 - 2004.0027 =  1.6423
# OBSERVATIONS: USED M=   270 REJECTED MTOT-M=     0 %USED=  100.0000
# N=  2 PARAMETERS
# MAXSIG= 175.00000
# MAXRES=  29.90449
# SCALE FACTOR FOR LENGTHS: SCL=  10.00000
# SCALE FACTOR FOR SIGMAS: SCLSIG=   1.00000
# CHI^2=    270.442 DOF=   268 CHI^2/DOF=   1.00911
# RMS=      6.597 SDEV=      6.609 MEAN=   -0.08885
#  P #       PARAMETER +-    SIGMA %error PARAMETER NAME
# P 1 =      7055.46457 +- 1336.161  18.94 YZERO                              
# P 2 =        -3.49070 +-    0.666  19.09 SLOPE                              
#       T            LDETRENDED       SIG_OBS
     2004.00271        -7.35746         6.24125
     2004.00544         2.97907         6.06244
     2004.01365        -9.11730         6.40097
     2004.01637       -18.86879         6.60791
     2004.02649       -21.87746        15.18171
     2004.03554        -2.69286         6.01120
     2004.03831        -2.77620         6.23120
     2004.04083        -2.70539         6.75959
     2004.04378        -5.03812         6.35275
     2004.04650        -2.07363         6.20609
     2004.09415       -11.76029        14.59204
     2004.09580       -15.16954         6.43914
     2004.09852        -2.32801         6.22316
     2004.10127        -1.17442         6.29248
     2004.10401       -12.58087         6.34572
     2004.10948        -5.98978         6.43111
     2004.11222         0.66479         6.21613
     2004.12043         5.28246         6.26033
     2004.12317         4.34303         6.61896
     2004.12591        14.44257         6.42307
     2004.12867         2.05723         6.27440
     2004.13141        -9.62021         6.20106
     2004.14510         2.29557         6.25029
     2004.14767         9.92353         6.77667
     2004.16699        -7.20302         6.42809
     2004.16974        -5.04243         6.67320
     2004.17248        -4.82284         6.64306
     2004.17518         9.56957         6.63603
     2004.17795        -1.49778         6.42407
     2004.18066        -1.49830         6.44517
     2004.18342        -6.71466         6.33668
     2004.18608        -6.54139         6.82991
     2004.18891         3.91049         6.31659
     2004.19165        -2.44494         6.20910
     2004.19438        -0.92542         6.49540
     2004.19711         0.30812         6.24928
     2004.19973        -4.60573         6.60991
     2004.20248         1.28587         6.63402
     2004.20534        -8.95116         6.48636
     2004.20807         6.25138         6.55667
     2004.21022        23.61487         8.23627
     2004.21350         8.80433         6.65813
     2004.21625        -8.02406         6.71238
     2004.21903         3.12263         6.60489
     2004.22131         4.63859         7.84852
     2004.22672        29.90449         7.83345
     2004.22998        -0.98714         6.37485
     2004.23246        17.41552         7.10616
     2004.23546        -0.56303         6.56069
     2004.24651        -1.71145         6.66717
     2004.28316       -12.70949        15.10134
     2004.28473         5.88098         6.24125
     2004.28747         2.58354         5.96801
     2004.29842         8.81577         6.08052
     2004.30116         7.44832         6.05440
     2004.30390        12.70788         6.02728
     2004.30663         3.83944         6.02627
     2004.30937        -3.77501         6.15586
     2004.31211         1.34555         6.06645
     2004.31485         1.12711         6.06244
     2004.31759         3.40866         6.07248
     2004.32032         5.10122         6.32161
     2004.33401        -3.29999         6.48937
     2004.33949         9.23612         6.29750
     2004.34223        -1.54832         6.37184
     2004.34496         4.71823         6.31960
     2004.35592        10.55246         6.09358
     2004.35865        10.36702         6.03431
     2004.36139         5.06458         5.98810
     2004.36961         5.91025         6.11467
     2004.37234         7.39481         5.96600
     2004.37782        -2.57508         6.17394
     2004.39972         4.08438         6.27741
     2004.40246         1.68693         6.28545
     2004.40520         4.44449         6.20810
     2004.40794         1.47605         6.02828
     2004.41341        -0.93584         6.16490
     2004.41615         4.99172         5.99915
     2004.41889         2.42027         6.08855
     2004.42162         3.35083         6.02627
     2004.42436        -2.88361         6.06143
     2004.42710         5.76795         6.32462
     2004.42984        14.59750         6.12773
     2004.43258         1.77006         6.17093
     2004.43531         6.29662         6.01723
     2004.43805         5.50617         6.00317
     2004.44079        -1.01327         6.13677
     2004.44353         5.89429         6.06746
     2004.44626        -1.01916         6.14883
     2004.44899         6.86635         6.12170
     2004.45174        -1.68404         6.30554
     2004.45448        -0.84048         6.28444
     2004.45722         3.39007         6.04536
     2004.46269        -0.96781         6.18298
     2004.46543        -2.66526         6.13878
     2004.46817        -3.83370         6.33969
     2004.47091         8.46886         6.11769
     2004.47364         2.01141         6.21814
     2004.47638        -2.22103         5.96198
     2004.47912        -2.80947         6.08855
     2004.48186        -0.97691         6.21814
     2004.48459        -2.93436         6.10965
     2004.48733         3.75320         6.11970
     2004.49007        -0.90924         6.14682
     2004.49281        -8.71469         6.31860
     2004.49555       -11.04713         6.20408
     2004.50102        -7.11002         6.09860
     2004.50376       -11.67846         6.19001
     2004.50650       -10.77190         6.11668
     2004.50924        -5.20234         6.12271
     2004.51197         5.96021         6.19705
     2004.51471        -4.95923         6.47631
     2004.51745         3.70933         6.00719
     2004.52019         0.40188         6.11869
     2004.52292         0.83744         6.08052
     2004.52566         0.82800         5.97203
     2004.52840         5.79355         6.24325
     2004.53114        -8.90089         6.27841
     2004.53388         6.51667         6.06846
     2004.53661        -3.48877         6.21211
     2004.53935        -3.43922         6.40800
     2004.54209       -10.56966         6.35576
     2004.54483        -6.75510         6.17595
     2004.54757       -20.45255         6.50444
     2004.55030         0.34301         6.18901
     2004.55304         1.53157         6.04134
     2004.55578        -0.57788         6.11869
     2004.56125        -2.95776         6.25631
     2004.56399        -9.40720         6.22015
     2004.56673        -0.95765         6.15084
     2004.57221        -5.41453         6.05340
     2004.57494        -7.36498         6.16791
     2004.57768        -7.32342         6.07951
     2004.58042        -4.26686         6.06043
     2004.58316       -13.55230         6.04837
     2004.58590        -2.06075         6.04435
     2004.58863        -1.09619         6.13677
     2004.59137         4.70637         6.12673
     2005.26601         8.37732        14.34593
     2005.26762         5.27595         6.00216
     2005.27310         0.37106         6.11568
     2005.27583         4.07862         5.99614
     2005.27857         1.73518         6.08454
     2005.28405        -1.24171         6.25330
     2005.28679        -1.92315         6.09358
     2005.28952        -1.96860         6.16691
     2005.29226        -3.49304         6.01924
     2005.29500        -5.92648         6.12170
     2005.29774        -8.09592         6.10865
     2005.30047        -5.07337         6.10061
     2005.30321        -3.07981         6.00819
     2005.30595        -1.49625         6.04837
     2005.30869         1.58630         6.00317
     2005.31143        10.50786         5.97303
     2005.31416        -2.44058         6.00719
     2005.31964        -4.30047         6.05842
     2005.32238        -1.63891         6.24426
     2005.32512        -2.57235         6.09056
     2005.32785        -0.54980         6.09056
     2005.33059        -2.63424         6.12070
     2005.33333         7.16532         6.02426
     2005.33607         2.33287         6.28645
     2005.33880         9.82143         6.01924
     2005.34154        -0.18201         6.14983
     2005.34428         8.02954         5.98006
     2005.34702         1.69010         6.05038
     2005.34976        -6.47934         6.15385
     2005.35249         9.38622         6.03732
     2005.35523        18.49777         6.12572
     2005.35797         7.38933         6.21010
     2005.36071        -1.99311         6.25933
     2005.36344        -0.99456         6.41403
     2005.36618        11.38800         6.21010
     2005.36892         4.51356         6.46426
     2005.37166        19.22311         6.08755
     2005.37440         8.39767         6.31156
     2005.37713        16.72023         6.13778
     2005.37987         7.81279         6.00719
     2005.38261        -7.55866         6.19102
     2005.38535         6.10490         6.22417
     2005.39082        -0.16199         5.97404
     2005.39356        -4.39043         6.12170
     2005.39630        -1.18587         6.14079
     2005.39904         1.63168         6.07148
     2005.40177         2.47424         6.20609
     2005.40451         0.92880         6.19102
     2005.40725         0.31736         6.08855
     2005.40999        -2.08509         6.07750
     2005.41273        -5.36253         6.11869
     2005.41546        -1.63297         6.05038
     2005.41820         1.35358         5.98810
     2005.42094        -0.88386         5.96801
     2005.42368        -0.44630         6.00618
     2005.42642         0.20526         6.20508
     2005.42915        -0.03319         6.02828
     2005.43189        -2.79963         6.02728
     2005.43463        -6.11907         6.03933
     2005.43737        -2.87752         6.10764
     2005.44010        -1.57696         6.42910
     2005.44284         1.66860         6.09056
     2005.44558         1.62315         6.23321
     2005.44832        -6.72829         6.44919
     2005.45106         1.05027         6.16289
     2005.45379        -3.42817         6.26535
     2005.45653        -0.78562         6.26837
     2005.45927         2.62394         6.31056
     2005.46201         2.61750         6.11467
     2005.46475        -1.50695         6.04435
     2005.46748        -4.65739         6.40298
     2005.47022       -15.94683         6.17997
     2005.47296        -8.11928         6.10362
     2005.47570        -0.20472         6.00216
     2005.47843        -2.63916         6.05641
     2005.48117        -4.06960         6.14380
     2005.48391        -5.43705         6.17695
     2005.48665         4.63851         5.98609
     2005.48939         0.93307         5.91778
     2005.49212        -1.09738         5.92783
     2005.49486        -3.71782         6.14481
     2005.49760        -1.85726         6.14280
     2005.50034         3.87329         6.07750
     2005.50308        -4.83715         5.97906
     2005.50581        -1.86459         6.06746
     2005.50855        -4.22703         6.19504
     2005.51129        -8.94348         6.22919
     2005.51403        -8.13192         6.08353
     2005.51676        -2.48336         6.05440
     2005.51950         6.56119         6.13778
     2005.52224        -1.46225         6.15887
     2005.52498        -0.83969         6.08755
     2005.52772        -6.36014         6.01723
     2005.53045        -1.97958         6.05139
     2005.53319        -4.75302         6.14581
     2005.53593        -2.08346         6.20408
     2005.53867         2.94609         6.34070
     2005.54141        -3.72335         6.06445
     2005.54414         7.13721         5.95897
     2005.54688         2.28576         5.99212
     2005.54962         3.72232         5.92481
     2005.55236        -6.45412         6.19202
     2005.55509        -5.40857         6.77366
     2005.55783        -6.00401         6.08956
     2005.56057        -4.30445         6.09760
     2005.56331        -1.65789         6.15084
     2005.56605         0.90666         6.37786
     2005.56878         7.58422         6.39494
     2005.57152        -0.06622         6.45823
     2005.57426        -0.62267         6.02426
     2005.57700        -6.37811         6.04636
     2005.57974         2.11345         6.02225
     2005.58247         2.97900         6.14682
     2005.58520        -0.31447         6.14180
     2005.59069        -3.53532         6.03933
     2005.59342        -4.23377         6.27641
     2005.59616         5.03079         5.99212
     2005.59890         2.16635         6.01221
     2005.60164         5.42790         5.99413
     2005.60438        -0.58654         6.02527
     2005.60711        -0.75398         6.25029
     2005.60985        -1.13343         6.28143
     2005.61259        -0.06187         6.19202
     2005.61533         6.32569         6.07750
     2005.61807         0.07325         6.08152
     2005.62902         2.07747         6.09960
     2005.63175         0.89403         6.00417
     2005.63449        -0.15041         6.10563
     2005.63723         6.27214         6.03431
     2005.63997         0.38470         6.24426
     2005.64271         6.73626         6.05038
     2005.64504        -8.59559         7.37036
