# ================= DQRFIT RESULTS ================
# INPUT FILE: series/MCOY.rad
# OUTPUT: LDETRENDED
# FILTER FUNCTION: f(t)
# f(t)=+line(t)
# line(t)=+P 1+P 2*t
# heav(t)=(t<0?0:1)
# TOTAL OBSERVATIONS MTOT=  628
# INITIAL TIME INTERVAL= 2018.6938 - 2004.1369 = 14.5569
# TOTAL OBSERVATIONS AFTER PREFILTER M=  627
# TIME-SPAN=    0.0000 -    0.0000 =  0.0000
# OBSERVATIONS: USED M=   627 REJECTED MTOT-M=     1 %USED=   99.8408
# N=  2 PARAMETERS
# MAXSIG= 175.00000
# MAXRES=  23.74839
# SCALE FACTOR FOR LENGTHS: SCL=  10.00000
# SCALE FACTOR FOR SIGMAS: SCLSIG=   1.00000
# CHI^2=    735.236 DOF=   625 CHI^2/DOF=   1.17638
# RMS=      6.253 SDEV=      6.258 MEAN=    0.00821
#  P #       PARAMETER +-    SIGMA %error PARAMETER NAME
# P 1 =       -78.98215 +-  115.801 146.62 YZERO                              
# P 2 =         0.04029 +-    0.058 143.10 SLOPE                              
#       T            LDETRENDED       SIG_OBS
     2004.13690         0.87368         6.44692
     2004.13964        -0.85943         6.18336
     2004.14237         0.95146         6.25603
     2004.14511         1.47035         6.26471
     2004.14785         0.30724         6.26254
     2004.15059         1.95112         6.27230
     2004.15332        -6.94799         6.32111
     2004.15606       -12.87610         6.34280
     2004.15880         0.73679         6.29074
     2004.16154         3.23968         6.31894
     2004.16428        -0.83943         6.28857
     2004.16701        -1.59954         6.28531
     2004.16975        -3.61565         6.56840
     2004.17249        -5.54076         6.55863
     2004.17523        -3.19287         6.52935
     2004.17797        -3.02398         6.30484
     2004.18070        -4.83209         6.27772
     2004.18344        -7.09120         6.29507
     2004.18618        -8.76731         6.53152
     2004.18892         1.79158         6.36666
     2004.19165        -3.25153         6.28640
     2004.19439         2.79736         6.30484
     2004.19713         0.02625         6.27772
     2004.19987        -7.21386         6.30158
     2004.20261         0.15603         6.35581
     2004.20534        -1.94408         6.24193
     2004.20808         2.32581         6.62480
     2004.21082         2.41570         6.63564
     2004.21356         4.45659         6.58250
     2004.21629        -3.65252         6.54128
     2004.21903        -5.66163         6.49139
     2004.22177        -0.53074         6.59334
     2004.22451         2.33815         6.62588
     2004.22725         8.18304         6.62805
     2004.22998         2.26593         6.55863
     2004.23272         7.96982         6.60527
     2004.23546        -0.08629         6.58033
     2004.23820        -1.75740         6.58575
     2004.24094        -2.43251         6.78423
     2004.24367         2.19237         6.50115
     2004.24641         5.14726         6.34605
     2004.24915        -2.76985         6.49681
     2004.25189        -3.62896         6.33846
     2004.25462        -1.01007         6.31785
     2004.25736         6.41782         6.36449
     2004.26010         0.15271         6.28857
     2004.42163         2.31821         6.18119
     2004.42437        -1.86190         6.19204
     2004.42711        -1.88001         6.19638
     2004.42985         0.11187         6.25169
     2004.43259         0.20876         6.24084
     2004.43532        -0.82535         6.17468
     2004.43806         5.49954         6.14648
     2004.44080         5.44543         6.32327
     2004.44354         5.85732         6.37750
     2004.44627         4.72321         6.32002
     2004.44901        -6.21090         6.27338
     2004.45175        -6.76001         6.60853
     2004.45449         2.10788         6.73434
     2004.45723        -1.36523         6.44475
     2004.45996        -3.95534         6.51959
     2004.46270        -1.17445         6.44041
     2004.46544        -3.75156         6.26904
     2004.46818         6.92033         6.33412
     2004.47092        -1.80778         6.34931
     2004.47365         2.59111         6.25277
     2004.47639        -2.24400         6.32653
     2004.47913        -4.56211         6.29507
     2004.48187        -0.41222         6.51308
     2004.48460        -0.53733         6.35581
     2004.48734         2.76956         6.33521
     2004.49008         0.00745         6.32002
     2004.49282        -8.75766         6.47187
     2004.49556        -6.49477         6.37100
     2004.49829        -0.20888         6.39811
     2004.50103        -2.75799         6.27013
     2004.50377         4.24390         6.34497
     2004.50651        -7.06321         6.28314
     2004.50924        -4.25632         6.26362
     2004.70637        -0.44527         6.16818
     2004.70911         0.47962         6.10852
     2004.71185        -2.44349         6.14648
     2004.71458        -1.29960         6.32653
     2004.71732        -1.16471         6.21048
     2004.72006        -0.15282         6.18444
     2004.72280        -4.92393         6.07598
     2004.72554        -6.15504         6.12479
     2004.72827        -4.86815         6.12588
     2004.73101        -2.60726         6.12045
     2004.73375        -2.81837         6.11286
     2004.73649        -1.55648         6.12262
     2004.73922        -2.05959         6.15733
     2004.74196        -0.83470         6.13672
     2004.74470         1.89019         6.07056
     2004.74744        -2.72492         6.13998
     2004.75018        -6.66903         6.13672
     2004.75291        -5.10314         6.12262
     2004.75565        -7.36425         6.17468
     2004.75839        -0.59836         6.12371
     2004.76113        -6.95447         6.15733
     2004.76387        -0.32958         6.15950
     2004.76660        -3.14569         6.11394
     2004.76934        -0.88780         6.30267
     2004.77208         1.86409         6.38944
     2004.77482        -2.00702         6.28206
     2004.77755        -1.04713         6.24844
     2004.78029        -1.79124         6.24627
     2004.78303        -7.40135         6.29833
     2004.78577        -3.60146         6.18444
     2004.78851         0.78543         6.20180
     2004.79124         2.47232         6.13781
     2004.79398         6.12521         6.16492
     2004.79672         5.47310         6.20288
     2004.79946         4.09998         6.19746
     2004.80220         5.65787         6.19746
     2004.80493         4.11776         6.19963
     2004.80767         2.78365         6.17360
     2004.81041        -2.54846         6.12371
     2004.81315         0.67743         6.08574
     2004.81588         0.94132         6.10852
     2004.81862         3.23121         6.37317
     2004.82136        -1.32290         6.28640
     2004.82410         0.33799         6.08683
     2004.82684         1.26588         6.11394
     2004.82957         7.20577         6.27881
     2004.83231         5.42666         6.18119
     2004.83505        -2.63045         6.24518
     2004.83779         1.70344         6.11069
     2004.84052         0.94333         6.27881
     2004.84326         1.82722         6.10852
     2004.84600         8.23111         6.13889
     2004.84874         0.28200         6.12913
     2004.85148        -6.18611         6.22024
     2004.85421        -5.52722         6.49898
     2005.22656         9.62578         6.28097
     2005.22930         1.51067         6.22891
     2005.23204         4.54256         6.19204
     2005.23478         7.19245         6.26471
     2005.23751        13.01434         6.28423
     2005.24025        11.51923         6.38944
     2005.24299        10.86712         6.26145
     2005.24573         7.81501         6.39160
     2005.24846         4.74490         6.20939
     2005.25120         3.59679         6.25169
     2005.25394        15.78268         6.55104
     2005.25668        12.41357         6.57924
     2005.25942         9.40746         6.31134
     2005.26215         4.20434         6.36883
     2005.26489        14.08723         6.44692
     2005.26763        11.91412         6.36666
     2005.27037         9.61401         6.37967
     2005.27311         8.50890         6.33521
     2005.27584        10.52779         6.30267
     2005.27858         6.42668         6.33304
     2005.28132         7.26957         6.43065
     2005.28406         4.65246         6.43499
     2005.28679         5.67135         6.40570
     2005.28953        10.72124         6.21590
     2005.29227         6.90013         6.30375
     2005.29501         8.93102         6.24193
     2005.29775         9.17691         6.24952
     2005.30048        10.94780         6.20071
     2005.30322         2.53369         6.18661
     2005.30596         8.44358         6.21373
     2005.30870         5.32047         6.26796
     2005.31144         9.29336         6.27230
     2005.31417         3.83825         6.20071
     2005.31691         2.64214         6.22241
     2005.31965         3.30303         6.19421
     2005.32239         4.97692         6.42523
     2005.32512         2.36381         6.28206
     2005.32786        -0.47930         6.28748
     2005.33060         7.79059         6.23976
     2005.33334         9.66548         6.17468
     2005.33608         4.53437         6.38618
     2005.33881         5.62026         6.28097
     2005.34155         8.27515         6.24410
     2005.34429         7.64504         6.23651
     2005.34703         4.03293         6.18878
     2005.34977         7.29882         6.15841
     2005.35250         4.53171         6.27664
     2005.35524        12.50759         6.42306
     2005.35798         3.79048         6.45451
     2005.36072        -3.54363         6.45994
     2005.36345        -3.05974         6.50115
     2005.36619        10.05815         6.42089
     2005.36893         3.01904         6.51742
     2005.37167         7.70093         6.55538
     2005.37441        14.54282         6.51525
     2005.37714        13.41971         6.47837
     2005.37988         9.97960         6.47946
     2005.38262         5.46949         6.44800
     2005.38536         3.82138         6.36883
     2005.38810        -0.29573         6.39703
     2005.39083        10.31616         6.45343
     2005.39357        -1.09495         6.39703
     2005.39631        -2.87806         6.32544
     2005.39905        -0.12217         6.35473
     2005.40178         1.25572         6.48163
     2005.40452         2.77561         6.53694
     2005.40726         4.41250         6.49464
     2005.41000         4.79139         6.41980
     2005.41274        -1.57172         6.35256
     2005.41547        15.57917         6.29182
     2005.41821        -0.02494         6.25820
     2005.42095         2.88795         6.24735
     2005.42369         4.16784         6.26145
     2005.42643         8.71573         6.22891
     2005.42916         2.83762         6.21807
     2005.43190         1.96051         6.26796
     2005.43464         4.08240         6.28423
     2005.43738         2.54529         6.46970
     2005.44011         0.87118         6.41764
     2005.44285         4.39707         6.59009
     2005.44559         3.69796         6.44584
     2005.44833        -1.57016         6.45885
     2005.66736         0.66302         6.21915
     2005.67009         2.49591         6.18011
     2005.67283         1.00980         6.22024
     2005.67557         1.38069         6.24193
     2005.67831        -2.81642         6.21264
     2005.68105        -5.06653         6.20722
     2005.68378        -3.70164         6.24084
     2005.68652        -1.87075         6.32002
     2005.68926         0.67314         6.27230
     2005.69200        -3.36697         6.39594
     2005.69473        -2.93708         6.34931
     2005.69747        -5.39419         7.26797
     2005.95757        -4.40767         6.17468
     2005.96031        -2.04178         6.14648
     2005.96304        -4.67989         6.09442
     2005.96578        12.78100         6.58250
     2005.96852       -11.65111         6.42957
     2005.97126       -11.41022         6.25061
     2005.97400        -5.79033         6.33954
     2005.97673        -4.40844         6.33954
     2005.97947       -15.22355         6.25386
     2005.98221        -5.28266         6.24627
     2005.98495         1.44923         6.23000
     2005.98768        -6.53288         6.28423
     2005.99042         1.66601         6.28097
     2005.99316        -2.50010         6.40462
     2005.99590        -1.31421         6.32978
     2005.99864         3.25468         6.29182
     2006.00411        -5.57455         6.25711
     2006.00685        -9.58566         6.33737
     2006.00959       -11.09277         6.33521
     2006.01233       -10.79188         6.31460
     2006.01506       -14.10199         6.30375
     2006.01780        -6.23710         6.31785
     2006.02054        -9.88821         6.48163
     2006.59001        -1.05815         6.64974
     2006.59275        -7.08826         6.60202
     2006.59549        -8.74337         6.43824
     2006.59823        -3.47748         6.44475
     2006.60096        -8.06459         6.35581
     2006.60370        -6.79570         6.29399
     2006.60644        -1.04081         6.33629
     2006.60918        -3.84692         6.28206
     2006.61191        -4.34103         6.31785
     2006.61465        -3.18614         6.23000
     2006.61739        -1.52225         6.25928
     2006.62013         2.63264         6.36449
     2006.62287        -1.25747         6.28857
     2006.62560        -4.17458         6.23108
     2006.62834        -5.08069         6.39811
     2006.63108        -5.30380         6.19854
     2006.63382        -3.07591         6.18553
     2006.63656        -8.03102         6.33629
     2006.63929        -2.06613         6.27338
     2006.64203        -3.26724         6.33087
     2006.64477        -1.40935         6.24627
     2006.64751         4.40854         6.43716
     2006.65024        -7.86757         6.55321
     2006.65298        -6.80669         6.58141
     2006.65572        -9.27380         6.55321
     2006.65846        -6.52591         6.57924
     2006.66120        -4.35902         6.61720
     2006.66393        -8.38913         6.58683
     2006.66667        -6.40724         6.63998
     2006.66941       -13.62235         6.62263
     2006.67215        -6.95846         6.54887
     2006.67488        -9.19857         6.81569
     2006.67762        -7.82868         6.82545
     2006.68036       -13.77079         6.75603
     2006.68310         0.57410         6.89053
     2006.68584        -6.06801         6.84823
     2006.68857        -2.30612         6.49790
     2006.69131        -3.26923         6.51308
     2006.69405        -2.23534         6.45560
     2006.69679        -5.87145         6.43174
     2006.69953        -3.21356         6.44475
     2006.70226        -2.33567         6.59009
     2006.70500        -2.76978         6.67143
     2006.70774        -0.61589         6.31568
     2006.71048         1.64100         6.32327
     2006.71321        -0.80811         6.31568
     2006.71595         0.85578         6.35581
     2006.71869         0.29267         6.38401
     2006.72143         3.69156         6.56731
     2006.72417         1.31045         6.68879
     2006.72690        -0.21866         6.44041
     2006.72964        -1.10477         6.40137
     2006.73238         1.49412         6.24518
     2006.73512        -1.28499         6.30375
     2006.73786        -3.84710         6.34063
     2006.74059         0.17179         6.32653
     2006.74333         2.32668         6.30809
     2006.74607         6.34256         6.29941
     2006.74881         1.19245         6.34171
     2006.75154         4.28934         6.63564
     2006.75428         2.11323         6.57816
     2006.75702         6.69012         6.51091
     2006.75959         6.02102         6.69096
     2007.24162         1.45960         6.08683
     2007.24436         7.10549         6.19095
     2007.24710        16.24438         6.21481
     2007.24983         8.99127         6.27013
     2007.25257         3.00816         6.11503
     2007.25531        -1.85695         6.15733
     2007.25805        -0.90706         6.25169
     2007.26079         3.39883         6.23108
     2007.26352         8.97672         6.10744
     2007.26626        13.52861         6.13672
     2007.26900        14.65650         6.37642
     2007.27174        23.74839         6.35690
     2007.27447        12.02628         6.19421
     2007.27721        11.79617         6.07815
     2007.27995        10.11306         6.09659
     2007.28269         8.77695         6.25386
     2007.28543         9.15884         6.16384
     2007.28816        11.31273         6.17143
     2007.29090        11.42362         6.20831
     2007.29364         9.17651         6.20831
     2007.29638         9.84140         6.23434
     2007.29911         8.19929         6.23434
     2007.30185        11.12717         6.13455
     2007.30459         6.16606         6.15733
     2007.30733         8.07495         6.15516
     2007.31007         3.39384         6.23976
     2007.31280        14.23073         6.23651
     2007.31554         9.57062         6.11828
     2007.31828         3.12551         6.13998
     2007.32102         2.15540         6.16384
     2007.32376         2.45129         6.11611
     2007.32649         4.30018         6.12479
     2007.32923         4.16707         6.13889
     2007.33166         5.79197         6.98922
     2007.89049        -1.01554         6.22783
     2007.89323         0.72035         6.36991
     2007.89597         1.87424         6.32436
     2007.89870        -0.13387         6.23976
     2007.90144        -2.10198         6.23759
     2007.90418         2.72791         6.22457
     2007.90692        -2.48220         6.29616
     2007.90966        -2.26831         6.24518
     2007.91239        -0.80942         6.25820
     2007.91513         1.03547         6.22241
     2007.91787         0.37636         6.22674
     2007.92061       -10.23475         6.39703
     2007.92334        -0.55786         6.37425
     2007.92608         6.78503         6.28097
     2007.92882        -0.85908         6.32653
     2007.93156        -3.17319         6.31134
     2007.93430        -1.54130         6.33629
     2007.93703        -4.65941         6.32653
     2007.93977        -6.33152         6.29507
     2007.94251        -1.64363         6.33304
     2007.94525        -4.46774         6.49356
     2007.94799        -4.77885         6.40137
     2007.95072        -2.40497         6.39920
     2007.95346         0.15592         6.36991
     2007.95620        -4.16519         6.40245
     2007.95894         1.81270         6.48163
     2007.96167         1.20659         6.45234
     2007.98632         8.00560         6.43607
     2007.98905        -6.23151         6.42197
     2007.99179        -7.77662         6.37859
     2007.99453       -15.39573         6.49356
     2007.99727        -1.50684         6.22566
     2008.00000       -10.75995         6.24518
     2008.00274        -6.25506         6.23867
     2008.00548         0.10583         6.18770
     2008.00822        -2.76928         6.18661
     2008.01096         2.61461         6.14323
     2008.01369         1.34350         6.18878
     2008.04107        -6.12860         6.29074
     2008.04381        -5.35272         6.23000
     2008.04655        -5.47483         6.27013
     2008.04929        -7.00094         6.18119
     2008.05202        -3.27505         6.22457
     2008.05476        -3.02916         6.15516
     2008.05750        -5.02327         6.11286
     2008.06024        -2.90038         6.12588
     2008.06298        -0.45649         6.16384
     2008.06571        -1.23360         6.20939
