# ================= DQRFIT RESULTS ================
# INPUT FILE: series/MDRS.rad
# OUTPUT: LDETRENDED
# FILTER FUNCTION: f(t)
# f(t)=+line(t)+annual(t)
# line(t)=+P 1+P 2*t
# annual(t)=+P 3*sin(2*pi*t+P 4)
# heav(t)=(t<0?0:1)
# TOTAL OBSERVATIONS MTOT= 4031
# INITIAL TIME INTERVAL= 2021.4317 - 2009.7440 = 11.6877
# TOTAL OBSERVATIONS AFTER PREFILTER M= 4018
# TIME-SPAN= 2021.4317 - 2009.7440 = 11.6877
# OBSERVATIONS: USED M=  4018 REJECTED MTOT-M=    13 %USED=   99.6775
# N=  4 PARAMETERS
# MAXSIG= 175.00000
# MAXRES=  23.66224
# SCALE FACTOR FOR LENGTHS: SCL=  10.00000
# SCALE FACTOR FOR SIGMAS: SCLSIG=   1.00000
# CHI^2=   3476.347 DOF=  4014 CHI^2/DOF=   0.86606
# RMS=      5.340 SDEV=      5.340 MEAN=    0.10449
#  P #       PARAMETER +-    SIGMA %error PARAMETER NAME
# P 1 =      4804.60025 +-   49.380   1.03 YZERO                              
# P 2 =        -2.38448 +-    0.024   1.03 SLOPE                              
# P 3 =         3.83895 +-    0.115   2.99 ANNUAL AMPLITUDE                   
# P 4 =        -2.97177 +-    0.042   1.40 ANNUAL PHASE                       
#       T            LDETRENDED       SIG_OBS
     2009.74401         9.63527         5.45158
     2009.74674         3.15879         5.25894
     2009.74948         1.34332         5.27569
     2009.75222         0.54885         5.30454
     2009.75496         1.16338         5.39946
     2009.75770         3.33191         5.43762
     2009.76043         3.95744         5.21985
     2009.76317         5.06196         5.27941
     2009.76591         3.36849         5.31105
     2009.76865        -0.06098         5.36503
     2009.77138        -1.20445         5.24219
     2009.77412         0.85408         5.23195
     2009.77686         0.09761         5.20682
     2009.77960         4.12513         5.59024
     2009.78234         6.80366         5.22637
     2009.78507         4.03919         5.32594
     2009.78781        -1.10728         5.37713
     2009.79055        -4.89175         5.38457
     2009.79329        -0.49922         5.41994
     2009.79603        -3.77870         5.48229
     2009.79882         0.10297         5.44692
     2009.80150        -4.46664         5.51951
     2009.80424         1.87489         5.45251
     2009.80698        -0.59258         5.43948
     2009.80971         2.94695         5.37806
     2009.81245         0.74747         5.50742
     2009.81519         1.88600         5.44599
     2009.81793        -1.09347         5.56418
     2009.82067        -1.66594         5.44786
     2009.82340         3.63759         5.33153
     2009.82614         6.59912         5.32315
     2009.82888         3.40364         5.42924
     2009.83162         9.27517         5.62095
     2009.83436        -4.27330         5.34828
     2009.83709        -4.60777         5.42366
     2009.83983        -0.81924         5.42273
     2009.84257         2.88429         5.34270
     2009.84525         6.10468         5.59582
     2009.84804         0.90234         5.86384
     2009.85078        14.58287         5.42831
     2009.85352         4.41440         5.38643
     2009.85626        -1.53507         5.38457
     2009.85905        -0.48341         5.55767
     2009.86173        -8.11602         5.46461
     2009.86447         2.44351         5.72053
     2009.86721         2.79504         5.54650
     2009.86995         1.32657         5.35107
     2009.87269         3.50710         5.72704
     2009.87548        -2.82924         5.53813
     2009.87816         6.64815         5.59862
     2009.88090        -1.30132         5.69354
     2009.88364         3.97621         5.35293
     2009.88626         4.88747         5.58466
     2009.88911         0.33827         5.63026
     2009.89185         2.66080         5.51114
     2009.89459        -3.37767         5.34549
     2009.89733        -8.02215         5.31292
     2009.90006        -5.37262         5.24033
     2009.90280        -2.75009         5.20869
     2009.90554        -6.57556         5.23847
     2009.90828        -5.38403         5.21241
     2009.91102        -8.30450         5.38830
     2009.91375        -2.48198         5.20589
     2009.91649        -5.81745         5.25149
     2009.91929        -9.81678         5.27755
     2009.92197        -7.86939         5.14447
     2009.92470        -8.16786         5.17798
     2009.92744        -5.55433         5.22451
     2009.93018        -4.12581         5.20031
     2009.93292        -2.55028         5.20124
     2009.93566        -5.46375         5.44879
     2009.93839        -3.72122         5.33153
     2009.94113        -2.31669         5.21613
     2009.94387        -4.05716         5.30268
     2009.94661         0.05636         5.32408
     2009.94935        -0.74911         5.17053
     2009.95208        -2.94158         5.15843
     2009.95482       -12.47005         5.19287
     2009.95756         0.88648         5.37899
     2009.96030       -10.32499         5.23195
     2009.96303        -8.88947         5.20869
     2009.96577        -9.79694         5.25429
     2009.96851        -9.23841         5.31012
     2009.97125        -2.93388         5.32781
     2009.97399        -3.73235         5.23567
     2009.97672       -11.12182         5.15099
     2009.97952       -11.86316         5.24963
     2009.98220       -10.78577         5.12679
     2009.98494        -6.81524         5.40319
     2009.98767        -7.41871         5.08864
     2009.99041       -11.14118         5.15099
     2009.99315        -7.80065         5.16960
     2009.99589       -11.85813         5.13889
     2009.99863        -7.59460         5.12307
     2010.00410        -7.63254         5.19380
     2010.00684       -13.99301         5.37527
     2010.00958       -10.63648         5.15099
     2010.01232         0.01404         5.28500
     2010.01505       -12.42243         5.16588
     2010.02059        -4.02224         5.25987
     2010.02327        -7.43184         5.18635
     2010.02600        -9.33731         5.17984
     2010.02874        -5.01679         5.25894
     2010.03148        -6.35226         5.33060
     2010.03422        -5.47873         5.24870
     2010.03696        -2.86420         5.74938
     2010.03969        -3.00767         6.01553
     2010.04243        -2.89714         7.70182
     2010.04514         8.20732        11.15722
     2010.04796         7.67205         6.86519
     2010.05067         1.83650         6.58787
     2010.05339         4.64199         5.92619
     2010.05612        10.53850         6.74421
     2010.05885         8.03000         9.57423
     2010.06160        -1.60945         6.92475
     2010.06433        -5.15392         5.32222
     2010.06707        -5.71839         5.20217
     2010.06981       -10.55786         5.90386
     2010.07255        -2.32233         6.52551
     2010.07529        -8.10680         6.19049
     2010.07797         0.56659         7.17416
     2010.08076        -6.03975         6.27611
     2010.08350        -3.93122         5.94015
     2010.08629        -0.29056         6.75166
     2010.08898        11.91684         6.74049
     2010.09171         4.60437         5.87408
     2010.09445         2.65189         5.94295
     2010.09719         2.52942         6.62230
     2010.09993         2.92395         9.40858
     2010.10266        -1.27152         7.98194
     2010.10540        -2.66799         7.60504
     2010.10814         1.41754         7.41705
     2010.11088        10.54606        10.08700
     2010.11362         6.12259         7.87305
     2010.11635         8.39212         7.77441
     2010.11909         2.14865         6.81587
     2010.12183         2.44518         6.47154
     2010.12457         5.55771         7.18346
     2010.12731         1.84623         7.84327
     2010.13004        -5.69724         7.40495
     2010.13278        -3.58071         7.72136
     2010.13552        -0.51718         7.53803
     2010.13716        -3.22426        19.56072
     2010.14117        -2.78871        12.77091
     2010.14373        -7.61360         8.11688
     2010.14647        -3.01607         6.86705
     2010.14915         0.01032         7.93820
     2010.15200         2.50012         7.40402
     2010.15468        -1.18048         7.12204
     2010.15748        10.69518         6.52645
     2010.16016         2.50557         5.97738
     2010.16290        -4.75590         5.91875
     2010.16564         3.10463         5.92806
     2010.16837         5.20716         6.51342
     2010.17111         0.00969         5.87966
     2010.17385        -1.04678         6.33660
     2010.17659        -3.90626         5.87966
     2010.17932        -1.35273         5.67400
     2010.18206         5.41580         5.62374
     2010.18480         1.32533         5.71401
     2010.18754         0.76186         5.81266
     2010.19028         2.66639         6.02949
     2010.19301         6.76891         5.74938
     2010.19564         1.11917         6.72653
     2010.19849         2.05997         6.88660
     2010.20123        -6.82350         6.52179
     2010.20397        -6.50797         5.94667
     2010.20670        -7.34544         6.02484
     2010.20944        -3.30092         5.69726
     2010.21218        -2.95839         5.63584
     2010.21492         2.72214         5.87780
     2010.21765        -3.02033         6.04811
     2010.22039        -1.05980         6.26680
     2010.22313        -7.83827         5.72704
     2010.23408       -11.11816         5.49346
     2010.24503        -1.02705         5.60048
     2010.24777        -3.95952         5.29710
     2010.25051        -0.21799         5.52882
     2010.25325         0.05654         5.38737
     2010.25598         4.28507         5.27383
     2010.25872         6.95359         5.39574
     2010.26146        -0.54188         5.37992
     2010.26420         0.74065         5.48880
     2010.26694         5.03318         5.65352
     2010.26967         0.27071         5.33153
     2010.27241        -0.46376         5.30454
     2010.27515        -1.02824         5.20403
     2010.27789        -4.27571         5.27848
     2010.28062        -1.65118         5.20589
     2010.28336        -2.84265         5.31385
     2010.28610        -2.55212         5.26732
     2010.28884        -1.33659         5.46088
     2010.29158        -3.24207         5.22451
     2010.29437         0.78660         5.36503
     2010.29705        -4.83501         5.14727
     2010.29985         0.62665         5.38178
     2010.30253         4.03805         5.23940
     2010.30527         3.57158         5.41435
     2010.30800         3.94510         5.18635
     2010.31074         1.58663         5.96249
     2010.31348         3.65616         5.59582
     2010.31622         2.88669         5.51765
     2010.31895         2.27722         5.45437
     2010.32169         2.69975         5.14727
     2010.32443         2.52027         5.23009
     2010.32723        -3.11706         5.24870
     2010.32991         2.86133         5.17704
     2010.33264         2.44086         5.15471
     2010.33538         7.03639         5.91968
     2010.33812        -5.15308         5.14261
     2010.34086        -6.88756         5.07095
     2010.34360        -6.78503         5.09887
     2010.34639        -2.86536         5.33525
     2010.34913        -7.71484         5.20124
     2010.35187        -3.20931         5.18635
     2010.35455        -3.31491         5.07840
     2010.35728        -5.43339         6.15885
     2010.36002        -3.76086         5.40970
     2010.36276        -5.55133         5.12586
     2010.36550        -4.64980         5.32315
     2010.36824        -1.79027         5.27941
     2010.37097        -1.73374         5.18542
     2010.37371         2.71878         5.13517
     2010.37645         0.77331         5.11562
     2010.37919        -1.16316         5.56604
     2010.38193        -7.84363         5.52789
     2010.38466        -1.97110         5.25056
     2010.38746         0.78856         5.25243
     2010.39014        -2.63705         5.16029
     2010.39288        -3.89152         5.14633
     2010.39561        -6.07299         5.20962
     2010.39835        -3.91146         5.08677
     2010.40109        -4.18893         5.60792
     2010.40383       -10.46440         5.06723
     2010.40657         0.57512         5.06258
     2010.40930        -1.75635         5.05048
     2010.41204        -6.74482         5.07095
     2010.41478         2.08271         5.07747
     2010.41752        -5.14076         5.08398
     2010.42026         2.12977         5.21613
     2010.42299        -4.33271         5.22171
     2010.42573       -10.20518         5.06444
     2010.42847       -12.41565         5.15471
     2010.43121       -11.13612         5.16588
     2010.43394        -8.48559         5.07282
     2010.43668        -8.45106         5.16588
     2010.43942        -2.82654         5.04676
     2010.44216       -11.18501         5.00674
     2010.44490        -9.36648         5.02070
     2010.44769        -4.57281         5.19659
     2010.45037        -4.69442         5.09422
     2010.45311        -8.46689         5.05420
     2010.45585        -7.66437         5.03373
     2010.45859        -8.59084         5.16495
     2010.46132        -6.35131         5.16122
     2010.46406        -7.15678         5.13610
     2010.46680        -3.32325         5.02070
     2010.46954        -6.48972         5.15936
     2010.47227       -11.80620         5.09515
     2010.47501        -9.59567         5.08584
     2010.47775        -0.52114         5.19473
     2010.48049        -1.35361         5.25243
     2010.48323        -1.23708         5.10166
     2010.48596         8.61845         5.08957
     2010.48899         2.66465         5.57349
     2010.49144        -1.97650         5.12121
     2010.49418        -2.34097         5.48601
     2010.49692         1.75056         6.57391
     2010.49965        -9.34991         8.75901
     2010.50214         6.76803        15.11049
     2010.52977         0.26190         5.48694
     2010.53251        -6.08757         5.09794
     2010.53525        -1.03304         5.09329
     2010.53798        -2.67552         5.10539
     2010.54072       -10.76499         5.04583
     2010.54346        -2.14446         5.11935
     2010.54620        -3.86393         5.23102
     2010.54893        -5.41040         5.08677
     2010.55167        -8.15187         5.02908
     2010.55441        -0.09535         5.15471
     2010.55715        -4.21982         5.08677
     2010.55989        -4.46229         5.04117
     2010.56262        -4.94576         5.11190
     2010.56536        -3.31223         5.47857
     2010.56810        -4.80570         5.11655
     2010.57084        -1.56118         5.07468
     2010.57357        -3.42065         5.21148
     2010.57631        -3.40812         5.25149
     2010.57905         0.50241         5.29244
     2010.58179        -4.57406         5.51579
     2010.58453        -6.53253         5.08026
     2010.58726        -0.62501         5.15099
     2010.59000        -2.23148         5.20217
     2010.59274        -0.06695         5.10166
     2010.59548        -0.77742         5.15750
     2010.59822        -2.61289         5.03466
     2010.60095        -0.29436         5.55860
     2010.60369        -3.23884         5.15006
     2010.60643         0.01469         5.16867
     2010.60917        -0.91178         5.11562
     2010.61190        -1.30925         4.98906
     2010.61464         1.48328         5.02721
     2010.61738         1.35081         5.72425
     2010.62012        -5.05367         5.09329
     2010.62286        -4.09814         5.12121
     2010.62559        -0.76261         5.04490
     2010.62833         5.60292         5.09701
     2010.63107         2.38345         5.24219
     2010.63381         6.01398         5.10539
     2010.63655         5.16750         5.37713
     2010.63928        -1.48197         5.06351
     2010.64202        -4.72244         5.07468
     2010.64476        -4.69991         5.11562
     2010.64750        -3.90738         5.07002
     2010.65023         2.26015         5.26173
     2010.65297        -9.26633         5.27569
     2010.65571         0.41420         4.99092
     2010.65845         2.60573         5.03931
     2010.66119        -0.96474         5.09980
     2010.66392         1.97679         5.07188
     2010.66666         5.44632         5.13889
     2010.66940         1.02984         4.98813
     2010.67214         1.22637         5.37154
     2010.67488        -3.65910         5.15378
     2010.67761         5.78543         5.16774
     2010.68035        -2.12704         5.04676
     2010.68309         7.09849         5.08119
     2010.68583         2.21601         5.08305
     2010.68856        -5.13846         5.04862
     2010.69130        -1.69793         4.99557
     2010.69404        -3.68040         5.11842
     2010.69678        -8.22287         5.00116
     2010.69952        -8.15934         5.05979
     2010.70225        -0.96782         5.14075
     2010.70499        -2.71029         5.06630
     2010.70773        -3.48276         5.03931
     2010.71047         2.39177         5.05327
     2010.71321        -6.76970         5.07747
     2010.71594        -1.60317         5.15192
     2010.71868        -0.28265         5.04583
     2010.72142         2.51388         5.16867
     2010.72416         2.25341         5.62840
     2010.72689        -0.56606         5.36038
     2010.72963         2.25547         5.09980
     2010.73237        -3.32900         5.06537
     2010.73511        -1.76948         5.10725
     2010.73785         0.33805         5.27011
     2010.74058        -1.31442         5.16215
     2010.74332        -2.80189         5.07282
     2010.74606         0.76664         5.13889
     2010.74880        -2.96083         5.10166
     2010.75154         1.21669         5.04397
     2010.75427         3.10922         5.21241
     2010.75701         2.22775         5.23940
     2010.75975        -6.44772         5.10166
     2010.76249        -0.50619         5.11097
     2010.76522         0.16934         5.00488
     2010.76796        -4.86114         5.06537
     2010.77070        -6.55461         5.07654
     2010.77344        -1.98008         5.25243
     2010.77618        -3.66555         5.38830
     2010.77891        -7.78902         5.02628
     2010.78165        -1.19549         4.98999
     2010.78439        -2.42897         5.10539
     2010.78713         9.43556         5.36317
     2010.78987         1.44509         5.03094
     2010.79260        -2.40038         5.35293
     2010.79534        -2.83985         4.98068
     2010.79808         1.50768         5.04490
     2010.80082         0.80720         5.02535
     2010.80355         1.55473         5.03652
     2010.80629         4.35526         5.08119
     2010.80903         2.92579         5.04304
     2010.81177         5.46832         5.45902
     2010.81451        10.10585         5.08957
     2010.81724         2.69837         5.07561
     2010.81998         0.88090         5.09980
     2010.82272        -0.15357         5.19845
     2010.82546         1.20596         5.09422
     2010.82820         2.07149         5.11655
     2010.83093        -1.94498         5.39295
     2010.83367         4.94554         5.41715
     2010.83641       -10.14793         5.15936
     2010.83915        -6.10140         5.11004
     2010.84188        -4.39387         5.13889
     2010.84462        -0.40634         5.10353
     2010.84736         0.24619         5.10911
     2010.85010         5.88371         5.19938
     2010.85284         3.66324         5.13889
     2010.85557         3.66377         5.10446
     2010.85831        -1.41870         5.04117
     2010.86105        -4.26617         5.04955
