# ================= DQRFIT RESULTS ================
# INPUT FILE: series/MGRB.rad
# OUTPUT: LDETRENDED
# FILTER FUNCTION: f(t)
# f(t)=+line(t)+annual(t)
# line(t)=+P 1+P 2*t
# annual(t)=+P 3*sin(2*pi*t+P 4)
# heav(t)=(t<0?0:1)
# TOTAL OBSERVATIONS MTOT= 1369
# INITIAL TIME INTERVAL= 2022.7488 - 2019.0007 =  3.7481
# TOTAL OBSERVATIONS AFTER PREFILTER M= 1217
# TIME-SPAN= 2022.7488 - 2019.0007 =  3.7481
# OBSERVATIONS: USED M=  1217 REJECTED MTOT-M=   152 %USED=   88.8970
# N=  4 PARAMETERS
# MAXSIG= 175.00000
# MAXRES=  38.10717
# SCALE FACTOR FOR LENGTHS: SCL=  10.00000
# SCALE FACTOR FOR SIGMAS: SCLSIG=   1.00000
# CHI^2=   2391.816 DOF=  1213 CHI^2/DOF=   1.97182
# RMS=      7.621 SDEV=      7.624 MEAN=   -0.03765
#  P #       PARAMETER +-    SIGMA %error PARAMETER NAME
# P 1 =     -6399.98974 +-  395.845   6.19 YZERO                              
# P 2 =         3.16108 +-    0.196   6.20 SLOPE                              
# P 3 =         6.42167 +-    0.303   4.73 ANNUAL AMPLITUDE                   
# P 4 =        -2.66486 +-    0.059   2.21 ANNUAL PHASE                       
#       T            LDETRENDED       SIG_OBS
     2019.00068        -7.36887         7.44655
     2019.00342        -4.76553         7.48166
     2019.00616        -4.60618         7.48306
     2019.00889        -1.67784         7.55046
     2019.01163       -14.89349         7.40442
     2019.01437       -14.54615         7.49429
     2019.01711       -34.72180         7.53642
     2019.01984       -31.31446         7.59680
     2019.02532        -0.35877         7.48727
     2019.02806         3.27158         7.41145
     2019.03080        -2.91407         7.46059
     2019.03353        -4.45173         7.30753
     2019.03627        -8.68238         7.26400
     2019.03901        -3.21304         7.28787
     2019.04175        -5.97269         7.24996
     2019.04449        -0.79735         7.27945
     2019.04722        -4.19100         7.50553
     2019.04996        -4.72266         7.66701
     2019.05270        -3.19431         7.61365
     2019.05544        -3.11597         7.43813
     2019.05817        -4.95262         7.80041
     2019.06091       -11.62427         7.57855
     2019.06365        -0.55593         7.40864
     2019.06639         1.23542         7.48727
     2019.06913        -3.84924         7.48446
     2019.07186        -6.48389         7.52800
     2019.07460        -4.16655         7.34404
     2019.07734        -1.17020         7.27383
     2019.08008         0.83114         7.26400
     2019.08282        -0.37151         7.58416
     2019.08555        -1.20117         7.32158
     2019.08829       -12.12582         7.64876
     2019.09103       -27.41947         7.57153
     2019.09377       -37.66613         7.42549
     2019.09650       -16.32578         7.47464
     2019.09924       -10.33144         7.36791
     2019.10198        -8.38609         7.40021
     2019.10472        -4.85075         7.34826
     2019.10746        -3.40740         7.35949
     2019.11019         2.20694         7.34404
     2019.11293         5.20229         7.40864
     2019.11567         6.81663         7.66982
     2019.11841         9.96398         7.35528
     2019.12115        11.35233         7.48306
     2019.12388         1.81667         7.51676
     2019.14305       -27.89191         7.36511
     2019.15400       -35.41253         7.38196
     2019.15674        -2.04518         7.33843
     2019.15948        -2.24384         7.24996
     2019.16221        -6.36849         7.45217
     2019.16495        -5.53515         7.26681
     2019.16769        -9.06780         7.27804
     2019.17043        -7.55646         7.27102
     2019.17316        -5.38511         7.27945
     2019.17590        -3.08977         7.30332
     2019.17864        -1.46442         7.32719
     2019.18138        -3.83608         7.29770
     2019.18412       -11.96473         7.31175
     2019.18685        -6.84038         7.27804
     2019.18959        -7.21504         7.31175
     2019.19233        -4.48769         7.29068
     2019.19507        -4.26835         7.32860
     2019.19780        -8.59000         7.31315
     2019.20054       -21.84166         7.51957
     2019.20328        -9.15031         7.26962
     2019.20602        -9.62297         7.31736
     2019.20876        -9.34962         7.30473
     2019.21149        -8.18728         7.34685
     2019.21423        -3.91193         7.30894
     2019.21697        -5.46758         7.26119
     2019.21971       -10.35624         7.54485
     2019.22245        -6.95889         7.31455
     2019.22518        -6.78955         7.29209
     2019.22792        -3.01620         7.28085
     2019.23066        -8.19886         7.28366
     2019.23340        -5.65751         7.26119
     2019.23613        -5.00117         7.25558
     2019.23887        -5.77382         7.30473
     2019.24161        -4.52148         7.57012
     2019.24435        -5.99013         7.44936
     2019.24709        -5.25478         7.40723
     2019.24982        -7.60244         7.28085
     2019.25256         1.07891         7.45217
     2019.25530        -2.67275         7.28226
     2019.25804        -1.70240         7.34966
     2019.26078         3.93994         7.35247
     2019.26351        -8.48671         7.56170
     2019.26625        -6.78937         7.27664
     2019.26899        -6.60702         7.38477
     2019.27173        -0.00768         7.63893
     2019.27446       -10.88533         7.28226
     2019.27720         1.46101         7.42970
     2019.27994         3.17536         7.32298
     2019.28268       -18.32729         7.38055
     2019.28815        -4.63360         7.44795
     2019.29089        -1.74726         7.35106
     2019.29363         1.03109         7.33702
     2019.29637        -0.35357         7.45357
     2019.29911        -1.47022         7.31315
     2019.30184        -3.44288         7.30613
     2019.30458       -14.16453         7.39179
     2019.30732        -1.21119         7.28226
     2019.31006         2.82516         7.36511
     2019.31279        -5.64749         7.43251
     2019.31553         0.66885         7.31736
     2019.31827         0.45520         7.26400
     2019.32101        -2.29946         7.27524
     2019.32375       -12.15711         7.25136
     2019.32648        -4.30777         7.30332
     2019.32922        -4.05542         7.33702
     2019.33196        -2.70908         7.49289
     2019.33470         2.89527         7.42970
     2019.33744         0.25461         7.23732
     2019.34017        -7.32504         7.26541
     2019.34291         0.58231         7.32860
     2019.34565        -1.93335         7.45919
     2019.34839        -6.98300         7.45919
     2019.35112         1.24634         7.31596
     2019.35386         0.32769         7.29630
     2019.35660         3.11003         7.34404
     2019.35934         2.55138         7.36791
     2019.36208        -0.24828         7.37353
     2019.36481        -0.35593         7.36089
     2019.36755        -0.00659         7.29349
     2019.37029         2.29476         7.30753
     2019.37303         7.16411         7.37072
     2019.37577         1.00645         7.47183
     2019.37850         1.38380         7.33281
     2019.38124         1.97414         7.30192
     2019.38398         3.39749         7.27524
     2019.38672         2.64683         7.33983
     2019.38945        -2.75182         7.31596
     2019.39219        -0.43348         7.29068
     2019.39493         4.72387         7.39881
     2019.39767        -0.09379         7.30051
     2019.40041         3.76156         7.28085
     2019.40314         3.00190         7.28928
     2019.40588         1.95925         7.29770
     2019.40862        -1.01940         7.35668
     2019.41136         2.72794         7.36230
     2019.41410         4.98229         7.33843
     2019.41683         4.95563         7.34404
     2019.41957         6.92798         7.36230
     2019.42231         0.32032         7.33843
     2019.42505         4.04767         7.37072
     2019.42778         7.47601         7.54906
     2019.43052        10.67036         7.32298
     2019.43326         4.71670         7.33281
     2019.43600         1.52805         7.35106
     2019.43874        -1.10360         7.43532
     2019.44147        -4.55726         7.45919
     2019.44421         4.54909         7.43110
     2019.44695         1.87543         7.45638
     2019.44969         1.45078         7.39881
     2019.45243         1.23612         7.39881
     2019.45516        -2.10453         7.47323
     2019.45790        -1.03619         7.41425
     2019.46064         1.15916         7.48306
     2019.46338        -1.16550         7.74424
     2019.46611         3.45285         7.70773
     2019.46885         4.04320         7.67544
     2019.47159         3.23254         7.46200
     2019.47433         5.31989         7.48727
     2019.47707         5.48023         7.43672
     2019.47980         1.12058         7.45076
     2019.48254         2.99492         7.45919
     2019.48528         3.70027         7.46621
     2019.48802        -0.69839         7.47744
     2019.49076        -1.17904         7.34826
     2019.49349         0.81630         7.28366
     2019.49623         0.37165         7.29068
     2019.49897         1.90600         7.33843
     2019.50171         8.51534         7.31034
     2019.50444        -1.07131         7.32438
     2019.50718         1.23203         7.32860
     2019.50992         6.09038         7.34264
     2019.51266         3.09672         7.29209
     2019.51540         8.08607         7.30332
     2019.51813         4.24941         7.40302
     2019.52087         3.71676         7.41847
     2019.52361        -1.17390         7.33141
     2019.52635        -1.54755         7.33141
     2019.52908         1.48280         7.60663
     2019.53182        -1.46386         7.49289
     2019.53456        -2.35651         7.51536
     2019.53730         2.15683         7.50272
     2019.54004         9.90918         7.61506
     2019.54277         6.33552         7.48025
     2019.54551         5.97087         7.75969
     2019.54825         6.64621         7.38196
     2019.55099         3.24856         7.45076
     2019.55373         1.22790         7.51255
     2019.55646         4.73125         7.50272
     2019.55920        -1.91441         7.65437
     2019.56194         0.91694         7.35809
     2019.56468         0.01529         7.46621
     2019.56741         2.80163         7.48025
     2019.57015        -1.07902         7.28366
     2019.57289        -0.44968         7.45638
     2019.57563         4.54567         7.46481
     2019.57837         6.86701         7.58416
     2019.58110         6.60536         7.33562
     2019.58384         4.63670         7.70493
     2019.58658         3.26805         7.29630
     2019.58932        11.66139         7.32719
     2019.59206         9.73374         7.42830
     2019.59479         2.67909         7.32860
     2019.59753         3.81843         7.57855
     2019.60027         2.77978         7.60242
     2019.60301         4.14912         7.33983
     2019.60574         7.05747         7.66701
     2019.60848         4.40081         7.66420
     2019.61122         2.22716         7.33000
     2019.61396         0.37650         7.43953
     2019.61670         7.91385         7.37072
     2019.61943         7.62119         7.33983
     2019.62217         7.14154         7.52940
     2019.62491         6.19989         7.33983
     2019.62765         7.53323         7.33562
     2019.63039         7.58658         7.35809
     2019.63312         2.85192         7.33702
     2019.63586        21.96827         7.60382
     2019.63860         5.94361         7.38617
     2019.64134         0.81596         7.59399
     2019.64407        -0.12570         7.37634
     2019.64681         0.30565         7.35949
     2019.64955         4.48399         7.34966
     2019.65229         5.11834         7.35528
     2019.65503        -0.18431         7.49289
     2019.65776        -1.86597         7.43532
     2019.66050         7.35038         7.45919
     2019.66324         5.27672         7.46761
     2019.66598         4.24107         7.41004
     2019.66872         5.03441         7.35668
     2019.67145         0.11276         7.35106
     2019.67419         3.69510         7.35247
     2019.67693         1.23645         7.51676
     2019.67967        -0.11021         7.54765
     2019.68240         1.02814         7.34685
     2019.68514         5.77948         7.31034
     2019.68788         7.27983         7.46621
     2019.69062         7.54418         7.41145
     2019.69336         2.87452         7.37072
     2019.69609         4.32187         7.41987
     2019.69883         3.73821         7.38617
     2019.70157         8.25156         7.41987
     2019.70431         8.06390         7.50553
     2019.70705        -0.87575         7.35247
     2019.70978         2.23759         7.38196
     2019.71252        -4.02106         7.30192
     2019.71526        -0.10972         7.32719
     2019.71800         3.41563         7.58557
     2019.72073         3.37098         7.62489
     2019.72347         4.54432         7.40864
     2019.72621         3.56167         7.49991
     2019.72895         6.01301         7.39600
     2019.73169         4.44436         7.36511
     2019.73442        10.17970         7.49570
     2019.73716         6.51705         7.30894
     2019.73990        -1.22861         7.58136
     2019.74264        -1.54726         7.44795
     2019.74538         1.40508         7.29630
     2019.74811         1.61543         7.47183
     2019.75085         3.54478         7.48306
     2019.75359         3.73712         7.68948
     2019.75633         2.65047         7.45217
     2019.75906         5.03681         7.30613
     2019.76180         2.30616         7.31315
     2019.76454         6.39350         7.43953
     2019.76728         4.27785         7.31034
     2019.77002        -3.07881         7.31455
     2019.77275         3.04054         7.64033
     2019.77549         2.14488         7.46340
     2019.77823         2.88623         7.34545
     2019.78097         3.39458         7.31455
     2019.78371         1.12292         7.29209
     2019.78644         2.85927         7.34123
     2019.78918         8.59961         7.44795
     2019.79192        11.39396         7.39179
     2019.79466        16.64830         7.38617
     2019.79739         0.60765         7.29209
     2019.80013         7.63099         7.39038
     2019.80287         9.08934         7.32017
     2019.80561         8.64068         7.45076
     2019.80835         2.53603         7.32017
     2019.81108         0.06537         7.33421
     2019.81382         7.79972         7.56450
     2019.81656        -2.05193         7.29911
     2019.81930         1.35741         7.31877
     2019.82203         1.00776         7.35809
     2019.82477        -2.00990         7.31175
     2019.82751        -2.88655         7.37634
     2019.83025         1.67079         7.48306
     2019.83299         1.97714         7.46902
     2019.83572         3.75548         7.37774
     2019.83846         7.38583         7.35809
     2019.84120         4.15917         7.27664
     2019.84394         1.78752         7.56872
     2019.84668        -3.49213         7.35106
     2019.84941         3.09321         7.28366
     2019.85215         3.00756         7.29349
     2019.85489         3.19190         7.32017
     2019.85763         3.19025         7.28928
     2019.86036        -1.00341         7.39038
     2019.86310         1.45694         7.39038
     2019.86584         8.39028         7.38477
     2019.86858         8.52563         7.36932
     2019.87132         8.70397         7.41847
     2019.87405         8.43332         7.33562
     2019.87679         9.08467         7.55046
     2019.87953        12.88501         7.31034
     2019.88227        15.08536         7.27524
     2019.88501        12.72770         7.44234
     2019.88774        11.04405         7.61786
     2019.89048        12.73439         7.33281
     2019.89322        16.96574         7.30192
     2019.89596         4.74808         7.32438
     2019.89869         5.95843         7.26681
     2019.90143         7.06877         7.27804
     2019.90417         3.56412         7.42970
     2019.90691         4.87747         7.40302
     2019.90965         5.29481         7.31736
     2019.91238        10.23416         7.27243
     2019.91512        11.46650         7.32298
     2019.91786        13.73785         7.38898
     2019.92060        13.41319         7.43251
     2019.92334        13.02054         7.43391
     2019.92607        10.19688         7.44655
     2019.92881         8.55023         7.43532
     2019.93155        13.78857         7.39740
     2019.93429         9.33992         7.40021
     2019.93702         6.24826         7.40162
     2019.93976         3.31861         7.51255
     2019.94250         1.80796         7.44936
     2019.94524         4.82730         7.43813
     2020.00000        26.12121         7.34404
     2020.00273         6.71256         7.25558
     2020.00547         6.76090         7.56170
     2020.00821         9.88925         7.48727
     2020.01095       -11.92141         7.77092
     2020.01642         6.67128         7.42689
     2020.01916       -15.56037         7.35949
     2020.02190       -16.22703         7.47183
     2020.02464       -12.71068         7.48446
     2020.04928        -2.74057         7.66842
     2020.05201         0.28677         7.22188
     2020.05475         4.15912         7.31596
     2020.05749        -4.47354         7.61365
     2020.06023       -13.13619         8.14725
     2020.06297         2.66816         7.25979
     2020.06570        -0.86150         7.24434
     2020.06844         3.21185         7.30051
     2020.07118        -1.75981         7.45638
     2020.07939       -37.08177         7.54485
     2020.08213         0.58857         7.37774
     2020.08487         1.22092         7.20924
     2020.08761        -0.38774         7.18818
     2020.09034        -0.28139         7.20503
     2020.09308         1.49395         7.21766
     2020.09582         1.34430         7.32298
     2020.09856         2.09165         7.24715
     2020.10130         0.04299         7.28226
     2020.10403         8.08734         7.26681
     2020.10677         1.22868         7.22047
     2020.10951        -5.37097         7.23030
     2020.11225         0.00937         7.23311
     2020.11498         2.12472         7.22047
     2020.11772        -4.47894         7.49008
     2020.13689        -3.72652         7.34826
     2020.13963        -3.57017         7.32860
     2020.14236         1.89017         7.21486
     2020.14510         2.25952         7.23171
     2020.15879        -3.01675         7.25979
     2020.16153       -11.10641         7.26400
     2020.16427       -11.02306         7.31315
     2020.16700       -43.65072         8.27363
     2020.19438        31.73774        10.05839
     2020.19712        30.42508        10.24234
     2020.19986        -6.06357         9.85337
     2020.20533        -6.91588         7.30894
     2020.20807        -2.28954         7.28085
     2020.21081        -7.06119         7.26400
     2020.21355        -4.91185         7.92539
     2020.21629        -2.12850         7.65297
     2020.21902        -4.85116         7.39740
     2020.22176        -4.05081         7.27243
     2020.22450         0.39554         7.25979
     2020.22724        -1.39312         7.25136
     2020.22997         0.35823         7.26541
     2020.23271        -1.56743         7.27243
     2020.23545        -4.55608         7.41285
     2020.23819        -1.26574         7.32017
