# ================= DQRFIT RESULTS ================
# INPUT FILE: series/MLKE.rad
# OUTPUT: LDETRENDED
# FILTER FUNCTION: f(t)
# f(t)=+line(t)+annual(t)+jumps(t)
# line(t)=+P 1+P 2*t
# annual(t)=+P 3*sin(2*pi*t+P 4)
# jumps(t)=+P 5*heav(t-2019.4903  )
# heav(t)=(t<0?0:1)
# TOTAL OBSERVATIONS MTOT= 2792
# INITIAL TIME INTERVAL= 2022.7488 - 2015.0582 =  7.6906
# TOTAL OBSERVATIONS AFTER PREFILTER M= 2777
# TIME-SPAN= 2022.7488 - 2015.0582 =  7.6906
# OBSERVATIONS: USED M=  2777 REJECTED MTOT-M=    15 %USED=   99.4628
# N=  5 PARAMETERS
# MAXSIG= 175.00000
# MAXRES= 151.94840
# SCALE FACTOR FOR LENGTHS: SCL=  10.00000
# SCALE FACTOR FOR SIGMAS: SCLSIG=   1.00000
# CHI^2=   3446.841 DOF=  2772 CHI^2/DOF=   1.24345
# RMS=      8.853 SDEV=      8.851 MEAN=    0.25484
#  P #       PARAMETER +-    SIGMA %error PARAMETER NAME
# P 1 =      3717.98106 +-  208.147   5.60 YZERO                              
# P 2 =        -1.87902 +-    0.103   5.49 SLOPE                              
# P 3 =         3.79218 +-    0.166   4.38 ANNUAL AMPLITUDE                   
# P 4 =         2.94879 +-    0.061   2.06 ANNUAL PHASE                       
# P 5 =        66.13130 +-    0.465   0.70 OFFSET 2019.4903                   
#       T            LDETRENDED       SIG_OBS
     2015.05817         9.63564         6.12079
     2015.06091        -3.10122         6.11187
     2015.06365         6.20893         6.32931
     2015.06639         3.61707         6.14978
     2015.06913        -0.29378         6.20665
     2015.07186        -0.47264         6.08956
     2015.07460        -3.15649         6.20442
     2015.07734        -0.66335         6.02377
     2015.08008        -1.71620         6.05388
     2015.08282         0.67794         6.08510
     2015.08555         2.70308         6.12859
     2015.08829         0.50923         6.07953
     2015.09103         4.66237         6.01374
     2015.09377         4.10352         6.00928
     2015.09650        -3.85734         6.32262
     2015.09924         3.53581         6.46981
     2015.10198         4.99195         6.18881
     2015.10472         5.30110         6.16205
     2015.10746         7.99924         6.07507
     2015.11019         0.36638         6.22561
     2015.11293         1.22653         6.86010
     2015.11567        -0.72133         6.27467
     2015.11841         1.20282         6.19438
     2015.12115        -3.30104         6.22784
     2015.12388         1.85611         6.09625
     2015.12662        -4.24175         6.18435
     2015.12936         1.56840         6.03604
     2015.13210         0.10854         6.07395
     2015.13483         2.48468         6.15981
     2015.13757         2.15183         6.15758
     2015.14031         0.17397         6.15201
     2015.14305        -1.39188         6.11856
     2015.14579        -4.02474         6.18881
     2015.14852         4.07541         6.10183
     2015.15126         5.53055         6.00928
     2015.15400        -0.21230         6.05834
     2015.15674         5.81384         6.10518
     2015.15948         9.34499         6.01820
     2015.16221         7.83713         6.04384
     2015.16495         3.46027         6.13305
     2015.16769         8.07142         6.01597
     2015.17043         2.14956         6.21334
     2015.17316         6.63471         6.32931
     2015.17590         2.67385         6.25571
     2015.17864         3.80900         6.09514
     2015.18138         6.28514         6.10183
     2015.18412         4.67129         6.15424
     2015.18685        -0.03057         6.21557
     2015.18959        -0.05543         6.29474
     2015.19233         5.65172         6.50550
     2015.19507        -2.13714         6.13863
     2015.19780         3.95001         6.22226
     2015.20054         1.76015         6.81103
     2015.20328        -4.49170         6.22784
     2015.20602        -3.74956         6.41740
     2015.20876         1.66559         6.17320
     2015.21149        -9.08627         6.22561
     2015.21423         1.86087         6.30366
     2015.21697        -9.94198         6.53337
     2015.21971        -2.68484         6.20665
     2015.22245        -0.22969         6.14866
     2015.22518         1.08345         6.12971
     2015.22792         0.37960         6.11967
     2015.23066         1.80074         6.09514
     2015.23340         3.40389         6.27690
     2015.23613        -6.77697         6.61366
     2015.23887        -3.16383         6.62593
     2015.24161         6.96032         6.52557
     2015.24435         7.67746         6.67499
     2015.24709         1.23961         6.48765
     2015.24982        -2.95525         6.13417
     2015.25256        -4.93310         6.30366
     2015.25530         5.11404         6.04496
     2015.25804         0.27219         6.18212
     2015.26078         6.11133         6.10183
     2015.26351         6.61847         6.08064
     2015.26625         2.17462         6.19104
     2015.26899         7.25776         6.30701
     2015.27173         4.64591         6.42967
     2015.27446        -1.68795         6.45532
     2015.27720         8.97720         6.16428
     2015.27994        -0.44166         6.21669
     2015.28268        -0.61651         6.27913
     2015.28542         2.90163         6.36388
     2015.28815        -6.33922         6.51219
     2015.29089         0.01092         6.28136
     2015.29363         3.50406         6.27913
     2015.29637         2.10221         6.13863
     2015.29911         5.53835         6.18992
     2015.30184         5.66650         6.28136
     2015.30458         0.01064         6.13751
     2015.30732         4.82679         6.01151
     2015.31006         2.67793         6.06057
     2015.31279         3.58408         5.97805
     2015.31553        -1.73778         6.03827
     2015.31827        -8.00664         6.15535
     2015.32101        -0.64849         6.01485
     2015.32375         0.55965         6.07172
     2015.32648         1.38980         6.05834
     2015.32922         3.36494         6.17208
     2015.33196         4.39309         6.08956
     2015.33470         2.25023         5.92899
     2015.33744         4.65538         5.95129
     2015.34017        -6.15548         6.20888
     2015.34289         0.08863         5.93679
     2015.34566         5.39484         5.97025
     2015.34839         1.79295         5.99478
     2015.35112        -2.12490         6.01262
     2015.35386        -1.54676         6.03827
     2015.35660        -4.74961         6.00593
     2015.35934         1.16953         6.13640
     2015.36208        -4.47632         6.15312
     2015.36481         2.61382         5.98697
     2015.36755         9.31196         5.89331
     2015.37029         6.02511         5.92564
     2015.37303        -5.34575         6.07841
     2015.37577        -3.29860         5.98028
     2015.37850        -5.28546         6.14086
     2015.38124        -1.32731         5.94460
     2015.38398        -4.79517         6.01262
     2015.38672        -1.85502         6.09514
     2015.38945        -3.75588         6.16874
     2015.39219         3.10627         6.05277
     2015.39493         4.12141         5.92230
     2015.39767        -9.00945         6.18546
     2015.40041        -4.76230         6.15089
     2015.40314        -3.49616         6.24456
     2015.40588        -6.28901         6.08845
     2015.40862        -5.57687         6.22115
     2015.41136         5.09728         6.02600
     2015.41410        -8.57158         6.16985
     2015.41683        -5.37643         6.23230
     2015.41957        -3.82929         6.05277
     2015.42231         2.74185         5.99478
     2015.42505        -3.63300         6.24456
     2015.42778        -3.50186         6.15647
     2015.43052        -3.70071         6.08733
     2015.43326        -6.76857         6.06503
     2015.43600         3.96458         6.06392
     2015.43874         1.05272         6.08845
     2015.44147         1.10187         6.24679
     2015.44421        -1.74199         6.11187
     2015.44695        -4.38385         6.05277
     2015.44969        -2.96870         6.11633
     2015.45243        -0.28756         6.31593
     2015.45516        -3.98341         6.18100
     2015.45790        -3.54227         6.28136
     2015.46064         4.19488         6.17097
     2015.46338         0.11602         6.24010
     2015.46611        -0.87483         6.23230
     2015.46885         3.62131         6.09179
     2015.47159         2.78645         6.05054
     2015.47433        -5.32340         6.28582
     2015.47707        -5.73426         6.17208
     2015.47980         1.92989         6.34381
     2015.48254        -0.76397         6.31927
     2015.48528        -6.83682         6.16762
     2015.48802        -0.42368         6.09068
     2015.49076        -7.25353         6.30701
     2015.49349        -6.23839         6.64154
     2015.49623        -2.13024         6.54675
     2015.49897        -3.00110         6.25460
     2015.50171         0.84204         6.18881
     2015.50444         8.71819         5.93456
     2015.50718         2.52033         6.00370
     2015.50992        -3.95552         6.16316
     2015.51266        -0.49238         6.22784
     2015.51540        -5.19623         6.30924
     2015.51813         6.57291         6.34604
     2015.52087       -12.67794         6.43301
     2015.52361         7.30820         6.16985
     2015.52635        -4.40966         6.24679
     2015.52908         7.46549         6.11521
     2015.53182         2.67363         6.16651
     2015.53456         5.29978         6.08510
     2015.53730         3.22592         6.21111
     2015.54004         1.73507         6.28025
     2015.54277         1.91721         6.29586
     2015.54551         7.35036         6.27467
     2015.54825         5.69650         6.29363
     2015.55099         3.20764         6.22338
     2015.55373         8.55779         6.20776
     2015.55646         5.24493         6.23899
     2015.55920         3.63508         6.34269
     2015.56194        10.81522         6.13640
     2015.56468         9.09037         6.17208
     2015.56741         5.41851         6.36611
     2015.57015        13.93666         6.44194
     2015.57289         5.43180         6.49992
     2015.57563         5.06094         6.35050
     2015.57837         9.11009         6.24791
     2015.58110        11.66323         6.35719
     2015.58384         8.96438         6.35161
     2015.58658        11.72052         6.53226
     2015.58932        -5.91733         6.74524
     2015.59206         1.78281         6.37837
     2015.59479        11.82296         6.29363
     2015.59753        15.42210         6.16874
     2015.60027        10.37024         6.45866
     2015.60301        11.60539         6.49546
     2015.60574        13.14153         6.41071
     2015.60848        18.08768         6.26909
     2015.61122        14.73482         6.22784
     2015.61396        18.69097         6.23118
     2015.61670         9.26311         6.39064
     2015.61943        11.93226         6.18546
     2015.62217        15.85440         6.16205
     2015.62491        11.47855         6.25794
     2015.62765        16.09969         6.10183
     2015.63039        19.70083         6.26909
     2015.63312         5.59498         6.38284
     2015.63586        -0.78788         6.43636
     2015.63860        12.87527         6.03604
     2015.64134         9.91441         6.17654
     2015.64407        10.38156         6.24902
     2015.64681         0.35570         6.55345
     2015.64955        11.06285         6.18881
     2015.65229        12.84799         6.15647
     2015.65503         9.60413         6.35161
     2015.65776         5.78828         6.38060
     2015.66050         9.74442         6.20888
     2015.66324        20.14257         6.16651
     2015.66598        13.05471         6.47650
     2015.66872        15.75286         6.48988
     2015.67145        12.35000         6.26798
     2015.67419        13.00815         6.18212
     2015.67693        11.79229         6.27690
     2015.67967        12.53743         6.31147
     2015.68240        11.33058         6.11856
     2015.68514         4.63572         6.31593
     2015.68788        12.67487         6.36165
     2015.69062        16.42701         6.58021
     2015.69336        14.83116         6.31481
     2015.69609        13.58030         6.14532
     2015.69883        15.18745         6.32596
     2015.70157        11.42159         6.54564
     2015.70431        14.90673         6.27021
     2015.70705        19.05088         6.16428
     2015.70978        25.59002         6.02043
     2015.71252        11.23017         6.12636
     2015.71526        19.16731         6.04830
     2015.71800        14.01046         6.22115
     2015.72073        16.11960         6.59359
     2015.72347        17.13075         6.11075
     2015.72621        15.35889         6.06838
     2015.72895         9.50904         6.07953
     2015.73169        12.24818         6.19327
     2015.73442        14.26532         6.13974
     2015.73702        14.56921         6.52780
     2015.73992        23.00266         6.28582
     2015.74264        16.72476         6.19550
     2015.74538        21.56390         6.46535
     2015.74811        15.11905         6.36834
     2015.75085         8.34719         6.24122
     2015.75359        13.10134         6.11410
     2015.75633        16.80048         6.09068
     2015.75906        19.95062         6.13305
     2015.76180        12.66477         6.09848
     2015.76454        11.11691         6.23787
     2015.76728         5.77406         6.37614
     2015.77002         4.86820         6.30701
     2015.77275        15.52635         6.21111
     2015.77549         3.65749         6.44974
     2015.77823        23.15964         6.10406
     2015.78097        15.97578         6.13640
     2015.78371        17.83292         6.13863
     2015.78644        17.65807         6.23118
     2015.78918        13.73021         6.20776
     2015.79192        11.39536         6.21669
     2015.79466        21.44850         6.03715
     2015.79739        16.34365         6.17877
     2015.80013         9.52079         6.44305
     2015.80287        12.52094         6.08287
     2015.80561        11.27108         6.13305
     2015.80835         9.99922         6.19438
     2015.81108         7.64337         6.18546
     2015.81382        10.31051         6.13305
     2015.81656         2.89566         6.30255
     2015.81930        14.71180         6.19996
     2015.82203        14.34095         6.24122
     2015.82477         2.22209         6.43636
     2015.82751        15.43224         6.28471
     2015.83025        12.30438         6.35719
     2015.83299         8.81252         6.52445
     2015.83572        11.53167         6.45197
     2015.83846        15.04881         6.33712
     2015.84120        15.18596         6.21780
     2015.84394         7.86410         6.37837
     2015.84668        -0.60475         6.54006
     2015.84941        15.57639         6.39510
     2015.85215         5.25354         6.47204
     2015.85489        21.97268         6.40068
     2015.85763        15.90783         6.19438
     2015.86036         3.00397         6.61924
     2015.86310         8.61811         6.47985
     2015.86584        15.19626         6.53449
     2015.86858        15.34840         6.25348
     2015.87132        12.48155         6.29809
     2015.87405         9.89269         6.41852
     2015.87679        13.22684         6.46535
     2015.87953         4.35398         6.72963
     2015.88227        10.27613         6.75639
     2015.88501         2.59427         7.85588
     2015.88774         6.38341         6.28805
     2015.89048        10.18956         6.25460
     2015.89322        10.92270         6.31704
     2015.89596         5.16785         6.44417
     2015.89869        13.86599         6.23787
     2015.90143         7.81314         6.19884
     2015.90417         3.34628         6.25460
     2015.90691         3.45443         6.41071
     2015.90965         4.97357         6.72183
     2015.91238         6.81671         6.31258
     2015.91512        -0.23514         6.49769
     2015.91786         9.03800         6.48542
     2015.92060         7.86515         6.71625
     2015.92334        -3.63871         6.62035
     2015.92607        -0.00456         6.43190
     2015.92881        -5.77642         6.78427
     2015.93155         3.61773         6.85452
     2015.93429         7.39987         6.67611
     2015.93702         3.74001         6.88463
     2015.93976         6.24516         6.75862
     2015.94250        13.82630         6.58467
     2015.94524        13.76645         6.41294
     2015.94798         9.94659         6.44640
     2015.95071        15.08974         6.26686
     2015.95345         9.10688         6.25460
     2015.95619         7.44303         6.37949
     2015.95893         6.54417         6.54006
     2015.96167        14.37632         6.44974
     2015.96440         2.23446         6.48208
     2015.96714         9.53660         6.36499
     2015.96988         6.63075         6.36834
     2015.97262        15.85689         6.33935
     2015.97535         7.13004         6.42744
     2015.97809         7.37118         6.42075
     2015.98083         3.03533         6.32596
     2015.98357        -6.77953         6.50661
     2015.98631       -10.29438         6.91697
     2015.98904         7.87976         6.31816
     2015.99178        -5.01410         6.43636
     2015.99452        -3.18595         6.38841
     2015.99726        -4.64081         6.46758
     2016.00000        -6.26166         6.46981
     2016.00273        -6.31552         6.46981
     2016.00547        -6.24537         6.38953
     2016.00821        -3.14423         6.51999
     2016.01095         2.06092         6.41629
     2016.01368        -1.86494         6.41517
     2016.01642         3.35120         6.49992
     2016.01916         2.82035         6.61255
     2016.02190         1.16449         6.47093
     2016.02464        -0.74436         6.30478
     2016.02744         1.93590         6.56014
     2016.03011         4.23393         6.36945
     2016.03285         0.58407         6.29697
     2016.03559         0.80922         6.47316
     2016.03833        11.38936         6.34938
     2016.04106         3.82650         6.36053
     2016.04380         1.52965         7.42211
     2016.04654        -4.48021         6.42298
     2016.04928         2.30294         6.23341
     2016.05201        -2.93492         6.32931
     2016.05475        -1.92077         6.27913
     2016.05749         2.38637         6.33489
     2016.06023         6.64052         6.28025
     2016.06297         4.77466         6.20330
     2016.06570         7.76181         6.14643
     2016.06844        -1.88805         6.28136
     2016.07118         1.56709         6.72071
     2016.07392        -0.89376         6.85341
     2016.07666         9.49338         6.29920
     2016.07939        16.85453         6.17989
     2016.08213         5.54967         6.36834
     2016.08487         5.46882         6.18323
     2016.08761         2.26396         6.10964
     2016.09034        -0.83789         7.27046
     2016.09308        -5.61075         6.54229
     2016.09582        -4.32961         6.19104
     2016.09856        -6.41746         6.31481
     2016.10130        -5.93932         6.14420
     2016.10403        -6.16717         6.17766
     2016.10677        -1.53803         6.15201
     2016.10951        -0.57388         6.15424
     2016.11225        -0.90374         6.69395
     2016.11498        -7.93159         6.25906
     2016.11772       -15.20145         6.24233
     2016.12046        -6.02131         6.67165
     2016.12320         2.19184         6.25571
