# ================= DQRFIT RESULTS ================
# INPUT FILE: series/MONT.rad
# OUTPUT: LDETRENDED
# FILTER FUNCTION: f(t)
# f(t)=+line(t)+annual(t)+jumps(t)
# line(t)=+P 1+P 2*t
# annual(t)=+P 3*sin(2*pi*t+P 4)
# jumps(t)=+P 5*heav(t-2011.0362  )
# heav(t)=(t<0?0:1)
# TOTAL OBSERVATIONS MTOT= 4264
# INITIAL TIME INTERVAL= 2022.7488 - 2010.0041 = 12.7447
# TOTAL OBSERVATIONS AFTER PREFILTER M= 4125
# TIME-SPAN= 2022.7488 - 2010.0041 = 12.7447
# OBSERVATIONS: USED M=  4125 REJECTED MTOT-M=   139 %USED=   96.7402
# N=  5 PARAMETERS
# MAXSIG= 175.00000
# MAXRES=  40.84678
# SCALE FACTOR FOR LENGTHS: SCL=  10.00000
# SCALE FACTOR FOR SIGMAS: SCLSIG=   1.00000
# CHI^2=   4200.810 DOF=  4120 CHI^2/DOF=   1.01961
# RMS=      5.844 SDEV=      5.844 MEAN=   -0.02920
#  P #       PARAMETER +-    SIGMA %error PARAMETER NAME
# P 1 =      2226.55421 +-   53.430   2.40 YZERO                              
# P 2 =        -1.11282 +-    0.027   2.39 SLOPE                              
# P 3 =         6.39600 +-    0.124   1.94 ANNUAL AMPLITUDE                   
# P 4 =        -2.70960 +-    0.025   0.92 ANNUAL PHASE                       
# P 5 =        15.98568 +-    0.384   2.40 OFFSET 2011.0362                   
#       T            LDETRENDED       SIG_OBS
     2010.00410       -14.97924         5.55570
     2010.00684       -16.50119         5.60820
     2010.00958       -16.33415         5.65667
     2010.01232       -16.45610         5.59508
     2010.01505       -14.03205         5.55974
     2010.01779        -6.67201         5.62739
     2010.02053       -18.28996         6.55132
     2010.02327       -13.55891         5.67081
     2010.02600        -8.02687         5.72130
     2010.02874       -12.05082         5.59003
     2010.03148       -12.44077         5.66980
     2010.03422        -9.73173         5.74452
     2010.03696       -17.84968         5.97879
     2010.03969       -15.10863         5.91719
     2010.04243       -10.33559         5.62941
     2010.04517         6.08346         5.66172
     2010.04791         2.99051         5.66576
     2010.05065        -0.47844         5.82530
     2010.05338        -6.37540         5.82025
     2010.05612        -1.92735         5.66677
     2010.05886         0.57270         5.53550
     2010.06160        -2.19326         5.60316
     2010.06433       -12.32421         5.59508
     2010.06707        -9.53516         5.57589
     2010.06981       -10.29812         5.70110
     2010.07255       -11.37407         5.62638
     2010.07529        -5.08502         5.74856
     2010.07802        -5.14698         5.75260
     2010.08076        -9.66593         5.54055
     2010.08361       -11.66076         9.13327
     2010.08624        -4.11784         5.47492
     2010.08898        -0.33979         5.83035
     2010.09171         1.52026         5.54661
     2010.09445        -1.34670         5.69706
     2010.09719        -1.23865         5.77683
     2010.09993        -3.15460         5.60215
     2010.10266        -5.21556         5.55065
     2010.10540        -2.88751         5.66374
     2010.10814        -2.95446         5.63244
     2010.11088        -6.26042         5.71726
     2010.11362        -7.82737         5.64557
     2010.11635        -7.87832         5.68293
     2010.11909        -3.52828         5.57993
     2010.12183       -11.23923         5.70716
     2010.12457        -6.19418         5.57387
     2010.12731        -3.55114         5.75866
     2010.13004        -7.45209         5.61830
     2010.13278        -8.96904         5.61123
     2010.13552        -3.10300         5.66273
     2010.13826         2.18605         5.57690
     2010.14099        -4.64990         5.53550
     2010.14373        -2.67686         5.67182
     2010.14647        -8.28781         5.75664
     2010.14921        -8.99376         5.66576
     2010.15195         0.75528         5.60215
     2010.15468        -4.76267         5.58599
     2010.15742        -9.33662         5.56882
     2010.16016        -2.15758         5.90406
     2010.16290        -7.40053         5.60417
     2010.16564        -2.39648         5.56176
     2010.16837        -4.20144         5.55974
     2010.17111        -4.76239         5.54661
     2010.17385        -5.38234         5.55671
     2010.17659        -4.53330         5.51531
     2010.17932         0.46475         5.57993
     2010.18206        -6.81220         5.60114
     2010.18480         0.07284         5.62234
     2010.18754        -0.77111         5.52540
     2010.19028        -4.21906         5.56579
     2010.19301        -3.06102         5.62234
     2010.19575        -1.54897         5.65263
     2010.19849        -3.66092         5.62234
     2010.20123        -0.17288         5.59912
     2010.20397         2.15417         5.77078
     2010.20670       -11.21378         5.74351
     2010.20944        -4.06873         5.50925
     2010.21218         1.03931         5.54762
     2010.21492         0.18536         5.56176
     2010.21765        -2.77359         5.79299
     2010.22039        -6.98255         5.67889
     2010.22313        -7.59250         5.53954
     2010.22581         1.91248         5.86569
     2010.22855        -4.92147         5.78087
     2010.23134        -2.96236         5.82429
     2010.23368         1.73124         6.74418
     2010.23950        -2.84228         5.86569
     2010.24230        -1.93217         5.87680
     2010.24503        -1.98013         5.81016
     2010.24777        -4.56108         5.83944
     2010.25051        -6.51403         5.87882
     2010.25325         3.57701         5.73947
     2010.25598         2.27906         5.63143
     2010.25869         3.21607         5.77885
     2010.26150        -3.89580         6.23224
     2010.26420        -2.48880         5.86064
     2010.26694         1.99425         5.75765
     2010.26967         0.22729         5.78996
     2010.27241        -1.54466         5.69504
     2010.27515        -1.95961         5.70716
     2010.27789        -0.50757         5.70110
     2010.28027         1.60908         6.51800
     2010.29979        -0.62519         5.64960
     2010.30253         2.42585         5.63345
     2010.30527         3.68290         5.76977
     2010.30800         4.86895         5.62638
     2010.31074        -6.74701         5.65465
     2010.31348        -1.56096         5.58700
     2010.31622         3.80709         5.59003
     2010.31895         6.95813         6.68865
     2010.32105        -6.31354         9.20598
     2010.33618         4.18830        10.14707
     2010.33812        -0.13654         6.23930
     2010.34034       -12.21907         7.85593
     2010.35811        -1.68929        10.14101
     2010.41561        12.53969        10.42779
     2010.41701       -10.13075         7.92257
     2010.55441        11.38915         5.55267
     2010.55715         3.36620         5.51228
     2010.55989         8.23025         5.69403
     2010.56262         3.84529         5.52237
     2010.56536         2.04934         5.55671
     2010.56810         4.73339         5.48501
     2010.57084         5.05043         5.50925
     2010.57357         1.22148         5.57690
     2010.57631        -0.40347         5.64355
     2010.57905        -1.61643         5.48602
     2010.58179         4.84362         5.69706
     2010.58453         0.50967         5.47694
     2010.58726         5.15271         5.59104
     2010.59000         2.11976         5.63749
     2010.59274        -4.42219         7.14708
     2010.59548         9.95585         5.57791
     2010.59822         6.93890         5.55974
     2010.60095         5.57195         5.49208
     2010.60369         5.52199         5.50824
     2010.60643         1.14404         5.50218
     2010.60917         4.54409         5.46583
     2010.61190         0.76913         5.52035
     2010.61464         6.45918         5.56377
     2010.61738         7.82323         5.44462
     2010.62012         4.85827         5.50521
     2010.62286         8.34332         5.47492
     2010.62559         9.12737         5.51935
     2010.62833         7.31741         5.50622
     2010.63107        12.50846         5.89901
     2010.63375         8.60244         5.55570
     2010.63680         4.00184         9.62806
     2010.63928        11.58860         5.54257
     2010.64202         5.27865         5.54156
     2010.64476         1.70269         5.65667
     2010.64750         7.62274         5.52944
     2010.65023        16.49579         5.78693
     2010.65297        13.56783         5.74351
     2010.65571         9.70088         5.38808
     2010.65845        15.34493         5.53045
     2010.66119        11.99197         5.48804
     2010.66392         9.09202         5.56983
     2010.66666         2.96307         5.52843
     2010.66940         8.98512         5.47996
     2010.67214        12.80916         5.61527
     2010.67488         8.30821         5.50016
     2010.67761        15.31726         5.51834
     2010.68035         4.36730         5.62840
     2010.68309        12.28635         5.50622
     2010.68583        11.90740         5.45876
     2010.68845         9.07232         5.57589
     2010.69131         7.58349         5.62436
     2010.69404         4.61054         5.63648
     2010.69678         2.39458         5.44563
     2010.69952         4.75963         5.43554
     2010.70225         3.98068         5.40423
     2010.70499        14.14872         5.57185
     2010.70773         3.63177         5.57084
     2010.71047         6.50082         5.68192
     2010.71321        -3.39214         5.75563
     2010.71594         8.33291         5.68091
     2010.71868        12.61596         5.50218
     2010.72142         7.55900         5.74250
     2010.72416        10.57305         5.70918
     2010.72689         8.10710         5.78188
     2010.72963         3.56514         5.65768
     2010.73237         4.10119         5.49006
     2010.73511        15.63424         5.83136
     2010.73785         2.51928         5.73442
     2010.74058         5.85633         5.82227
     2010.74326         9.89631         5.64657
     2010.74616         6.81353         5.94445
     2010.74880        10.88447         5.63648
     2010.75154        11.01752         5.47795
     2010.75427         9.50456         5.60618
     2010.75701         0.20361         5.80612
     2010.75975         4.22166         5.48198
     2010.76249         1.84270         5.56276
     2010.76522         7.22675         5.58498
     2010.76796         2.23280         5.86771
     2010.77070         4.42184         5.72029
     2010.77344         8.46389         5.70009
     2010.77618         1.63994         5.45068
     2010.77891        -1.27502         5.47795
     2010.78165         4.95303         5.46785
     2010.78439         9.96908         5.85862
     2010.78713         9.05312         5.65162
     2010.78987         8.76917         6.16458
     2010.79260         7.32222         5.45775
     2010.79534        -0.54274         5.42645
     2010.79808         9.50631         5.44260
     2010.80082         0.54236         5.45270
     2010.80355         8.28340         5.45169
     2010.80629         6.12945         5.68697
     2010.80903         3.18050         5.70009
     2010.81177         4.34854         5.76068
     2010.81451        11.19359         5.53348
     2010.81724         4.64564         5.50016
     2010.81998         3.71169         5.48703
     2010.82272         5.78373         5.66475
     2010.82546         2.86378         5.49713
     2010.82820        10.33883         5.91719
     2010.83093         3.49887         5.79602
     2010.83367        -6.71108         5.98484
     2010.83641         1.70797         5.54560
     2010.83915         3.80001         5.62133
     2010.84188         5.40706         5.53752
     2010.84462         8.65211         5.56478
     2010.84736         7.44415         5.55974
     2010.85010         5.15720         5.63042
     2010.85284         5.95625         5.59205
     2010.85557         0.55929         5.46583
     2010.85831         2.56034         5.45371
     2010.86105        -6.95761         5.89700
     2010.86379        -5.54357         5.48400
     2010.86653        -9.89352         5.48905
     2010.86927        -6.85347         5.53550
     2010.87200        -0.67843         5.51935
     2010.87474        -3.63538         5.87680
     2010.87748        -3.37933         5.57690
     2010.88021        -4.79629         5.60517
     2010.88295        -5.09424         5.56680
     2010.88569        -4.39019         5.49410
     2010.88843        -0.64215         5.73947
     2010.89117        -4.50010         5.87276
     2010.89390       -19.32705         5.89700
     2010.89664       -21.41101         5.40524
     2010.89938       -15.21996         5.64052
     2010.90212         2.88809         5.66172
     2010.90485        -5.11687         5.51935
     2010.90759         5.25018         5.42342
     2010.91033         2.27823         5.47694
     2010.91307       -13.36273         5.38202
     2010.91581        -1.88668         5.37697
     2010.91854         2.95737         5.37899
     2010.92128        -4.12559         5.35576
     2010.92402        -3.70854         5.41029
     2010.92676         5.59851         5.43856
     2010.92950        -0.15845         5.41029
     2010.93223        -3.19240         5.43957
     2010.93497         0.93465         5.45472
     2010.93771        -3.35031         5.48905
     2010.94045        -3.00526         5.48905
     2010.94318        -5.18121         5.37697
     2010.94592        -5.68217         5.83540
     2010.94866        -2.10412         7.02288
     2010.95140         0.60493         5.73240
     2010.95414        -2.80203         5.41837
     2010.95687        -5.05398         5.41332
     2010.95961        -0.92493         5.58498
     2010.96235        -2.99889         5.54762
     2010.96509         3.68116         5.47996
     2010.96783         1.62721         5.43856
     2010.97056        -1.90375         5.39817
     2010.97330        -2.03170         5.51632
     2010.97604        -8.31465         5.42443
     2010.97878         1.01440         5.49208
     2010.98151        -4.23956         5.49309
     2010.98425        -6.39451         5.49208
     2010.98699        -3.11546         5.39111
     2010.98973         3.93958         5.58498
     2010.99247         5.28963         5.61426
     2010.99520         4.91768         5.51127
     2010.99794        -3.23328         5.44159
     2011.00342         2.95982         5.40625
     2011.00616         3.14386         5.38808
     2011.00889         3.17591         5.54863
     2011.01163       -10.43904         5.39514
     2011.01437       -14.61600         5.42241
     2011.01711       -13.07795         5.73543
     2011.01984        -2.75190         5.43049
     2011.02258        -6.83786         5.37091
     2011.02532        -2.99181         5.49410
     2011.02806         0.85824         5.72029
     2011.03080        -9.14772         5.46886
     2011.03345        -7.52377         5.63749
     2011.03585         1.19391         6.74519
     2011.04836         9.74983        12.23929
     2011.04996        -0.54639         5.54459
     2011.05270         2.62866         5.36384
     2011.05544        -0.68130         5.40019
     2011.05817         4.39375         5.37697
     2011.06092         4.00780         5.34668
     2011.06365         3.83684         5.43150
     2011.06639        -4.49911         5.38505
     2011.06913        -2.58606         5.79905
     2011.07186        -8.43202         5.41231
     2011.07460        -6.02397         5.35576
     2011.07734         1.67208         5.38202
     2011.08008        -2.19087         5.33557
     2011.08282         0.02417         5.39111
     2011.08555         1.90022         5.42746
     2011.08829         6.89226         5.39313
     2011.09103         2.58631         5.39414
     2011.09377        -1.75864         5.46280
     2011.09650        -2.21260         5.39716
     2011.09924        -4.93755         5.45876
     2011.10198         8.98250         5.49208
     2011.10472         2.79754         5.44260
     2011.10746         3.54359         5.44967
     2011.11019         7.72264         5.33557
     2011.11293        11.11668         5.45674
     2011.11567        12.52873         5.66879
     2011.11841         8.14378         5.47996
     2011.12115         0.53182         5.43251
     2011.12388         6.98687         5.61628
     2011.12662         8.34292         5.57993
     2011.12936        -0.71103         5.35980
     2011.13210         0.57101         5.44058
     2011.13483         5.88806         5.31335
     2011.13757         7.59711         5.34769
     2011.14031         4.96515         5.36889
     2011.14305         6.20320         5.45876
     2011.14579         4.26125         5.50016
     2011.14852         5.81729         5.41635
     2011.15126        12.69834         5.33153
     2011.15400        14.41239         5.59205
     2011.15674         3.88244         5.34365
     2011.15948        12.86048         5.63042
     2011.16221         7.50453         5.37091
     2011.16495         7.77057         5.48097
     2011.16769         0.10762         5.41130
     2011.17043        -0.83633         5.39817
     2011.17316       -13.17929         5.46987
     2011.17591         1.60476         5.37192
     2011.17864         8.82381         5.38505
     2011.18138         4.58385         5.35980
     2011.18412         5.05190         5.53651
     2011.18685         8.39495         5.52439
     2011.18959         6.20099         5.36990
     2011.19233         4.33404         5.35173
     2011.19507         6.45309         5.40423
     2011.19780        11.74013         5.48400
     2011.20054         3.49618         5.50521
     2011.20328         9.36623         5.50016
     2011.20602         4.58627         5.48097
     2011.20876         5.66332         5.49612
     2011.21149         3.12537         5.42544
     2011.21423         4.41541         5.39313
     2011.21697         5.01246         5.48602
     2011.21971         9.85051         5.52237
     2011.22245         3.47455         5.47795
     2011.22518         9.35360         5.43150
     2011.22792         8.84665         5.41635
     2011.23066        10.57969         5.41433
     2011.23340         8.46774         5.41736
     2011.23613         5.37979         5.42140
     2011.23887         2.08283         5.42544
     2011.24161         2.66888         5.42443
     2011.24435         4.09793         5.41736
     2011.24709         5.13497         5.40019
     2011.24982         9.63802         5.43049
     2011.25257         9.20007         5.42342
     2011.25530         6.68311         5.37394
     2011.25804         5.94516         5.56680
     2011.26078         2.34121         5.60719
     2011.26351         9.69125         5.52944
     2011.26625        -0.55670         5.44664
     2011.26899        17.16135         5.40928
     2011.27173         9.44340         5.59609
     2011.27446         8.45544         5.67788
     2011.27720         5.20549         5.53550
     2011.27994         8.42953         5.47391
     2011.28268         7.44858         5.53651
     2011.28502        -0.02182         6.38168
     2011.28815         0.86568         5.38202
     2011.29090         9.31573         5.37899
     2011.29369        11.08083         5.53449
     2011.29911        12.86386         5.48501
     2011.30184        17.56191         5.57185
     2011.30458         7.98296         5.42544
     2011.30732        13.23300         5.38808
     2011.31006        13.81305         5.39313
     2011.31279         8.59710         5.41736
     2011.31553         7.94614         5.41938
