# ================= DQRFIT RESULTS ================
# INPUT FILE: series/MRIB.rad
# OUTPUT: LDETRENDED
# FILTER FUNCTION: f(t)
# f(t)=+line(t)+annual(t)
# line(t)=+P 1+P 2*t
# annual(t)=+P 3*sin(2*pi*t+P 4)
# heav(t)=(t<0?0:1)
# TOTAL OBSERVATIONS MTOT= 1167
# INITIAL TIME INTERVAL= 2022.7488 - 2019.5537 =  3.1951
# TOTAL OBSERVATIONS AFTER PREFILTER M= 1166
# TIME-SPAN= 2022.7488 - 2019.5537 =  3.1951
# OBSERVATIONS: USED M=  1166 REJECTED MTOT-M=     1 %USED=   99.9143
# N=  4 PARAMETERS
# MAXSIG= 175.00000
# MAXRES=  15.12597
# SCALE FACTOR FOR LENGTHS: SCL=  10.00000
# SCALE FACTOR FOR SIGMAS: SCLSIG=   1.00000
# CHI^2=    881.382 DOF=  1162 CHI^2/DOF=   0.75850
# RMS=      4.622 SDEV=      4.624 MEAN=   -0.00068
#  P #       PARAMETER +-    SIGMA %error PARAMETER NAME
# P 1 =     -5760.42375 +-  301.256   5.23 YZERO                              
# P 2 =         2.85813 +-    0.149   5.22 SLOPE                              
# P 3 =         5.72826 +-    0.192   3.35 ANNUAL AMPLITUDE                   
# P 4 =         2.99526 +-    0.047   1.56 ANNUAL PHASE                       
#       T            LDETRENDED       SIG_OBS
     2019.55373         5.06326         4.67946
     2019.55646         5.51944         4.67424
     2019.55920        -0.48339         4.79791
     2019.56194         2.06879         4.60456
     2019.56468        -0.22904         4.67685
     2019.56741         5.64514         4.69340
     2019.57015        -0.38969         4.54708
     2019.57289        -1.35051         4.64724
     2019.57563         5.29266         4.60805
     2019.57837         2.56284         4.66988
     2019.58110         3.54301         4.58540
     2019.58384        -0.99381         4.80052
     2019.58658         1.81336         4.55318
     2019.58932         8.65854         4.54011
     2019.59206         9.01371         4.61327
     2019.59479         3.02689         4.59847
     2019.59753         6.93606         4.76394
     2019.60027         1.43724         4.72998
     2019.60301         0.22741         4.52792
     2019.60574         8.84759         4.71256
     2019.60848         4.47776         4.78571
     2019.61122         0.18494         4.59411
     2019.61396         0.13711         4.70994
     2019.61670        -0.80772         4.54447
     2019.61943         3.74646         4.58976
     2019.62217         3.69663         4.75872
     2019.62491         7.60281         4.59324
     2019.62765         7.08598         4.59847
     2019.63039         9.54616         4.59498
     2019.63312         0.28033         4.54360
     2019.63586         8.82351         4.70820
     2019.63860         5.27568         4.67685
     2019.64134        10.81886         4.85190
     2019.64407         0.30403         4.64550
     2019.64681         0.42621         4.58889
     2019.64955         2.96738         4.54795
     2019.65229         4.28856         4.60369
     2019.65503         4.15073         4.74304
     2019.65776         0.12491         4.67511
     2019.66050         4.47708         4.65159
     2019.66324        -1.19574         4.62459
     2019.66598         6.35943         4.60892
     2019.66872         8.89561         4.60718
     2019.67145         2.17578         4.59585
     2019.67419         0.25796         4.60195
     2019.67693         3.61413         4.67424
     2019.67967         1.01731         4.66117
     2019.68240         1.79448         4.64550
     2019.68514         5.91866         4.63679
     2019.68788         7.36783         4.71169
     2019.69062         4.93101         4.64637
     2019.69336         1.72718         4.54186
     2019.69609         6.39836         4.57321
     2019.69883         4.84753         4.70211
     2019.70157         1.42571         4.68817
     2019.70431         6.94288         4.65333
     2019.70705         6.97106         4.63069
     2019.70978         2.58723         4.62198
     2019.71252         1.13640         4.54099
     2019.71526         7.07958         4.57756
     2019.71800         9.40575         4.74739
     2019.72073         3.34293         4.80575
     2019.72347         9.21910         4.63504
     2019.72621         7.02728         4.59063
     2019.72895         2.28945         4.59411
     2019.73169         2.84263         4.59324
     2019.73442        -1.13620         4.66204
     2019.73716         6.81598         4.59324
     2019.73990         8.67415         4.67249
     2019.74264         4.45133         4.59585
     2019.74538         4.28950         4.54795
     2019.74811         4.33968         4.66640
     2019.75085         4.74085         4.64288
     2019.75359         7.25703         4.79965
     2019.75633         4.03420         4.62198
     2019.75906         3.06538         4.52792
     2019.76180         4.98955         4.56711
     2019.76454         7.58073         4.60718
     2019.76728         5.89290         4.58801
     2019.77002         4.72708         4.55057
     2019.77275         3.38925         4.71604
     2019.77549         5.01243         4.64201
     2019.77823         5.66160         4.59585
     2019.78097         8.96978         4.55057
     2019.78371         7.95495         4.54708
     2019.78644         4.15213         4.62111
     2019.78918         8.73530         4.68556
     2019.79192        13.98548         4.56189
     2019.79466        11.16265         4.60195
     2019.79739         7.50483         4.53315
     2019.80013         9.37100         4.57321
     2019.80287         6.15317         4.55318
     2019.80561         3.18635         4.63330
     2019.80835         3.26552         4.54099
     2019.81108         3.09870         4.58976
     2019.81382         2.37487         4.67337
     2019.81656         7.54005         4.56276
     2019.81930         1.29522         4.55231
     2019.82203         5.36440         4.56711
     2019.82477         2.16957         4.61153
     2019.82751        -0.34825         4.58192
     2019.83025        -0.23508         4.66378
     2019.83299         4.71510         4.65682
     2019.83572         5.97727         4.55057
     2019.83846         8.52845         4.57060
     2019.84120         7.29162         4.57495
     2019.84394         5.99480         4.66030
     2019.84668         1.85197         4.55405
     2019.84941         8.08015         4.56102
     2019.85215         7.11032         4.59585
     2019.85489         5.78850         4.54534
     2019.85763         6.21867         4.51660
     2019.86036         8.01985         4.57060
     2019.86310         7.46602         4.55927
     2019.86584        10.05320         4.61327
     2019.86858        10.62237         4.61937
     2019.87132         7.44355         4.66117
     2019.87405        10.17072         4.51486
     2019.87679         7.82890         4.69078
     2019.87953        14.01907         4.62024
     2019.88227        15.89125         4.54969
     2019.88501        14.37642         4.64637
     2019.88774        12.29460         4.74391
     2019.89048        13.83077         4.54708
     2019.89322        12.32495         4.54882
     2019.89596        -0.94388         4.57147
     2019.89869         5.29629         4.53576
     2019.90143         6.93647         4.53402
     2019.90417         2.47864         4.61153
     2019.90691         4.34482         4.59411
     2019.90965         4.33099         4.56537
     2019.91238         4.95717         4.56624
     2019.91512         8.63334         4.52792
     2019.91786        14.86752         4.60456
     2019.92060         8.59669         4.61588
     2019.92334        13.00187         4.60630
     2019.92607         6.53904         4.62285
     2019.92881         7.40322         4.60282
     2019.93155         7.77039         4.58801
     2019.93429         9.10657         4.62111
     2019.93702         3.99974         4.62111
     2019.93976         4.84492         4.69078
     2019.94250         1.70209         4.64375
     2019.94524        -2.37973         4.62459
     2019.94798        -2.01156         4.59150
     2019.95071         4.42062         4.80400
     2019.95345         5.38279         4.61850
     2019.95619         5.80397         4.59324
     2019.95893         1.82814         4.61501
     2019.96167         0.37932         4.61066
     2019.96440         4.17349         4.70559
     2019.96714         1.35867         4.71430
     2019.96988         1.55284         4.59759
     2019.97262         1.86302         4.59585
     2019.97535         0.55919         4.60021
     2019.97809        -1.34963         4.59672
     2019.98083         1.37854         4.58366
     2019.98357        -1.77328         4.56450
     2019.98631         0.66589         4.61763
     2019.98904        -0.24493         4.61414
     2019.99178         1.96124         4.55492
     2019.99452         1.11841         4.55318
     2020.00000        13.70276         4.56015
     2020.00273         2.12394         4.54273
     2020.00547         4.14011         4.70036
     2020.00821        -0.52971         4.73259
     2020.01095         1.81446         4.74914
     2020.01368        -2.03836         4.60892
     2020.01642         0.47081         4.66727
     2020.01916        -0.62001         4.60195
     2020.02190        -4.70784         4.64027
     2020.02464        -2.73866         4.68991
     2020.02737         0.81551         4.56537
     2020.03011        -2.01531         4.53837
     2020.03285        -9.47814         4.53837
     2020.03559        -1.97896         4.48960
     2020.03833        -3.78979         4.46434
     2020.04106        -4.37461         4.60543
     2020.04380        -6.25644         4.57582
     2020.04654        -3.05126         4.52270
     2020.04928        -5.01609         4.52531
     2020.05201        -6.28591         4.53837
     2020.05475        -5.09274         4.55753
     2020.05749        -6.02556         4.47828
     2020.06023        -1.96039         4.45302
     2020.06297        -7.65321         4.54011
     2020.06570        -3.98204         4.51312
     2020.06844         0.00314         4.55144
     2020.07118         2.69731         4.48263
     2020.07392         1.06749         4.49308
     2020.07666         1.92966         4.54534
     2020.07939        -5.67716         4.52879
     2020.08213        -2.12899         4.52444
     2020.08487        -3.55281         4.51486
     2020.08761        -3.23964         4.45389
     2020.09034        -1.91247         4.50615
     2020.09308        -2.41229         4.52008
     2020.09582         1.00488         4.54011
     2020.09856         1.97306         4.51137
     2020.10130        -1.24377         4.51399
     2020.10403         0.16241         4.54011
     2020.10677        -2.89842         4.50528
     2020.10951       -10.12624         4.53576
     2020.11225        -2.95207         4.47828
     2020.11498        -1.81189         4.47828
     2020.11772        -2.41072         4.63330
     2020.12046        -5.69654         4.63592
     2020.12320        -3.94737         4.50354
     2020.12594        -5.45919         4.49221
     2020.12867        -9.19702         4.47480
     2020.13141        -3.70284         4.46870
     2020.13415        -4.44467         4.49221
     2020.13689        -3.18149         4.57931
     2020.13963        -4.39432         4.57582
     2020.14236        -1.50214         4.51660
     2020.14510        -1.27997         4.52444
     2020.14784       -12.95879         4.49221
     2020.15058        -6.01362         4.51747
     2020.15331        -7.81644         4.48699
     2020.15605        -3.13127         4.53924
     2020.15879        -3.91009         4.49918
     2020.16153        -2.53892         4.49483
     2020.16427        -2.10674         4.50963
     2020.16700         0.99443         4.49134
     2020.16974        -0.19939         4.53576
     2020.17248        -2.25822         4.54621
     2020.17522        -5.27504         4.49221
     2020.17796        -3.67387         4.52792
     2020.18069        -6.65169         4.47218
     2020.18343        -2.38652         4.45215
     2020.18617        -3.26835         4.52008
     2020.18891        -4.51817         4.53489
     2020.19164       -10.03700         4.54534
     2020.19438        -7.62882         4.49744
     2020.19712        -7.08465         4.53053
     2020.19986        -8.63747         4.56450
     2020.20260        -9.26830         4.55927
     2020.20533        -9.63312         4.53750
     2020.20807        -5.64495         4.54882
     2020.21081        -7.47277         4.51137
     2020.21355        -7.18960         4.94074
     2020.21629        -3.29842         4.77875
     2020.21902        -3.59925         4.63592
     2020.22176        -6.97707         4.52879
     2020.22450        -1.81190         4.49831
     2020.22724        -2.06672         4.50963
     2020.22997        -1.63555         4.54099
     2020.23271        -3.63537         4.54969
     2020.23545        -1.35520         4.60282
     2020.23819        -5.73802         4.52618
     2020.24093        -5.15885         4.54186
     2020.24366        -2.79767         4.59585
     2020.24640        -4.43550         4.54882
     2020.24914       -10.10532         4.54273
     2020.25188        -7.40115         4.62895
     2020.25462        -4.45597         4.61588
     2020.25735        -2.84780         4.55666
     2020.26009         2.82838         4.50702
     2020.26283         0.97855         4.53750
     2020.26557        -5.62627         4.55057
     2020.26830        -5.11210         4.52618
     2020.27104        -4.75292         4.55840
     2020.27378        -2.40675         4.55405
     2020.27652        -1.57957         4.59411
     2020.27926        -3.12340         4.63679
     2020.28199        -4.82323         4.62808
     2020.28473       -10.98805         4.57495
     2020.28747       -10.00988         4.57234
     2020.29021        -2.07170         4.53053
     2020.29295        -6.87753         4.53837
     2020.29568         2.49065         4.54186
     2020.29842        -1.62818         4.52879
     2020.30116        -0.69600         4.52531
     2020.30390        -2.88483         4.54011
     2020.30663        -1.80265         4.54534
     2020.30937        -3.06648         4.66727
     2020.31211        -7.03530         4.66466
     2020.31485        -6.16313         4.63069
     2020.31759        -6.23295         4.51399
     2020.32032        -4.03578         4.50789
     2020.32306        -6.12860         4.50528
     2020.32580        -3.12043         4.55840
     2020.32854        -9.73125         4.54795
     2020.33128        -5.90708         4.49134
     2020.33401        -5.45290         4.51050
     2020.33675        -4.45473         4.50528
     2020.33949        -2.91355         4.50179
     2020.34223        -2.13138         4.61850
     2020.34496        -8.20020         4.57408
     2020.34770       -11.06803         4.50528
     2020.35044        -6.22985         4.58105
     2020.35318        -8.11768         4.60979
     2020.35592        -9.08950         4.58627
     2020.35865        -2.35233         4.53228
     2020.36139        -1.71115         4.52792
     2020.36413        -1.62898         4.50441
     2020.36687        -4.20480         4.55666
     2020.36961        -9.47863         4.58801
     2020.37234        -0.46745         4.52792
     2020.37508        -1.73528         4.51137
     2020.37782        -2.26911         4.51660
     2020.38056        -5.23193         4.50615
     2020.38329        -5.47176         4.54534
     2020.38603         0.34742         4.54534
     2020.38877        -2.43141         4.61588
     2020.39151        -6.14223         4.48438
     2020.39425        -6.75906         4.50876
     2020.39698        -6.43388         4.54186
     2020.39972        -1.29271         4.51834
     2020.40246        -2.71153         4.50179
     2020.40520        -6.01936         4.59237
     2020.40794         0.02082         4.54186
     2020.41067       -10.45001         4.62024
     2020.41341        -2.37083         4.58627
     2020.41615        -3.42866         4.51486
     2020.41889        -0.70448         4.52879
     2020.42162        -3.14631         4.51312
     2020.42436        -3.69313         4.69601
     2020.42710        -3.66096         4.71169
     2020.42984        -2.21278         4.54621
     2020.43258         0.29339         4.50005
     2020.43531        -8.10143         4.56973
     2020.43805        -3.51826         4.57669
     2020.44079        -7.29708         4.56624
     2020.44353        -1.36491         4.61327
     2020.44626        -4.86073         4.62546
     2020.44900        -1.07456         4.58453
     2020.45174        -1.17238         4.59150
     2020.45448        -2.88221         4.57756
     2020.45722        -5.33703         4.57147
     2020.45995        -0.61686         4.53053
     2020.46269        -7.76968         4.57931
     2020.46543        -0.05751         4.56885
     2020.46817         3.38667         4.56973
     2020.47091        -1.95116         4.59672
     2020.47364        -2.00299         4.58976
     2020.47638        -2.64081         4.64114
     2020.47912         1.15636         4.76568
     2020.48186        -2.00946         4.62459
     2020.48459        -5.76529         4.76307
     2020.48733        -1.47811         4.70646
     2020.49007         2.22006         4.66727
     2020.49281         2.91524         4.61588
     2020.49555         0.93341         4.68382
     2020.49828        -0.65241         4.56973
     2020.50102        -5.98024         4.59063
     2020.50376        -4.52506         4.60021
     2020.50650        -4.94189         4.53402
     2020.50924        -4.42471         4.54621
     2020.51197        -5.26454         4.59672
     2020.51471        -3.03736         4.57234
     2020.51745        -0.08419         4.59324
     2020.52019         3.00299         4.69949
     2020.52292        -0.05484         4.54534
     2020.52566         1.66134         4.57843
     2020.52840         3.31451         4.56015
     2020.53114        -0.81731         4.56711
     2020.53388        -1.62314         4.58105
     2020.53661         1.73104         4.67685
     2020.53935        -1.12879         4.63766
     2020.54209         0.65939         4.59411
     2020.54483        -4.10744         4.57843
     2020.54757         4.68274         4.55753
     2020.55030         1.00891         4.55492
     2020.55304         1.23909         4.60805
     2020.55578         2.70426         4.56015
     2020.55852         3.14544         4.57495
     2020.56125         3.75161         4.57060
     2020.56399         1.77079         4.54273
     2020.56673        -1.48804         4.52879
     2020.56947         3.82113         4.66901
     2020.57221        -0.31569         5.04438
     2020.57494         0.34948         4.69688
     2020.57768         2.68866         4.74043
     2020.58042         3.18083         4.74826
     2020.58316         3.29801         4.72562
     2020.58590         3.06718         4.73346
     2020.58863         2.29236         4.64724
     2020.59137         3.09653         4.66901
     2020.59411         5.59171         4.72736
     2020.59685         8.62988         4.89022
     2020.59958         4.40306         4.81968
     2020.60232         6.87623         4.66727
     2020.60506         0.26341         4.66291
     2020.60780        -2.49042         4.86671
     2020.61054        14.50276         4.71952
     2020.61327        10.35993         4.69949
     2020.61601        -1.91589         4.69078
     2020.61875         0.51428         4.69688
     2020.62149        -0.18754         4.69949
     2020.62423         1.44663         4.82752
     2020.62696         5.06281         4.84929
