# ================= DQRFIT RESULTS ================
# INPUT FILE: series/MSLK.rad
# OUTPUT: LDETRENDED
# FILTER FUNCTION: f(t)
# f(t)=+line(t)+annual(t)
# line(t)=+P 1+P 2*t
# annual(t)=+P 3*sin(2*pi*t+P 4)
# heav(t)=(t<0?0:1)
# TOTAL OBSERVATIONS MTOT= 2154
# INITIAL TIME INTERVAL= 2014.6171 - 2008.0082 =  6.6089
# TOTAL OBSERVATIONS AFTER PREFILTER M= 2121
# TIME-SPAN= 2014.6171 - 2008.0082 =  6.6089
# OBSERVATIONS: USED M=  2121 REJECTED MTOT-M=    33 %USED=   98.4680
# N=  4 PARAMETERS
# MAXSIG= 175.00000
# MAXRES=  41.40946
# SCALE FACTOR FOR LENGTHS: SCL=  10.00000
# SCALE FACTOR FOR SIGMAS: SCLSIG=   1.00000
# CHI^2=   3043.253 DOF=  2117 CHI^2/DOF=   1.43753
# RMS=      8.245 SDEV=      8.247 MEAN=   -0.03766
#  P #       PARAMETER +-    SIGMA %error PARAMETER NAME
# P 1 =      4321.80667 +-  183.950   4.26 YZERO                              
# P 2 =        -2.14360 +-    0.091   4.27 SLOPE                              
# P 3 =         2.76395 +-    0.229   8.28 ANNUAL AMPLITUDE                   
# P 4 =         2.78663 +-    0.110   3.94 ANNUAL PHASE                       
#       T            LDETRENDED       SIG_OBS
     2008.00821         6.36276         7.02837
     2008.01095         6.76963         6.72143
     2008.01368         3.77450         6.86651
     2008.01642         4.64737         6.88089
     2008.01916        -2.76076         6.72143
     2008.02190        -8.64290         7.05115
     2008.02464        -4.71103         7.07153
     2008.02737        -3.14216         6.69146
     2008.03011        -7.66729         7.27176
     2008.03266        29.88618        20.36692
     2008.03633       -21.29596        11.12645
     2008.03833        -8.22368         6.92046
     2008.04106       -10.70081         6.90128
     2008.04380       -14.25394         7.25257
     2008.04654        -6.64208         6.89288
     2008.04928        -6.41821         6.92046
     2008.05201        -5.06434         7.00199
     2008.05475        -3.85747         6.85811
     2008.05749       -11.14560         7.16145
     2008.06023        -3.19073         6.85452
     2008.06297        -2.94786         6.86171
     2008.09588        -5.97931         7.17584
     2008.09856        -4.09357         7.05954
     2008.10130        -0.69670         7.12668
     2008.10403         2.61017         6.77418
     2008.10677        11.40604         6.87969
     2008.10951        -6.28509         6.90247
     2008.11208       -11.36659         7.45040
     2008.12879         1.43924         9.07261
     2008.13141        -2.89314         6.74901
     2008.13415         3.93273         6.69985
     2008.13689        -1.14640         6.75380
     2008.13963         0.71547         6.79457
     2008.14236         2.56634         6.84253
     2008.14510        -0.61780         6.79697
     2008.14784         6.34007         6.69505
     2008.15058        -0.51506         6.86770
     2008.15331        -9.00219         6.90128
     2008.15697        -7.57535        12.05925
     2008.15879        -1.65845         6.75980
     2008.16153        -5.01058         6.79337
     2008.16427        -2.13371         6.90727
     2008.17031       -16.83775         8.98509
     2008.17248        -7.94711         7.05474
     2008.17522         1.05476         6.89648
     2008.17796        -0.64237         6.63750
     2008.17962       -21.37979        21.08750
     2008.18343         0.90537         6.69745
     2008.18611        -0.81989         6.89288
     2008.18891        -7.11389         6.71663
     2008.19164        -6.10803         7.21421
     2008.19438         1.08584         7.06673
     2008.19712         3.17971         8.33165
     2008.19986         4.44958         6.87250
     2008.20260        -8.46555         6.71184
     2008.20533         7.01632         6.73222
     2008.20807        -0.97181         7.01278
     2008.21081        -1.64294         7.08472
     2008.21355         0.54493         8.21055
     2008.21629         5.89679         6.79217
     2008.21886        -6.51669         7.40125
     2008.22083        -7.19145        12.91052
     2008.22450        -9.55060         6.98880
     2008.22724        -8.30573         7.22859
     2008.22997         3.54814         6.93844
     2008.23271         0.62301         7.17824
     2008.23544        -8.98615         9.79199
     2008.23819        -5.80025         7.25857
     2008.24093        -0.74039         6.91207
     2008.24366        -0.56852         6.81135
     2008.24640        -2.07465         6.88209
     2008.24914        -1.72978         9.02345
     2008.25109        -9.17460        11.40941
     2008.25462        -1.40904         7.16145
     2008.25642        21.21682        16.51702
     2008.26283         3.62557         6.78138
     2008.26557        -1.50757         6.80896
     2008.26830        -7.28770         6.90847
     2008.27104         3.46517         7.16385
     2008.27378         2.24004         7.99114
     2008.27652         0.05991         6.89648
     2008.27926        -1.40322         6.97321
     2008.28200        -8.45834         6.91446
     2008.28473        -5.80948         6.96362
     2008.28747         5.64539         7.59428
     2008.29021         2.15725         7.51275
     2008.29295         3.38012         7.24058
     2008.29568        -0.92901         6.89408
     2008.29842        -8.52514         6.88209
     2008.30116        -1.45927         6.79217
     2008.30390        -3.34740         6.92765
     2008.30663         1.52547         7.01877
     2008.30937         5.95534         6.93724
     2008.31211        -2.88779         7.21900
     2008.31485        -6.69693         7.12788
     2008.31759        -9.86706         9.06422
     2008.32032        -4.34019         7.28135
     2008.32306        -6.78032         7.14587
     2008.32580         2.91055         7.12908
     2008.32854        -3.68158         6.79697
     2008.33128        -3.40671         7.48158
     2008.33401        -4.03184         6.79337
     2008.33675        -1.69598         6.87130
     2008.33948         1.20287         7.19023
     2008.34223       -12.51224         6.82454
     2008.34483        -3.14766         7.77772
     2008.34753        -6.34788         7.37367
     2008.35044        -6.99163         6.81855
     2008.35318        -0.12876         7.10270
     2008.35592        -5.57489         7.12548
     2008.35865        -6.51502         7.29933
     2008.36139        -3.21816         9.16973
     2008.36615        -1.33996        10.16847
     2008.36941       -10.27097         7.23699
     2008.37234       -10.21968         6.77538
     2008.37508        -3.25381         9.36756
     2008.37782         2.02506         6.86531
     2008.38056        -1.70607         7.03436
     2008.38330         1.33281         6.91686
     2008.38603        -2.31534         6.69865
     2008.38820        -4.06168         9.21289
     2008.39151        -3.17860         6.89768
     2008.39425         6.28127         7.28615
     2008.39698         0.10314         6.77059
     2008.39972        -0.78399         6.66028
     2008.40246         1.90788         7.71178
     2008.40491        -4.34287         7.98395
     2008.46107         6.00552        16.92347
     2008.46269         0.87099         6.83533
     2008.46543        -6.70514         6.77299
     2008.46817        -8.48227         6.77658
     2008.47091       -10.53440         7.12908
     2008.47364       -24.77553         7.07633
     2008.47638        -0.37666         6.78977
     2008.47912        -2.37879         6.86890
     2008.48186         1.58107         6.76459
     2008.48459         1.02194         7.16145
     2008.48733        -0.90419         6.85212
     2008.49007        -7.49032         6.75260
     2008.49281        -1.64845         6.78378
     2008.49555        -4.97758         7.00199
     2008.49828        -1.30271         7.60387
     2008.50102         0.19716         7.19023
     2008.50376        -5.83697         7.01638
     2008.50638       -11.56335         7.63624
     2008.51112        -2.45020        12.56761
     2008.51471         1.00250         6.98880
     2008.51745        -6.54763         6.89049
     2008.52019        -2.96076         7.35449
     2008.52292        -8.14689         7.31252
     2008.52566        -3.47402         7.18183
     2008.52840         0.59385         6.91566
     2008.53114         2.46371         7.16865
     2008.53388        -1.55042         7.24178
     2008.53661         1.14945         7.03916
     2008.53935        -1.26368         7.28615
     2008.54209         2.07419         6.83174
     2008.54483        11.69406         7.01758
     2008.54757         3.71793         6.91926
     2008.55030         8.04580         6.75260
     2008.55304        10.67367         6.95523
     2008.55578        -2.07847         7.34729
     2008.55852        13.81240         7.34489
     2008.56125        -2.09873         6.87250
     2008.56399        -5.15186         7.00319
     2008.56673        -0.87599         7.27176
     2008.56947         3.46888         7.11949
     2008.57221         4.29175         7.13987
     2008.57494         8.18562         7.73576
     2008.57768         3.12449         7.75734
     2008.58042         7.30635         7.66142
     2008.58316         7.50722         6.91446
     2008.58590         4.12309         6.92765
     2008.58863        13.24896         7.14706
     2008.59137        -1.09817         9.07261
     2008.59411         3.62470         6.79097
     2008.59685        -1.33443         7.02477
     2008.59958         5.51544         7.28015
     2008.60232        12.34131         7.33890
     2008.60506        -1.85883         7.24778
     2008.60780         4.00304         6.84492
     2008.61054        -2.88909         7.00199
     2008.61327        -0.10022         7.04755
     2008.61602         7.43166         7.13747
     2008.61875         5.80152         6.89288
     2008.62155         9.23152         6.94324
     2008.62423        -1.02074         6.94804
     2008.62696         4.02012         6.92645
     2008.62970         7.34399         7.48398
     2008.63244        -1.39314         7.17584
     2008.63518         7.21573         7.30293
     2008.63791        -7.28740         7.11829
     2008.64065         9.18947         6.99959
     2008.64339         1.48034         7.85326
     2008.64613         7.73121         7.58109
     2008.64887        -8.03492         7.39885
     2008.65160        13.98494         6.96003
     2008.65434         5.17581         7.24778
     2008.65708        10.03568         7.21061
     2008.65982         3.05855         6.87250
     2008.66256         9.34542         7.22979
     2008.66529        15.75029         8.09785
     2008.66803         9.37516         8.19257
     2008.67077        -5.22397         7.83288
     2008.67351         6.10490         7.55471
     2008.67624         7.99376         7.42163
     2008.67898         5.64063         7.11349
     2008.68172         7.26950         6.96003
     2008.68446        -3.18063         6.95523
     2008.68714        -3.64888         7.48637
     2008.68995         0.63414         7.45880
     2008.69267         6.62798         7.27655
     2008.69569        -8.25055        21.33928
     2008.69815         8.23772         8.50790
     2008.70089         2.20158         7.07752
     2008.70365         3.50651         9.05103
     2008.70636         5.00532         7.65183
     2008.70910         3.14319         7.98035
     2008.71184        -0.91994         7.57150
     2008.71457        -5.86607         6.99839
     2008.71731        -7.27920         7.01158
     2008.72005         7.04167         6.94564
     2008.72282         0.72960         6.94804
     2008.72553        10.43440         7.60867
     2008.72826        -2.73673         8.95511
     2008.73100         3.80714         7.88443
     2008.73374        -2.18199         7.73096
     2008.73648         9.77288         7.55232
     2008.73921        -0.55025         8.96351
     2008.74469        -5.83351         6.95883
     2008.74743         2.61336         7.33530
     2008.75017         4.63422         6.94923
     2008.75290         9.21209         7.03556
     2008.75564         1.40296         7.17464
     2008.75838         1.48683         7.36288
     2008.76115         6.68276         7.39645
     2008.76386        -1.59843         8.19616
     2008.76659        -2.72556         7.20222
     2008.76933        -0.55569         8.17458
     2008.77207         6.00318         8.81004
     2008.77486        -5.06883         9.86753
     2008.77646        -6.97941        16.07700
     2008.78419        -5.15583        23.74921
     2008.78576       -14.65748         7.07633
     2008.78850        -0.77761         7.38926
     2008.79123         3.42326         7.26816
     2008.79397        -5.23787         7.54033
     2008.79671         7.95499         7.12428
     2008.79948        -6.04508         7.07273
     2008.80219         0.50673         7.51875
     2008.80492         2.63060         6.87850
     2008.80766        -1.43453         7.37967
     2008.81040         3.79034         7.26217
     2008.81314         4.41821         7.24178
     2008.81587        -7.56692         7.00439
     2008.81864        -1.69199         6.87850
     2008.82135        -2.55319         6.90847
     2008.82409        -1.69732         7.10390
     2008.82683        -2.23645         6.93125
     2008.82956        -2.84658         7.16745
     2008.83230        -3.00271         6.93605
     2008.83504         0.96116         7.01877
     2008.83781         3.94210         7.70219
     2008.84052         4.60290         6.95283
     2008.84325        10.31777         6.76339
     2008.84599         3.79063         6.86171
     2008.84879        -9.07137         7.19862
     2008.85147        -7.48563         7.05235
     2008.85420        -7.59076         7.09431
     2008.85697        18.37617         6.91926
     2008.85968         2.36798         6.93365
     2008.86242         2.08185         7.11349
     2008.86516        -0.43728         6.91926
     2008.86789         1.22359         7.26217
     2008.87063         4.51945         7.04395
     2008.87337        -7.80268         6.97801
     2008.87609        -5.58185         7.30413
     2008.87914        -9.02830         8.07747
     2008.88158        -6.76707         7.00679
     2008.88432        -0.14720         6.83293
     2008.88706         2.00167         7.12668
     2008.88980       -12.52446         7.45520
     2008.89253        -1.32559         7.07513
     2008.89530        -4.40666         7.17464
     2008.89801         6.68214         7.28854
     2008.90075         3.15501         7.11829
     2008.90326        -3.84761         7.74535
     2008.90724        -0.42707        14.92719
     2008.90896         0.15362         6.88089
     2008.91170        -2.47051         7.15546
     2008.91447         3.71442         6.82214
     2008.91718        -0.14077         7.10150
     2008.91991        -3.62991         7.07153
     2008.92265        -5.04204         6.95523
     2008.92539        -2.56217         6.99000
     2008.92813        10.07770         7.08832
     2008.93086         3.25857         6.95283
     2008.93366        -7.79644         7.26696
     2008.93634        -8.43969         6.98400
     2008.93908        -5.88582         7.08832
     2008.94182       -10.30696         7.45280
     2008.94455        -4.77209         7.18423
     2008.94729        -3.75622         6.99000
     2008.95003        -2.43635         6.75500
     2008.95280        -4.11642         7.00079
     2008.95551         2.47739         6.91926
     2008.95824         0.33326         6.93005
     2008.96098         1.34013         6.81975
     2008.96372         0.19900         6.78378
     2008.96646        -3.90114         6.98400
     2008.96919        -6.61027         6.85452
     2008.97196        -0.09334         7.01997
     2008.97467        -6.83453         6.77059
     2008.97741        -8.33866         7.22380
     2008.98015        -9.79879         6.79936
     2008.98288        -1.12192         6.82694
     2008.98538       -10.35256         7.75974
     2008.98931       -18.53315        12.74386
     2008.99113       -10.49525         6.88929
     2008.99384        -8.60045         6.78617
     2008.99657        -8.07958         6.65549
     2008.99931        -2.61771         6.90967
     2009.00479         4.40803         6.66868
     2009.00752        -1.37710         6.70464
     2009.01029        -8.03517         6.89768
     2009.01300         3.27764         7.43841
     2009.01574        -6.84350         7.42523
     2009.01848         4.25037         7.00918
     2009.02121         2.19624         7.06434
     2009.02395        -5.28689         7.33291
     2009.02669       -13.81602         6.90727
     2009.02946        -8.24709         6.96962
     2009.03216       -14.36528         6.94923
     2009.03490       -12.38941         6.91566
     2009.03764       -10.28654         7.28135
     2009.04038       -15.13768         6.95643
     2009.04312       -12.11181         6.78617
     2009.04585       -19.06494         6.99480
     2009.04862       -16.18101         6.95883
     2009.05133       -11.79020         6.83773
     2009.05404       -14.24639         7.17344
     2009.05683        -5.13040         6.87010
     2009.05960        -6.46047         7.20701
     2009.06228       -13.55672         7.00199
     2009.06502       -10.28486         7.16505
     2009.06779        -9.63593         6.95763
     2009.07042        -7.59228         6.96722
     2009.07328        -6.96916         7.00079
     2009.07597        -5.62838         6.85811
     2009.07871        -8.05651         7.48877
     2009.08145        -6.75364        11.47655
     2009.08418        -8.90777         7.10030
     2009.08695        -7.46184         7.39405
     2009.08966       -10.48104         6.79217
     2009.09240        -9.41217         6.75500
     2009.09514        -4.01030         6.99360
     2009.09787        -6.52343         7.20462
     2009.10061        -0.07756         6.83893
     2009.10335        -6.47869         6.80536
     2009.10612        -1.09876         7.22020
     2009.10882         1.76305         6.82214
     2009.11156        -9.80809         7.01158
     2009.11430        -9.57622         7.19023
     2009.11710         3.98680         6.99959
     2009.11978        -0.34848         6.79697
     2009.12251        -2.05261         7.12428
     2009.12528        -0.84668         7.14946
     2009.12799        -5.75986         6.90247
     2009.13073         4.74600         7.06673
     2009.13347        -2.40713         6.84253
     2009.13620       -14.24127         6.92286
     2009.13894        -6.15340         6.89049
     2009.14161        -9.22468         7.12668
     2009.14445        -8.28960         6.99240
     2009.14715        -3.99179         7.13508
     2009.14989        -6.86092         7.55831
     2009.15263       -10.67105         7.50076
     2009.15537        -6.12318         7.23819
     2009.15807        -4.95040         7.14107
     2009.16632        -5.39471         7.77173
     2009.16906        -2.74084        10.76196
     2009.17180        -4.19397         6.98161
     2009.17442         2.90765         7.32451
     2009.17756         1.74539         8.44315
     2009.18001        -4.07736         7.16865
     2009.18280        -5.43837         7.04156
     2009.18548        -8.99963         7.04036
     2009.18822       -11.65076         6.95043
     2009.19096        -7.24589         6.84492
     2009.19370        -5.65202         6.89168
     2009.19644        -9.27915         6.96842
     2009.19877        -7.60214         8.38440
