# ================= DQRFIT RESULTS ================
# INPUT FILE: series/MTCL.rad
# OUTPUT: LDETRENDED
# FILTER FUNCTION: f(t)
# f(t)=+line(t)+annual(t)
# line(t)=+P 1+P 2*t
# annual(t)=+P 3*sin(2*pi*t+P 4)
# heav(t)=(t<0?0:1)
# TOTAL OBSERVATIONS MTOT= 1516
# INITIAL TIME INTERVAL= 2022.7488 - 2017.6673 =  5.0815
# TOTAL OBSERVATIONS AFTER PREFILTER M= 1513
# TIME-SPAN= 2022.7488 - 2017.6673 =  5.0815
# OBSERVATIONS: USED M=  1513 REJECTED MTOT-M=     3 %USED=   99.8021
# N=  4 PARAMETERS
# MAXSIG= 175.00000
# MAXRES=  18.05092
# SCALE FACTOR FOR LENGTHS: SCL=  10.00000
# SCALE FACTOR FOR SIGMAS: SCLSIG=   1.00000
# CHI^2=   1217.127 DOF=  1509 CHI^2/DOF=   0.80658
# RMS=      5.050 SDEV=      5.051 MEAN=    0.00513
#  P #       PARAMETER +-    SIGMA %error PARAMETER NAME
# P 1 =      1658.73052 +-  170.711  10.29 YZERO                              
# P 2 =        -0.82231 +-    0.084  10.28 SLOPE                              
# P 3 =         2.70006 +-    0.180   6.68 ANNUAL AMPLITUDE                   
# P 4 =         2.86109 +-    0.091   3.17 ANNUAL PHASE                       
#       T            LDETRENDED       SIG_OBS
     2017.66735         2.64741         4.90361
     2017.67008         3.68366         4.77608
     2017.67282         5.31791         5.00869
     2017.67556        -2.15884         4.89104
     2017.67830         0.00941         4.83356
     2017.68104         1.04766         4.81201
     2017.68377         3.48692         4.88834
     2017.68651         7.54217         5.09940
     2017.68925         6.45142         4.97815
     2017.69199         0.99167         4.92247
     2017.69472         2.64692         4.80392
     2017.69746         6.38517         4.95480
     2017.70020         4.37142         5.02216
     2017.70294         6.17668         5.08772
     2017.70568        -0.72107         5.01498
     2017.70841         6.17118         4.81021
     2017.71115         3.56443         4.88206
     2017.71389         6.96368         4.96827
     2017.71663        12.77193         4.85511
     2017.71937        10.11218         4.95031
     2017.72210         5.43643         4.83805
     2017.72484        -0.75231         4.82188
     2017.72758         0.64394         4.84434
     2017.73032         3.87719         4.86948
     2017.73305         2.42944         4.88745
     2017.73579         2.77069         4.87218
     2017.73853         0.97194         4.85062
     2017.74127         0.83819         4.87128
     2017.74401         6.40245         5.09491
     2017.74674         1.81470         4.87936
     2017.74948         9.08595         4.90361
     2017.75222        -1.80480         5.04192
     2017.75496         6.49845         4.82727
     2017.75770         0.95670         4.94941
     2017.76043        -1.56605         4.85242
     2017.76317         2.92321         4.83446
     2017.76591         4.22846         4.94762
     2017.76865         0.67871         4.85691
     2017.77138         0.22896         4.89553
     2017.77412         1.52421         4.85332
     2017.77686        -1.55154         4.90271
     2017.77960         3.84571         4.92247
     2017.78234         0.39897         4.82278
     2017.78507        -2.08978         4.91978
     2017.78781        -3.31353         4.82099
     2017.79055        -0.63128         4.80033
     2017.79329         5.21597         4.86230
     2017.79603         1.78122         4.88655
     2017.79876        19.28047         5.03653
     2017.80150         7.74472         5.07245
     2017.80424         7.64798         4.84164
     2017.80698         9.71523         4.94223
     2017.80971        -5.00052         4.87397
     2017.81245        -3.45727         4.83176
     2017.81519         0.58998         4.86589
     2017.81793        -3.67277         4.87397
     2017.82067        -2.19952         4.92876
     2017.82340        -0.57526         4.82548
     2017.82614        -0.65301         4.83087
     2017.82888        -2.12476         4.88026
     2017.83162         2.43049         4.82997
     2017.83436         2.37174         5.03294
     2017.83709         0.67699         4.98893
     2017.83983        -1.62176         4.87218
     2017.84257        -3.42450         4.91798
     2017.84531        -1.26125         4.89194
     2017.84804        -8.30900         4.87128
     2017.85078         1.08525         4.83446
     2017.85352         3.96450         5.04551
     2017.85626         2.75875         5.13263
     2017.85900         2.25800         5.08503
     2017.86173         0.45625         5.00150
     2017.86447         4.33351         4.84344
     2017.86721         4.20576         5.10389
     2017.86995         0.42201         4.99881
     2017.87269         5.95126         4.92966
     2017.87542         4.89451         4.94492
     2017.87816         3.86576         4.99342
     2017.88090         1.42701         4.88565
     2017.88364         0.23127         4.89553
     2017.88637        11.82952         5.02755
     2017.88911         9.09377         5.03743
     2017.89185        10.68802         5.07874
     2017.89459         6.16327         5.02216
     2017.89733         0.43152         4.88745
     2017.90006         4.16577         4.98354
     2017.90280        -5.34097         5.13801
     2017.90554         3.43028         4.94223
     2017.90828         4.16453         4.94762
     2017.91102         0.86078         4.98085
     2017.91375        -4.11697         5.00330
     2017.91649        -1.44172         4.91080
     2017.91923         1.09653         4.89732
     2017.92197         9.26879         4.89194
     2017.92470        -2.56796         4.90810
     2017.92744        -6.52771         4.92876
     2017.93018        -3.74046         4.87038
     2017.93292        -6.31921         4.87667
     2017.93566        -3.45496         4.85871
     2017.93839        -2.19371         4.88385
     2017.94113        -5.27946         4.90810
     2017.94387        -1.78220         4.89104
     2017.94661         0.71705         4.84883
     2017.94935         4.65830         4.87667
     2017.95208        -2.29945         5.00061
     2017.95482        -2.71920         4.88116
     2017.95756         1.34705         4.90451
     2017.96030         5.95530         4.91439
     2017.96303         4.34456         4.86948
     2017.96577        11.22881         4.99073
     2017.96851         4.73006         5.00779
     2017.97125         0.27831         4.77608
     2017.97399         2.80456         4.86859
     2017.97672        -5.04319         4.86230
     2017.97946        -1.70094         4.88924
     2017.98220        -1.43668         4.79404
     2017.98494        -5.81743         4.75004
     2017.98767        -7.84118         4.79853
     2017.99041        -5.93993         4.90181
     2017.99315         5.75832         4.92786
     2017.99589         1.75557         4.91169
     2017.99863        -3.38918         4.81290
     2018.00136        -8.77793         4.80751
     2018.00410        -8.33067         4.85511
     2018.00684        -4.42842         4.85691
     2018.00958        -2.49217         4.95480
     2018.01232         6.06708         4.87128
     2018.01505        -6.89167         4.95840
     2018.01779         0.49258         4.85960
     2018.02053        -3.68417         4.98983
     2018.02327        10.85809         4.89194
     2018.02600         0.50434         4.84434
     2018.02874         5.67259         4.90361
     2018.03148        -4.67616         4.86948
     2018.03422        -6.19391         4.84703
     2018.03696        -8.90966         4.85960
     2018.03969        -3.63841         4.83805
     2018.04243        -6.18815         5.00330
     2018.04517        -6.04090         5.08592
     2018.04791        -3.29465         4.95480
     2018.05065        -0.16440         4.90900
     2018.05338        -1.34115         4.85332
     2018.05612        -0.97090         4.83625
     2018.05886        -4.76465         4.74016
     2018.06160        -3.13439         4.85062
     2018.06433         8.52286         5.10299
     2018.06707        -0.63889         5.03473
     2018.06981         0.86236         4.89104
     2018.07255        -9.44239         4.87667
     2018.07529        -9.83314         4.94223
     2018.07802       -11.20489         4.95480
     2018.08076        -3.54164         5.00599
     2018.08350        -4.55138         4.93325
     2018.08624        -6.44013         4.85062
     2018.08898        -4.95888         4.94133
     2018.09171        -1.15463         4.92606
     2018.09445        -6.80738         4.90002
     2018.09719        -0.15313         5.31045
     2018.09993        -5.32688         5.10029
     2018.10266        -7.97162         4.88655
     2018.10540        -4.13837         4.95929
     2018.10814        -5.13012         4.89104
     2018.11088        -3.97487         4.91080
     2018.11362        -0.85362         4.84973
     2018.11635        -4.73837         4.92696
     2018.11909        -6.44112         4.98534
     2018.12183        -2.59686         5.01498
     2018.12457         0.68139         4.89643
     2018.12731        -7.89936         4.96558
     2018.13004        11.06289         4.94852
     2018.13278        10.10114         4.86499
     2018.13552         2.47839         4.81380
     2018.13826        -1.93736         4.86769
     2018.14099        -1.73210         4.87218
     2018.14373        -5.08085         4.81290
     2018.14647         1.16840         5.05180
     2018.14921        -0.85235         4.91798
     2018.15195         0.20890         4.89553
     2018.15468        -0.31685         4.93415
     2018.15742        -1.73260         4.87846
     2018.16016        -6.05535         4.92606
     2018.16290        -3.64209         5.12275
     2018.16564         0.80116         5.82057
     2018.16837        -2.05759         4.91169
     2018.17111        -2.49834         4.87577
     2018.17385        -6.07709         4.88924
     2018.17659        -2.43584         4.87577
     2018.17932        -1.22759         4.96199
     2018.18206        11.70767         5.14789
     2018.18480         8.48992         5.03922
     2018.18754        -1.39383         4.89104
     2018.19028        -5.75558         4.85871
     2018.19301        -1.15933         4.91888
     2018.19575         8.17792         5.04192
     2018.19849         2.32917         4.84703
     2018.20123         9.21243         4.90451
     2018.20397         6.05368         4.87846
     2018.20670         7.37693         4.82907
     2018.20944         3.12218         4.89014
     2018.21218        -2.57857         4.86859
     2018.21492       -10.21832         4.82368
     2018.21765         0.56293         4.80392
     2018.22039        -2.60982         4.81829
     2018.22313         0.91444         4.82997
     2018.22587        -4.73331         4.85152
     2018.22861        -5.38606         4.76351
     2018.23134        -2.58881         4.71771
     2018.23408        -8.98756         4.80302
     2018.23682        -2.88331         4.87487
     2018.23956        -8.17406         4.84883
     2018.24230        -4.31580         4.77698
     2018.24503        -4.37255         4.79494
     2018.24777        -1.33430         4.75183
     2018.25051         0.23695         4.85152
     2018.25325        -2.43980         4.76890
     2018.25598        -4.77255         4.77698
     2018.25872        -0.07030         4.87397
     2018.26146         0.54296         4.84434
     2018.26420        -3.99979         5.07335
     2018.26694         2.68146         4.74644
     2018.26967        -7.82929         4.75453
     2018.27241         4.09496         4.88206
     2018.27515         3.77221         4.81201
     2018.27789         4.14546         4.90002
     2018.28062        -1.83528         5.00510
     2018.28336        -8.13203         4.81111
     2018.28610        -1.66778         4.72309
     2018.28884        11.81347         4.71321
     2018.29158         4.43772         4.83805
     2018.29431        -3.27403         4.82458
     2018.29705        -1.32678         4.73567
     2018.29979        -3.97153         4.79674
     2018.30253        -8.53427         4.81380
     2018.30527        -5.42702         4.68807
     2018.30800        -3.29377         4.73387
     2018.31074        -5.10652         4.67549
     2018.31348        -4.99827         4.74734
     2018.31622        -5.50402         4.74195
     2018.31895         0.29023         4.97726
     2018.32169         1.67749         4.69974
     2018.32443        -3.05626         4.68807
     2018.32717        -4.27401         4.80841
     2018.32991        -1.00576         4.88565
     2018.33264        -0.19651         4.75183
     2018.33538        -3.29426         4.92606
     2018.33812        -4.64701         4.86589
     2018.34086        -0.84775         4.77788
     2018.34360         0.52350         4.82278
     2018.34633        -2.91025         4.91529
     2018.34907        -0.51900         4.78596
     2018.35181        -0.34275         4.87936
     2018.35455        -0.40250         4.75992
     2018.35728         0.85375         4.70783
     2018.36002         3.82600         4.74644
     2018.36276         2.06026         4.82727
     2018.36550        -1.19849         4.82548
     2018.36824         1.14276         5.02036
     2018.37097        -2.24499         4.77788
     2018.37371        -2.34574         4.87667
     2018.37645        -5.52249         4.95570
     2018.37919         3.72276         4.77339
     2018.38193        -2.34498         4.80572
     2018.38466         4.33327         4.71052
     2018.38740        -0.00748         4.81739
     2018.39014         3.73877         4.85511
     2018.39288         0.61702         4.85511
     2018.39561         7.00427         4.80213
     2018.39835         3.07052         4.73567
     2018.40109        -1.12122         4.71142
     2018.40383        -0.83497         4.86140
     2018.40657         2.99228         4.78686
     2018.40930         7.02753         4.95750
     2018.41204         6.94078         4.77878
     2018.41478        -4.69497         4.75004
     2018.42299        -2.75021         4.94133
     2018.42573         3.58704         4.79225
     2018.42847        -2.17571         4.82368
     2018.43121         5.21954         4.82458
     2018.43394        -1.25621         4.88116
     2018.43668        -6.12896         4.88475
     2018.43942         2.29729         5.28889
     2018.44216        -4.98345         4.84973
     2018.44490        -3.54520         4.74824
     2018.44763         3.24805         4.80123
     2018.45037        -5.15670         4.73567
     2018.45311         1.80755         4.78057
     2018.45585         5.96680         4.84344
     2018.45859         3.92905         4.84973
     2018.46132        -0.36769         5.01138
     2018.46406         0.00256         4.71232
     2018.46680        -2.40919         4.77429
     2018.46954        -4.60494         4.92966
     2018.47227        -5.62669         4.92606
     2018.47501         3.67156         4.82009
     2018.47775         4.05481         4.76081
     2018.48049         6.17507         4.94133
     2018.48323        -2.72468         4.80841
     2018.48596         1.01857         4.81650
     2018.48870         3.62882         4.87667
     2018.49144         2.43407         4.76620
     2018.49418         4.33332         4.85152
     2018.49692        -1.13443         5.01767
     2018.49965         8.28483         4.77429
     2018.50239         1.12708         4.74465
     2018.50513        -0.06667         4.75543
     2018.50787         1.94358         4.82458
     2018.51060         0.54483         4.96109
     2018.51334         3.50308         4.79315
     2018.51608         4.71733         4.74914
     2018.51882         1.61258         4.72758
     2018.52156        -4.31916         4.79315
     2018.52429         4.91209         5.50174
     2018.52703         0.27534         4.84074
     2018.52977        -0.26641         4.74285
     2018.53251         3.56184         4.80841
     2018.53525         4.86609         4.80302
     2018.53798         0.06934         4.83985
     2018.54072         1.49760         4.78506
     2018.54346         0.84685         4.75183
     2018.54620         3.70710         4.74644
     2018.54893         5.44335         4.72399
     2018.55167         1.07260         4.73028
     2018.55441        -0.43115         4.76890
     2018.55715         5.58010         4.89014
     2018.55989         1.27736         4.96289
     2018.56262        -0.09339         4.81560
     2018.56536        -2.90314         4.86140
     2018.56810         5.33511         5.19280
     2018.57084         4.58936         4.85601
     2018.57357         1.22061         4.87038
     2018.57631        -1.74614         4.93954
     2018.57905        -0.27589         5.00599
     2018.58179         5.67937         4.89014
     2018.58453         3.81662         4.88745
     2018.58726         5.81287         4.75183
     2018.59000         2.23712         4.78506
     2018.59274         5.58637         4.74106
     2018.59548         9.01362         4.86409
     2018.59822         6.67887         4.73567
     2018.60095         3.59513         4.77608
     2018.60369         7.25038         4.74644
     2018.60643         2.74363         4.79494
     2018.60917        -3.18712         4.84254
     2018.61190         5.22613         4.71950
     2018.61464         4.51338         4.76441
     2018.61738         2.64363         4.79225
     2018.62012         6.12689         4.75183
     2018.62286        13.04414         4.95211
     2018.62559         8.07839         4.99342
     2018.62833         0.23064         4.77698
     2018.63107         2.92389         4.80213
     2018.63381         3.57414         5.38320
     2018.63655         1.80039         4.71411
     2018.63928         2.94065         4.96378
     2018.64185        -0.17824         5.35266
     2018.64541       -12.87132        15.20658
     2018.64750         7.61040         4.76800
     2018.65023         8.87265         5.00869
     2018.65326         9.29114         5.56102
     2018.65571         5.42215         4.76890
     2018.65845         5.70940         4.84434
     2018.66119        10.93666         5.11287
     2018.66392         5.39591         4.99522
     2018.66666         3.33616         4.74285
     2018.66940         3.44241         4.86230
     2018.67214         0.63566         4.72579
     2018.67488         1.15291         5.22244
     2018.67761         6.18816         4.88475
     2018.68035        -0.13458         4.87128
     2018.68309        -3.43433         4.87846
     2018.68583        -1.73008         4.80841
     2018.68856         1.96217         4.79494
     2018.69130         4.34542         4.84074
     2018.69404         1.72867         4.91259
     2018.69678         2.59492         4.71501
     2018.69826        13.65414        16.46212
     2018.72963        -2.72406         4.91708
     2018.73214        -2.49400         5.30416
     2019.49623         0.29433         4.75093
     2019.49897        -4.17242         4.79315
     2019.50171         0.36883         4.68717
     2019.50444        -5.52092         4.76351
     2019.50718        -1.75467         4.76979
     2019.50992        -4.93342         4.82188
     2019.51266        -4.73117         4.80033
     2019.51540        -0.77892         4.72938
     2019.51813        -6.73866         4.76710
     2019.52087        -1.68841         4.81021
     2019.52361        -4.63016         4.90631
     2019.52635        -3.72691         4.83625
     2019.52908        -1.15566         4.96289
     2019.53182        -6.62141         4.96468
