# ================= DQRFIT RESULTS ================
# INPUT FILE: series/MYRA.rad
# OUTPUT: LDETRENDED
# FILTER FUNCTION: f(t)
# f(t)=+line(t)+annual(t)
# line(t)=+P 1+P 2*t
# annual(t)=+P 3*sin(2*pi*t+P 4)
# heav(t)=(t<0?0:1)
# TOTAL OBSERVATIONS MTOT= 1298
# INITIAL TIME INTERVAL= 2022.4995 - 2012.0520 = 10.4475
# TOTAL OBSERVATIONS AFTER PREFILTER M= 1281
# TIME-SPAN= 2022.4995 - 2012.0520 = 10.4475
# OBSERVATIONS: USED M=  1281 REJECTED MTOT-M=    17 %USED=   98.6903
# N=  4 PARAMETERS
# MAXSIG= 175.00000
# MAXRES=  24.87835
# SCALE FACTOR FOR LENGTHS: SCL=  10.00000
# SCALE FACTOR FOR SIGMAS: SCLSIG=   1.00000
# CHI^2=   1939.283 DOF=  1277 CHI^2/DOF=   1.51862
# RMS=      8.970 SDEV=      8.932 MEAN=   -0.86408
#  P #       PARAMETER +-    SIGMA %error PARAMETER NAME
# P 1 =    -11801.26861 +-  382.309   3.24 YZERO                              
# P 2 =         5.86166 +-    0.189   3.23 SLOPE                              
# P 3 =         6.42940 +-    0.344   5.35 ANNUAL AMPLITUDE                   
# P 4 =        -2.89893 +-    0.073   2.53 ANNUAL PHASE                       
#       T            LDETRENDED       SIG_OBS
     2012.05201         0.45255         7.85977
     2012.92539        -1.29188         8.17278
     2012.92813        -6.96292         8.14197
     2012.93086         2.47803         8.20728
     2013.39082        -7.08510         8.17771
     2013.39630        -4.18619         7.97930
     2014.66940        11.97232         8.08035
     2014.68856         6.98698         7.98053
     2014.69130         2.53493         8.09637
     2014.80903         8.74285         8.11116
     2014.93497       -22.71637         8.03969
     2014.93771       -15.02242         8.10746
     2015.77002         2.51088         8.56589
     2016.07118        -4.93744         8.50550
     2016.07392        -4.27549         8.48456
     2016.07666        -3.18154         8.55480
     2016.07939         6.43242         8.45991
     2016.08213       -10.06363         8.54247
     2016.08487        -5.30168         9.38415
     2016.08761       -12.90273         8.33791
     2016.09034        -6.84878         8.26890
     2016.09308        -1.74183         8.32066
     2016.09582       -16.02887         8.31819
     2016.09856       -11.71192         8.29478
     2016.10130       -16.39397         8.31326
     2016.10403       -15.46502         8.35270
     2016.10677        -8.53707         8.25165
     2016.10951        -8.99512         8.35146
     2016.11225        -3.93216         8.42787
     2016.11498        -7.89821         8.38104
     2016.11772        -5.32326         8.27876
     2016.12046        -9.49631         8.24795
     2016.12320        -5.89736         8.31573
     2016.12594        -9.76341         8.57821
     2016.12867       -14.63645         8.34284
     2016.13141         5.50850         8.20235
     2016.13415        -4.26355         8.20605
     2016.13689       -10.68360         8.24672
     2016.13963        -6.30865         8.26890
     2016.14236       -21.41670         8.21098
     2016.14510       -15.31874         8.22823
     2016.14784       -20.33679         8.18880
     2016.15058       -16.94884         8.30464
     2016.15331       -11.97089         8.42047
     2016.15605        -5.81194         8.27136
     2016.15879       -10.86999         8.41062
     2016.16153        -3.07603         8.43649
     2016.16427       -19.41408         8.47346
     2016.16700        -8.12313         8.14936
     2016.16974        -9.69618         8.26397
     2016.17248       -12.75423         8.46114
     2016.17522        -6.05028         8.40199
     2016.17796        -0.82032         8.42664
     2016.18069       -12.00937         8.36748
     2016.18343       -13.85442         8.44019
     2016.18617         0.31553         8.13827
     2016.18891        -5.68152         8.16415
     2016.19164        -2.68757         7.99532
     2016.19438        -4.39761         8.05940
     2016.19712       -12.75666         8.03722
     2016.19986       -11.74271         8.27752
     2016.20260       -11.26576         8.36872
     2016.20533       -17.15281         8.63120
     2016.20807       -14.00786         8.42417
     2016.21081       -18.36090         8.33175
     2016.21355       -13.96195         8.19003
     2016.21629        -2.48100         8.07912
     2016.21902        -6.79405         8.14690
     2016.22176        -4.86310         8.05201
     2016.22450       -17.52015         8.21714
     2016.22724        -6.90419         8.04215
     2016.22997        -6.84124         8.06310
     2016.23271       -12.78329         8.25041
     2016.23545       -13.14134         8.10993
     2016.67077         7.89497         8.39952
     2016.67351         3.88292         8.05201
     2016.67624         6.89887         8.04708
     2016.67898         3.85783         8.06926
     2016.68172         9.00978         8.09144
     2016.68446        12.62573         8.41308
     2016.78028        -7.28596         8.19742
     2016.78302        -2.29801         8.33298
     2016.78576         4.32694         8.31449
     2016.78850        11.56689         8.24548
     2016.79123        10.39784         8.24056
     2016.79397        13.49780         8.18387
     2016.79671         7.28375         8.10746
     2016.79945       -11.92630         8.17278
     2016.80219        -9.48135         8.35639
     2016.80492        -2.62840         8.18510
     2016.80766         3.35755         8.13581
     2016.81040        -5.87749         8.16292
     2016.81314        -1.03654         8.17278
     2016.81587        -9.00459         8.05571
     2016.81861         2.81236         8.20851
     2016.82135         0.04431         8.30094
     2016.82409        -2.68774         8.03722
     2016.82683         1.79722         8.15183
     2016.82956        10.42917         8.04954
     2016.83230         5.48612         7.99779
     2016.83504        -3.53993         8.02983
     2016.83778        -0.17898         8.20975
     2016.84052        -3.84203         8.12348
     2016.84325       -13.44108         8.32189
     2016.84599        -2.07212         8.29847
     2016.84873         0.29883         7.98793
     2016.85147        -5.09722         8.11116
     2016.85420        -9.23527         8.12965
     2016.85694        -4.76932         8.15676
     2016.85968         1.88763         8.47470
     2016.86242        -1.34441         8.04092
     2016.86516         5.49454         8.41555
     2016.86789        -0.79651         8.05571
     2016.87063         1.67444         8.21837
     2016.87337         8.52839         8.16785
     2016.87611        -3.06866         8.16662
     2016.87885        -5.15370         8.05571
     2016.88158       -12.16675         8.10870
     2016.88432         0.24420         8.21714
     2016.88706        -1.03285         8.23809
     2016.88980         1.58410         8.15306
     2016.89253         3.08205         8.20482
     2016.89527       -31.91399         8.26274
     2016.89801        -7.30904         8.27136
     2016.90075        -3.74509         8.16538
     2016.90349        -3.75714         8.45251
     2016.90622        -1.11919         8.24056
     2016.90896        -5.61824         8.00641
     2016.91170       -10.06828         8.12225
     2016.91444        -1.00633         8.10130
     2016.91718        -3.66838         8.30340
     2016.91991        -8.06643         8.31696
     2016.92265        -1.43148         8.09637
     2016.92539       -11.39453         8.06556
     2016.92813       -11.07057         8.14197
     2016.93086        -7.85862         9.41496
     2016.93357        -9.51550        12.46989
     2016.93740         6.53507        24.17698
     2016.94558       -21.81588        16.00050
     2016.94729        -7.96991         8.13704
     2016.94913       -11.84067        14.84582
     2016.95387         8.72753        26.35080
     2016.95659       -23.80244        22.03766
     2016.95936        -4.23965        23.27122
     2016.96214        -5.29495        26.39393
     2016.96502       -14.09581        68.80685
     2016.96708        -0.79693        10.91593
     2016.96919        -3.32630         8.18757
     2016.97193        -5.65435         8.11116
     2016.97467        -2.84140         8.44759
     2016.97741         0.79556         9.68114
     2016.98015       -14.59152        22.44063
     2016.98660       -20.25833        15.48046
     2016.98836        -7.21264         8.11116
     2016.99110        -5.57269         8.26150
     2016.99384        -5.96973         8.26027
     2016.99657         4.49222        12.40581
     2016.99931       -14.31083        34.03434
     2017.00202       -38.43671        34.03311
     2017.00588       -21.94836        25.77530
     2017.00868       -11.99477        26.60712
     2017.01126       -15.36385        28.46423
     2017.01406        -8.19429        18.13982
     2017.01574       -18.98212        13.95238
     2017.01848        -1.67217         9.85367
     2017.01992       -13.19464       302.88013
     2017.02466       -25.39842        12.65967
     2017.02574        -3.42877        15.20196
     2017.03055       -13.60397        24.51587
     2017.03328        -6.93293        23.45730
     2017.03876         2.51694        32.00224
     2017.04154         8.44964        33.66341
     2017.04579         3.90671        14.75462
     2017.04872        10.94657        13.49149
     2017.05133        15.79025        12.29860
     2017.05407         8.97620        11.53826
     2017.05681        12.92015        11.29549
     2017.05954         0.98310        11.36327
     2017.06208         5.90823        13.11933
     2017.06502       -17.55002        12.50440
     2017.06776        -9.69604        11.76500
     2017.07049        -5.77309        11.71201
     2017.07323        -8.76614        11.61466
     2017.07597        -6.23919        11.64670
     2017.07871       -22.12723        11.94862
     2017.08145       -10.56928        11.82416
     2017.08418       -19.65933        22.14364
     2017.08692       -11.66138        26.31260
     2017.09514       -18.23752        17.08248
     2017.10335       -22.88770        23.82453
     2017.11159        -6.61495        11.59618
     2017.11430       -12.80286        11.34848
     2017.11704       -14.50891        12.04721
     2017.11953       -13.73554        12.39842
     2017.12261        -1.95656        12.00161
     2017.12525         1.77994        11.59001
     2017.12799         1.27790        11.68860
     2017.13349         2.59566        12.68062
     2017.13620        -3.60425        11.36819
     2017.13867        -6.53474        13.51121
     2017.14974       -22.07257        18.69560
     2017.15534        -7.95639        12.21357
     2017.16358       -11.90873        11.54319
     2017.16632         6.67722        11.43474
     2017.16906       -12.56183        11.53826
     2017.18001       -37.57802        16.14961
     2017.19097       -12.68930        11.52224
     2017.19370        -5.40526        11.37189
     2017.19608       -12.81325        13.52476
     2017.20465       -13.14946        12.60422
     2017.20739       -19.37451        11.67751
     2017.21013        -3.69156        11.70955
     2017.22108        -1.99075        11.60234
     2017.22381        -7.33880        12.36638
     2017.22655       -21.67185        12.25793
     2017.22872       -11.28952        15.77252
     2017.23221       -13.26300        17.41275
     2017.23477       -13.08199        11.59125
     2017.23725        -8.87556        12.79030
     2017.24299       -10.34922        16.12127
     2017.24576       -22.63543        14.38616
     2017.24846       -15.16623        13.41509
     2017.25101       -24.35319        17.33388
     2017.25372        -0.54307        22.17322
     2017.25685       -13.15346        12.21480
     2017.25940        -5.06537        12.41074
     2017.26212       -42.18031        12.40951
     2017.26499       -21.48114        12.08294
     2017.26742       -15.45940        12.67323
     2017.27039       -10.06781        11.75145
     2017.27273       -14.92852        13.47054
     2017.27556       -10.62313        20.77083
     2017.27880       -16.52510        12.08418
     2017.28131       -19.99981        12.05090
     2017.28405       -13.63686        12.63133
     2017.28669       -16.18832        12.77797
     2017.28968       -16.19985        13.23024
     2017.29228       -15.01309        11.76993
     2017.29500       -12.79705        11.52100
     2017.29774       -17.31410        11.70215
     2017.30338       -16.63520        29.03110
     2017.30608       -21.47000        11.61343
     2017.30869        -4.27130        13.94622
     2017.31170       -14.92393        15.27220
     2017.31431       -14.96426        12.65474
     2017.31690       -17.10744        12.09650
     2017.31928       -22.85540        13.52476
     2017.32200       -25.23231        21.83679
     2017.32550       -19.98887        15.15143
     2017.32785        -4.74363        13.33252
     2017.33031       -21.98901        14.15941
     2017.33334       -15.24579        14.39725
     2017.33607       -10.47578        11.63931
     2017.33880        -7.17483        12.60791
     2017.34154       -11.47688        12.21727
     2017.34428        -9.72492        12.28012
     2017.34702       -15.49497        11.74282
     2017.34976       -11.69002        11.80197
     2017.35249       -14.58807        11.30042
     2017.35523       -11.90712        12.85315
     2017.35797       -11.83717        11.41749
     2017.36071       -13.42121        11.58755
     2017.36344       -15.53126        11.27331
     2017.36618       -13.04031        11.36573
     2017.36892        -6.24836        11.53456
     2017.37166        -5.01941        12.04351
     2017.37440       -11.62148        11.69599
     2017.37713        -9.56750        11.43351
     2017.37987       -12.93555        11.56906
     2017.38261        -5.68360        11.29056
     2017.38535       -19.43465        11.25112
     2017.38809        -3.98170        11.49266
     2017.39082        -3.04375        11.49266
     2017.39356        -5.52680        11.46432
     2017.39630        -6.58884        11.42735
     2017.39904        -6.27289        11.45323
     2017.40177        -4.14294        11.31274
     2017.40451        -4.00499        12.22836
     2017.40725        -5.41304        11.52100
     2017.40999        -1.59609        11.31028
     2017.41273        -3.60513        11.47910
     2017.41546        -9.00918        11.24743
     2017.41820         3.53777        11.83525
     2017.42094        -2.65128        11.59864
     2017.42368       -16.76233        11.35094
     2017.42642        -3.16638        11.30658
     2017.42915        -5.97842        11.36450
     2017.43189        -4.13147        12.04967
     2017.43463       -14.21752        11.62082
     2017.43737        -4.02757        11.45446
     2017.44010       -12.19762        11.48157
     2017.44284        -2.10167        11.34848
     2017.44558        -6.15371        11.49759
     2017.44832        -5.13076        11.40147
     2017.45106        -4.99681        11.46678
     2017.45379         5.16214        12.25793
     2017.45653        -5.80791        12.15565
     2017.45927        -2.02696        11.49020
     2017.46201        -1.16300        11.31397
     2017.46475        -0.56705        11.35834
     2017.46748       -15.07110        11.49020
     2017.47022        -5.89315        11.48403
     2017.47296         2.30980        11.65902
     2017.47570        -9.64225        11.44213
     2017.47843       -12.18629        11.35094
     2017.48117        -7.41134        11.63561
     2017.48391       -11.66939        11.75391
     2017.48665        -1.93044        11.42365
     2017.48939         1.06251        11.31274
     2017.49212         1.49846        11.51484
     2017.49486        -7.64758        11.82908
     2017.49760       -12.62063        12.14456
     2017.50034        -0.63968        11.37805
     2017.50308        -5.67773        11.50868
     2017.50581        -4.00078        11.53702
     2017.50855        -9.07783        11.43104
     2017.51129       -26.28087        11.59248
     2017.51403         9.35208        11.85620
     2017.51676        -2.27897        11.62945
     2017.51950       -15.09202        11.55797
     2017.52224         6.51093        11.56660
     2017.52498        -2.59012        11.39284
     2017.52772       -14.07016        12.03735
     2017.53045         1.37479        11.62082
     2017.53319         5.25074        11.26468
     2017.53593         0.83769        11.67504
     2017.53867        -5.02936        11.46925
     2017.54141         2.01459        11.60603
     2017.54414         3.45655        11.51607
     2017.54688         9.17050        11.78226
     2017.54962        -3.67155        11.75391
     2017.55236       -13.24060        11.74405
     2017.55509        -2.62365        11.68737
     2017.55783        -7.13170        11.75884
     2017.56057        -4.71374        11.58755
     2017.56331        -1.64079        11.62082
     2017.56605        -1.68484        11.74898
     2017.56878        -6.00489        11.95232
     2017.57152        -4.00194        11.87222
     2017.57426       -12.98199        11.70585
     2017.57700       -14.73003        11.70585
     2017.57974        -9.12508        12.00284
     2017.58247         0.31487        11.69969
     2017.58521        -9.52818        11.45446
     2017.58795       -11.20023        11.70832
     2017.59069        -6.38228        11.71078
     2017.59342         0.12167        11.66272
     2017.59616        -0.19137        11.63068
     2017.59890         4.51358        11.52593
     2017.60164         2.40653        11.62452
     2017.60438        -6.55952        11.41009
     2017.60711         1.55543        11.82785
     2017.60985       -13.15462        11.63931
     2017.61259        -1.98466        12.29367
     2017.61533        -7.04071        11.90179
     2017.61807        -4.77176        11.57523
     2017.62080       -13.42481        11.49759
     2017.62354         8.31314        11.78349
     2017.62628        -7.38091        11.65656
     2017.62902         1.29905        12.14086
     2017.63175       -15.13900        11.73173
     2017.63449        -8.58905        12.07678
     2017.63723        -7.85310        11.67011
     2017.63997         4.37685        11.74405
     2017.64271         8.73780        11.81183
     2017.64544         5.28376        11.58385
     2017.64818        -1.85429        11.77856
     2017.65092        -1.82834        11.44337
     2017.65366        -4.91339        11.63191
     2017.65639       -10.48644        11.45446
     2017.65913         7.62351        11.67135
     2017.66187       -15.67153        11.77117
     2017.66461         5.41142        11.75761
     2017.66735         6.84837        12.02009
     2017.67008         9.76132        11.42242
     2017.67282        -8.88873        11.78719
     2017.67556        -3.23378        11.81060
     2017.67830         5.54318        12.13963
     2017.68104         4.53713        11.90179
     2017.68377         2.09608        13.03183
     2017.68652        -3.53500        12.09773
     2017.68925        15.77098        12.04721
     2017.69199         2.60893        11.74405
     2017.69472         8.91489        11.54811
     2017.69746        -0.26516        12.04844
     2017.70020         2.24279        11.35094
     2017.70294         3.96674        11.59494
     2017.70568        -5.14131        11.42488
     2017.70841         1.64964        11.45076
     2017.71115         2.13260        11.87715
     2017.71389        13.55055        11.59741
     2017.71663        12.79350        11.55058
