# ================= DQRFIT RESULTS ================
# INPUT FILE: series/NCSB.rad
# OUTPUT: LDETRENDED
# FILTER FUNCTION: f(t)
# f(t)=+line(t)+annual(t)
# line(t)=+P 1+P 2*t
# annual(t)=+P 3*sin(2*pi*t+P 4)
# heav(t)=(t<0?0:1)
# TOTAL OBSERVATIONS MTOT= 1079
# INITIAL TIME INTERVAL= 2022.7488 - 2019.7974 =  2.9514
# TOTAL OBSERVATIONS AFTER PREFILTER M=  941
# TIME-SPAN= 2022.7488 - 2019.7974 =  2.9514
# OBSERVATIONS: USED M=   941 REJECTED MTOT-M=   138 %USED=   87.2104
# N=  4 PARAMETERS
# MAXSIG= 175.00000
# MAXRES=  51.36105
# SCALE FACTOR FOR LENGTHS: SCL=  10.00000
# SCALE FACTOR FOR SIGMAS: SCLSIG=   1.00000
# CHI^2=  10224.291 DOF=   937 CHI^2/DOF=  10.91173
# RMS=     22.326 SDEV=     22.282 MEAN=   -1.57551
#  P #       PARAMETER +-    SIGMA %error PARAMETER NAME
# P 1 =    -10536.28577 +- 1372.858  13.03 YZERO                              
# P 2 =         5.25626 +-    0.679  12.92 SLOPE                              
# P 3 =        14.13003 +-    0.857   6.07 ANNUAL AMPLITUDE                   
# P 4 =        -2.35195 +-    0.059   2.50 ANNUAL PHASE                       
#       T            LDETRENDED       SIG_OBS
     2019.79739         9.00376        17.26630
     2019.80013        14.09837        17.33897
     2019.80287        13.09897        17.40174
     2019.80561        20.72358        17.50744
     2019.80835        12.91419        17.48101
     2019.81108        15.40580        17.85759
     2019.81382        23.23841        18.01615
     2019.81656       -12.53898        17.35549
     2019.81930        -2.79837        17.29933
     2019.82203         5.98024        17.47441
     2019.82477         3.93985        17.39843
     2019.82751         5.27246        17.41495
     2019.83025        10.58507        17.70564
     2019.83299         9.85568        17.67921
     2019.83572         9.34128        17.37861
     2019.83846        17.55589        17.45459
     2019.84120        15.15750        17.39843
     2019.84394        11.72811        17.82125
     2019.84668         5.14672        17.26300
     2019.84941         9.90433        17.24978
     2019.85215         8.39494        17.57681
     2019.85489        14.22255        17.43147
     2019.85763        20.10816        17.18702
     2019.86036         8.82477        17.32576
     2019.86310         7.07238        17.39183
     2019.86584        24.14799        17.67591
     2019.86858        12.42759        17.67261
     2019.87132        16.17220        17.66600
     2019.87405        20.51981        17.33897
     2019.87679        11.11242        17.93026
     2019.87953        18.69003        17.30594
     2019.88227        14.11264        17.40504
     2019.88501         9.41625        17.57020
     2019.88774        11.97586        18.13176
     2019.89048        19.23647        17.47441
     2019.89322        26.17908        17.28612
     2019.89596        14.79969        17.45128
     2019.89869       -12.83670        17.68582
     2019.90143       -24.22310        19.46629
     2019.90417       -17.50549        19.22185
     2019.90691        -0.05288        17.52396
     2019.90965         8.15673        17.28282
     2019.91238         9.77334        17.21675
     2019.91512        15.84295        17.37531
     2019.91786        19.34556        17.47110
     2019.92060        18.22917        17.63297
     2019.92334         1.76678        17.66600
     2019.92607        -3.32661        17.58342
     2019.92881        12.50800        17.51074
     2019.93155        25.60360        17.49092
     2019.93429        25.18721        17.43147
     2019.93702        10.14782        17.55699
     2019.93976         8.54143        17.78161
     2019.94250         5.26004        17.69573
     2019.95893       -45.54930        19.78671
     2019.96167       -13.72069        21.32935
     2019.96440         8.82091        22.24766
     2019.96714        19.61452        22.17499
     2019.96988        27.38613        23.46658
     2019.97262         8.06974        23.04045
     2019.97535         5.78435        22.12544
     2019.97809        -6.58704        23.47979
     2019.98083       -12.54143        23.08340
     2019.98357       -14.02482        23.38069
     2019.98631        -6.06921        23.27168
     2019.98904        -5.46060        23.71763
     2019.99178       -14.52199        22.74646
     2020.00000        23.35483        17.47110
     2020.00273        -8.60656        17.35549
     2020.00547       -14.60795        18.28371
     2020.00821        19.08066        17.89062
     2020.01095        -2.73773        17.80804
     2020.01368       -22.76512        17.81465
     2020.01642       -55.67651        18.26389
     2020.01916       -30.31090        17.88071
     2020.02190       -33.63729        19.04677
     2020.02464       -40.12568        20.21614
     2020.02737        -0.80707        19.87590
     2020.03011        -5.48647        21.64977
     2020.03285       -16.27486        21.34586
     2020.03559        -1.61925        20.31524
     2020.03833        -3.73364        20.92304
     2020.04106       -15.37603        21.28971
     2020.04380       -18.53642        21.67950
     2020.04654       -35.09481        22.50532
     2020.04928       -60.51520        22.94135
     2020.05201        -4.47459        18.52155
     2020.05475        -0.17498        17.55369
     2020.05749       -36.94237        17.84768
     2020.06023       -30.92177        19.56209
     2020.06297        10.78184        17.23327
     2020.06570        10.74645        17.39513
     2020.06844       -60.67794        18.55458
     2020.07392       -61.85672        23.58550
     2020.08213        19.03411        24.56327
     2020.08487       -28.40028        17.68582
     2020.09308       -59.38246        19.36059
     2020.09582       -50.29585        20.24587
     2020.09856         4.52576        17.33567
     2020.10130        -2.77163        17.24318
     2020.10403       -37.18202        18.32666
     2020.10677       -17.97041        19.82965
     2020.10951       -33.33180        19.71734
     2020.11225       -41.57819        18.88161
     2020.11498       -33.11558        19.35728
     2020.11772       -35.47697        19.81644
     2020.12046       -32.99836        20.14347
     2020.12320       -32.55475        19.28791
     2020.12594       -40.57315        19.77680
     2020.13415       -29.30232        19.30113
     2020.13689       -14.70971        17.47771
     2020.13963         0.91090        17.29933
     2020.14236        -1.87049        17.12756
     2020.14510         1.30012        17.46119
     2020.16974       -45.57640        22.38970
     2020.17248       -38.95079        22.87859
     2020.17522       -37.52418        22.07589
     2020.17796       -19.20457        21.83475
     2020.18069       -26.62396        21.15758
     2020.18343       -23.73135        21.84796
     2020.18617       -26.37474        21.89091
     2020.18891       -32.03513        22.02634
     2020.19164       -15.52853        21.84136
     2020.19438       -44.45992        23.86628
     2020.19712       -43.40731        25.09510
     2020.19986        -2.27370        21.70262
     2020.20260        30.19891        19.96839
     2020.20533        -5.17048        17.88732
     2020.20807        -2.75587        17.39843
     2020.21081        -5.67526        17.29603
     2020.21355        -6.26465        18.88161
     2020.21629        -1.45704        18.00624
     2020.21902        -5.99443        17.48762
     2020.22176        -3.43483        17.35879
     2020.22450        -2.89722        17.32576
     2020.22724         2.71139        17.19363
     2020.22997        -1.88100        17.23657
     2020.23271         1.89361        17.18372
     2020.23545         3.71622        17.47441
     2020.23819         6.41783        17.37201
     2020.24093         4.21044        17.42816
     2020.24366         3.40305        17.42486
     2020.24640        -1.82934        17.37201
     2020.24914        -8.28373        17.38522
     2020.25188        -5.91312        17.62306
     2020.25462       -17.41452        17.59663
     2020.25735       -20.97591        17.35219
     2020.26009       -10.29030        17.32906
     2020.26283         2.49331        17.21675
     2020.26557       -30.44108        17.74858
     2020.26830       -10.41847        17.36540
     2020.27104        -4.32986        17.34228
     2020.27378         1.25675        17.41495
     2020.27652        -3.38764        17.43147
     2020.27926         0.70697        17.55038
     2020.28199         1.35858        17.73206
     2020.28473        -3.71881        17.47110
     2020.28747        -6.75121        17.61315
     2020.29021         0.02840        17.50744
     2020.29295        -1.99899        17.46119
     2020.29568        11.02062        17.37531
     2020.29842         6.32023        17.30264
     2020.30116         7.76084        17.26630
     2020.30390         9.35845        17.57681
     2020.30663         5.64206        17.46780
     2020.30937         0.91667        17.74528
     2020.31211         1.12328        17.71555
     2020.31485         6.34689        17.67921
     2020.31759         1.07450        17.17711
     2020.32032         9.49210        17.30594
     2020.32306         3.28971        17.22336
     2020.32580         5.81432        17.31585
     2020.32854        14.66693        17.10114
     2020.33128        -0.77246        17.26960
     2020.33401         2.95415        17.19693
     2020.33675         6.45876        17.26300
     2020.33949         4.16637        17.28612
     2020.34223        -4.79802        17.39183
     2020.34496        -0.76241        17.07801
     2020.34770        -6.64280        17.09123
     2020.35044        -2.78020        17.36870
     2020.35318        -3.44559        17.58342
     2020.35592        -5.27098        17.46780
     2020.35865         1.15963        17.09453
     2020.36139         5.68824        17.09453
     2020.36413         7.11685        17.17711
     2020.36687         7.69546        17.46119
     2020.36961         6.14907        17.46780
     2020.37234        -0.27532        17.12426
     2020.37508        10.71929        17.07471
     2020.37782        16.56890        17.22996
     2020.38056         8.47051        17.25969
     2020.38329         9.88011        17.27951
     2020.38603        -4.81128        17.29603
     2020.38877         4.00833        17.45459
     2020.39151         7.20394        17.14078
     2020.39425         8.26655        17.28282
     2020.39698         5.54116        17.33567
     2020.39972        10.09677        17.09453
     2020.40246         0.05838        17.12756
     2020.40520         4.95999        17.30594
     2020.40794         4.67160        17.22336
     2020.41067         1.78621        17.33567
     2020.41341         3.81882        17.10774
     2020.41615         7.27342        17.16390
     2020.41889         4.65703        17.00864
     2020.42162         2.99564        17.07801
     2020.42436         9.07925        17.92366
     2020.42710         3.32586        17.81134
     2020.42984        11.80447        17.16720
     2020.43258         1.96208        17.18702
     2020.43531         3.83469        17.09783
     2020.43805         5.78130        17.27291
     2020.44079         0.43891        17.47771
     2020.44353         9.29852        17.66930
     2020.44626         4.19013        17.70894
     2020.44900         8.53673        17.43477
     2020.45174         6.41834        17.31915
     2020.45448         6.88795        17.50744
     2020.45722         6.74256        17.41825
     2020.45995         4.99317        17.45128
     2020.46269        -2.14422        17.32246
     2020.46543         4.74939        17.19693
     2020.46817        16.68900        17.68912
     2020.47091        12.90561        17.46450
     2020.47364         9.90422        17.58672
     2020.47638        14.89383        17.62306
     2020.47912        14.31443        17.75188
     2020.48186         4.93904        17.32576
     2020.48459        -2.66835        18.40263
     2020.48733         7.72126        17.91705
     2020.49007         1.46287        17.76179
     2020.49281         5.02448        17.82786
     2020.49555         4.89809        17.64618
     2020.49828         0.51470        17.39513
     2020.50102         4.58931        17.40834
     2020.50376         2.70692        17.50083
     2020.50650         3.21753        17.32576
     2020.50924         3.68414        17.27621
     2020.51197         2.00074        17.35219
     2020.51471         6.85435        17.42486
     2020.51745         7.82496        17.48762
     2020.52019        15.36957        18.06900
     2020.52292        11.53918        17.42156
     2020.52566        11.10179        17.44798
     2020.52840         7.86540        17.27951
     2020.53114         3.03301        17.37201
     2020.53388         1.07062        17.35549
     2020.53661        -2.03477        17.87741
     2020.53935         1.89484        17.82786
     2020.54209         7.03745        17.26630
     2020.54483         0.70805        17.42156
     2020.54757         7.03166        17.41165
     2020.55030         9.87927        17.48101
     2020.55304         6.52688        17.43147
     2020.55578        19.08449        17.48101
     2020.55852        13.92510        17.33897
     2020.56125         4.02071        17.42486
     2020.56399         7.48132        17.34558
     2020.56673         4.95193        17.22336
     2020.56947         8.06154        17.61975
     2020.57221         6.55015        18.77260
     2020.57494         5.76076        17.91375
     2020.57768        10.69036        17.95999
     2020.58042         5.01197        17.95008
     2020.58316         0.99258        17.85759
     2020.58590         5.81219        17.70564
     2020.58863        11.38580        17.96660
     2020.59137        15.66641        17.80143
     2020.59411        16.21902        17.79813
     2020.59685         9.11163        18.21104
     2020.59958         7.79324        18.35969
     2020.60232         7.72885        17.77170
     2020.60506         7.87946        17.90053
     2020.60780        14.29506        18.25068
     2020.61054        12.07967        17.66930
     2020.61327        11.93228        17.65609
     2020.61601         9.27489        17.72546
     2020.61875        11.43950        17.78161
     2020.62149        11.46111        17.88732
     2020.62423        10.51572        17.85429
     2020.62696         9.38433        18.11194
     2020.62970        13.61994        18.00954
     2020.63244        15.26055        18.07230
     2020.63518         8.46016        17.84768
     2020.63791         4.48777        18.68672
     2020.64065         7.86537        17.66270
     2020.64339         9.08198        17.70233
     2020.64613        10.83559        17.59002
     2020.64887        14.26620        17.63297
     2020.65160         3.53181        17.58011
     2020.65434         8.59842        17.86750
     2020.65708         9.26403        18.02606
     2020.65982        11.72864        17.95008
     2020.66256         8.01625        17.73867
     2020.66529        12.43286        17.66600
     2020.66803        16.50047        17.80804
     2020.67077         8.74608        18.67020
     2020.67351        11.80468        17.77170
     2020.67624        11.96429        17.72876
     2020.67898         5.18890        17.67261
     2020.68172         6.48351        18.11855
     2020.68446         7.02212        17.77501
     2020.68720         4.81673        17.92696
     2020.68993         7.28334        17.69243
     2020.69267        12.88295        17.84768
     2020.69541         8.75056        18.39272
     2020.69815        10.00717        17.93026
     2020.70089        10.23078        17.68912
     2020.70362         5.68239        17.66930
     2020.70636         4.43199        18.50503
     2020.70910         1.54860        18.42576
     2020.71184        14.13621        18.33326
     2020.71457         9.97482        18.04918
     2020.71731         8.83643        18.12516
     2020.72005         9.02004        18.49182
     2020.72279        13.37465        17.56690
     2020.72553        13.27126        18.01945
     2020.72826        16.07787        18.42576
     2020.73100        19.27548        18.11194
     2020.73374        11.26509        18.05248
     2020.73648        15.96770        17.81465
     2020.73921        14.22030        17.81134
     2020.74195        14.81591        17.87741
     2020.74469        13.26952        17.72215
     2020.74743         7.64213        17.80804
     2020.75017        10.04874        17.65279
     2020.75290         7.53835        17.42486
     2020.75564         8.01096        17.55699
     2020.75838        14.85357        17.83777
     2020.76112        15.08518        17.85759
     2020.76386        12.38179        17.59993
     2020.76659        15.18340        17.50414
     2020.76933        14.00100        17.89723
     2020.77207         8.43661        17.66600
     2020.77481        10.43722        17.63627
     2020.77754         5.00383        17.62306
     2020.78028        10.45644        17.82786
     2020.78302         0.85705        17.86089
     2020.78576        14.83266        17.70233
     2020.78850        11.24027        17.72876
     2020.79123        25.94288        18.12516
     2020.79397        13.52749        17.60324
     2020.79671        12.94310        17.88402
     2020.79945        17.46471        17.79483
     2020.80219        14.27631        18.16480
     2020.80492        -5.92508        17.63957
     2020.81314       -28.66825        18.17140
     2020.81587         5.82036        17.65939
     2020.81861        12.46497        17.67591
     2020.82135        14.13358        17.71224
     2020.82409        15.69519        17.78822
     2020.82683        11.54280        18.02275
     2020.82956         7.33841        18.39603
     2020.83230         8.10602        18.12516
     2020.83504        10.30062        18.18131
     2020.83778        10.27723        18.07230
     2020.84052        20.49084        17.77170
     2020.84325        14.19245        18.33657
     2020.84599        12.37306        18.32335
     2020.84873        10.12367        17.51074
     2020.85147       -28.70472        18.64377
     2020.85420         0.03389        18.29362
     2020.85694         8.28050        17.78161
     2020.85968        11.51911        17.47771
     2020.87611        51.19776        23.11973
     2020.87885        10.32437        19.30443
     2020.88158        16.23398        17.75519
     2020.88432        12.16959        17.59333
     2020.88706        15.30220        18.24077
     2020.88980         5.76681        17.71885
     2020.89253        -8.44858        17.77501
     2020.90622       -18.08354        19.32425
     2020.90896        11.23807        18.03266
     2020.91170         7.28668        18.67020
     2020.92265         3.16912        17.93357
     2020.92539         7.48773        17.99633
     2020.92813         5.42634        17.75849
     2020.93086         9.89294        17.72546
     2020.93360        17.63855        17.98972
     2020.93634        20.12016        17.84768
     2020.93908         7.38777        17.53387
     2020.94182         1.35338        17.46119
     2020.97467      -132.77031        25.76897
     2020.97741      -129.47070        24.44435
     2020.98015      -144.42909        24.66237
     2021.00479      -137.34461        24.31883
     2021.00752      -135.75400        24.45426
     2021.01300      -107.61078        24.33534
     2021.01848       -92.74156        23.56898
     2021.02121      -113.42095        24.65576
     2021.02395      -129.42634        26.18519
