# ================= DQRFIT RESULTS ================
# INPUT FILE: series/NEWP.rad
# OUTPUT: LDETRENDED
# FILTER FUNCTION: f(t)
# f(t)=+line(t)+annual(t)
# line(t)=+P 1+P 2*t
# annual(t)=+P 3*sin(2*pi*t+P 4)
# heav(t)=(t<0?0:1)
# TOTAL OBSERVATIONS MTOT= 3249
# INITIAL TIME INTERVAL= 2007.1923 - 1996.4298 = 10.7625
# TOTAL OBSERVATIONS AFTER PREFILTER M= 3195
# TIME-SPAN= 2007.1923 - 1996.4298 = 10.7625
# OBSERVATIONS: USED M=  3195 REJECTED MTOT-M=    54 %USED=   98.3380
# N=  4 PARAMETERS
# MAXSIG= 175.00000
# MAXRES= 135.80278
# SCALE FACTOR FOR LENGTHS: SCL=  10.00000
# SCALE FACTOR FOR SIGMAS: SCLSIG=   1.00000
# CHI^2=   2924.890 DOF=  3191 CHI^2/DOF=   0.91661
# RMS=      8.888 SDEV=      8.888 MEAN=    0.16951
#  P #       PARAMETER +-    SIGMA %error PARAMETER NAME
# P 1 =      -676.97136 +-   81.020  11.97 YZERO                              
# P 2 =         0.33555 +-    0.040  12.06 SLOPE                              
# P 3 =         3.99245 +-    0.152   3.81 ANNUAL AMPLITUDE                   
# P 4 =        -2.73992 +-    0.050   1.81 ANNUAL PHASE                       
#       T            LDETRENDED       SIG_OBS
     1996.42984        -0.61587         6.30445
     1996.43258        -2.85079         6.50933
     1996.43532       -22.87871         6.09382
     1996.43806       -18.22562         6.11967
     1996.44079        -4.75254         6.38774
     1996.44353       -17.51746         6.28243
     1996.44627       -21.25638         6.08042
     1996.44833        -6.37507         8.06127
     1996.45175        -9.95722         8.80995
     1996.45448       -22.71914         8.62422
     1996.45722        -5.96306         8.89708
     1996.45996       -17.60497         8.90282
     1996.46270        16.18911         8.80708
     1996.46543        -1.16481         8.85782
     1996.46817        -9.27173         9.02441
     1996.47091        10.17035         8.73049
     1996.47365         2.88543         8.72666
     1996.47639       -11.16449         8.99377
     1996.47912        -1.02040         8.97463
     1996.48186         8.91268         8.65677
     1996.48460        -4.08824         8.81474
     1996.48734         4.51584         8.72283
     1996.49008        -9.55708         8.91527
     1996.49281        -0.92100         9.13451
     1996.49555         9.35008         9.13738
     1996.49829        -6.38784         9.11536
     1996.50103        12.49025         9.13738
     1996.50376         4.26433         8.89516
     1996.50650         9.81541         8.88463
     1996.50924         0.30049         8.51891
     1996.51198        -5.37643         8.75155
     1996.51472       -11.15835         8.75825
     1996.51745         3.51573         8.93346
     1996.52019        10.57382         9.14791
     1996.52293         5.72190         9.11632
     1996.52567         2.44098         8.82240
     1996.52841         8.67606         8.68645
     1996.53114         5.58614         8.66730
     1996.53388        22.51522         8.86931
     1996.53662        12.86330         9.16802
     1996.53936         6.05038         9.10866
     1996.54209        23.27847         9.01388
     1996.54483         6.44355         9.08856
     1996.54722         2.60175        10.01436
     1996.55869        -2.53910         9.53662
     1996.56126        20.36003         9.11632
     1996.56400        14.79012         8.96888
     1996.56674         7.44220         9.17185
     1996.56947        14.28428         8.93059
     1996.57221        15.46136         8.95261
     1996.57495        20.02044         8.90569
     1996.57769        14.88252         8.80038
     1996.58042        18.14760         8.77357
     1996.58316        13.73169         8.72379
     1996.58590        23.32977         9.76543
     1996.58864        12.32485         8.85591
     1996.59138        10.27593         9.23887
     1996.59411        32.95601         9.05409
     1996.59685        20.29609         9.31450
     1996.59959        15.57817         9.12685
     1996.60233        16.80325         9.04643
     1996.60507        15.57034         8.47678
     1996.60780        16.70542         8.47199
     1996.60952         3.82584        28.56581
     1996.65782        36.83563        22.12254
     1996.65982        20.46696         9.05217
     1996.66256        16.60604         9.65246
     1996.66530         9.40412         8.50167
     1996.66804         1.53621         8.55146
     1996.67077         8.16729         8.64720
     1996.67351        15.95837         9.12685
     1996.67625         8.66745         9.10004
     1996.67899        12.76053         8.57731
     1996.68172        -8.17139         9.07611
     1996.68446         4.07869         8.80517
     1996.68720         6.46778         8.53327
     1996.68994        10.20286         9.21302
     1996.69268         5.79594         9.09334
     1996.69530        20.02406        10.44614
     1996.74682        -6.49123        11.65916
     1996.75842        16.70788         8.75634
     1996.76112        18.11897         8.66060
     1996.76386         1.30505         8.50742
     1996.76660         2.65413         8.42221
     1996.76934        -6.30279         8.82336
     1996.77187        -1.88764         8.97654
     1996.88159        -2.73845         8.74868
     1996.88355        12.57889        14.78506
     1996.93087        29.18001         9.67544
     1996.93361        34.01809         9.21876
     1996.93634        28.79017         9.16610
     1996.93908        23.97426         9.51172
     1996.94182        -4.43966         9.99329
     1996.94456        21.25142         9.30205
     1996.94730        13.30550         9.24461
     1996.95003        -6.70342         9.15366
     1996.95277        -2.75234         8.80421
     1996.95551       -16.70026         8.94590
     1996.95825        -6.31818         8.71230
     1996.96099       -10.55309         8.94399
     1996.96372        -9.72801         8.53710
     1996.96646        -6.16393         8.81953
     1996.96920       -12.06985         9.68023
     1996.97194         6.44723         9.66299
     1996.97467        14.98431         8.51220
     1996.97741       -10.91561         8.67400
     1996.98015        11.04048         9.33269
     1996.98289        29.66356         9.09909
     1996.98563        13.53064         9.35758
     1996.98836        13.89772         9.61512
     1996.99110         0.89980         9.03207
     1996.99384        19.49988         8.78410
     1996.99658         4.17096         9.56342
     1997.03496        -5.33791         9.14217
     1997.03765       -11.10182         8.83293
     1997.04038        -9.02874         8.78219
     1997.04312        -4.61665         8.90952
     1997.04586         7.68243         9.67927
     1997.04860        18.23751        10.02393
     1997.05133       -19.81441         9.06366
     1997.05407         2.62267         9.09621
     1997.05681        11.48675         9.04260
     1997.05954        23.71584         9.61895
     1997.06511         5.07897         9.86692
     1997.06776        -9.19492         9.26663
     1997.07050       -18.98884         9.89085
     1997.07324        -0.34276         9.97223
     1997.07598        -0.24568         9.56438
     1997.07871       -20.41160         9.05026
     1997.08145         2.51748         9.67257
     1997.08419         3.10056        10.75155
     1997.08693        -2.31435        12.18477
     1997.09514       -46.55211        10.72091
     1997.10062       -38.56795        10.06893
     1997.10609        33.45822         9.94447
     1997.11703        -5.71346        10.38295
     1997.13684        48.65990        28.49592
     1997.13895        74.47819        19.53374
     1997.14990      -108.45748        24.59741
     1997.15264      -112.54241        28.19051
     1997.15537        22.43668        32.28816
     1997.15811        39.57876        33.24269
     1997.16085       -80.55316        25.98180
     1997.16359        85.85092        32.25082
     1997.16632         9.29900        32.05169
     1997.17180        75.37817        50.56772
     1997.17455        -3.49576        39.61894
     1997.17728        29.18033        50.41357
     1997.18001       -19.12059        46.95068
     1997.18549       -69.98743        50.20199
     1997.19370       104.37882        41.87935
     1997.19644       131.81890        45.89850
     1997.20192       -44.05194        35.14695
     1997.21013        28.24831        41.53182
     1997.21287      -146.81861        36.02105
     1997.22656      -103.66321        27.16897
     1997.23203       -19.22204        35.93680
     1997.25394       -39.64339        49.59213
     1997.26762       -42.32899        26.51028
     1997.49048         6.84123        14.03063
     1997.49213        12.88568         5.84107
     1997.49487        15.24676         5.86309
     1997.49760        11.93684         6.01436
     1997.50034         6.50092         5.90139
     1997.50308         6.04201         5.84873
     1997.50480         3.54743        12.69219
     1997.53593         4.88698         6.04787
     1997.69199         1.08262         5.75299
     1997.69473         8.12470         5.97798
     1997.69747         8.84478         6.00574
     1997.70021         5.90086         6.02393
     1997.70294        15.52694         6.02298
     1997.70568        10.70402         6.08999
     1997.71021        23.82650         9.59693
     1997.71663         2.01035         5.67640
     1997.71937        11.83743         5.72714
     1997.72211        -1.70749         5.63619
     1997.72485         4.61759         5.70991
     1997.72703        14.54886         7.99234
     1997.73058         5.37667         6.71517
     1997.73306        13.73884         6.15988
     1997.73580         7.25192         6.45189
     1997.73841        21.63004         6.23552
     1997.74964        25.96827         7.08856
     1997.75222        -0.08760         5.92245
     1997.75496         1.93649         6.01532
     1997.75770        15.05857         6.42029
     1997.76044        20.47265         6.10435
     1997.76318        12.66173         5.76352
     1997.76591         5.39481         5.81043
     1997.76865         7.87189         5.93298
     1997.83889         1.55032        16.48156
     1997.84133        10.70051        36.93823
     1997.85776         0.49999        35.13067
     1997.86565        22.65935        22.70176
     1997.86721         6.28182         5.97511
     1997.86995        13.22490         6.04308
     1997.87269         1.55298         5.87171
     1997.87543        24.00906         5.89181
     1997.87817         7.99714         6.13212
     1997.88090         0.73423         5.94830
     1997.88364        15.65431         6.14552
     1997.88638        11.58839         6.10818
     1997.88912         0.13647         6.16180
     1997.89185        -4.96545         6.67783
     1997.89459        15.94263         6.30062
     1997.89733         6.61371         6.19148
     1997.90007        -0.63820         6.28434
     1997.90281         0.97088         6.28147
     1997.90554        10.02696         6.05840
     1997.90828         5.50304         6.11106
     1997.91102        -6.05388         5.80469
     1997.91650         1.15228         5.67544
     1997.91923        -8.82264         5.63906
     1997.92197         5.91345         6.29966
     1997.92471         1.45853         5.78650
     1997.92745        -6.25939         5.80948
     1997.93018        -6.57331         5.81905
     1997.93292        11.52777         5.64576
     1997.93566         5.92985         5.92053
     1997.93840        11.61893         5.84107
     1997.94114        -3.73399         5.89660
     1997.94387       -16.55590         5.66299
     1997.94661        -8.06282         5.63810
     1997.94935       -12.18874         5.70129
     1997.95209        -6.37766         5.99042
     1997.95483        -8.25058         5.99808
     1997.95756         8.56950         5.62853
     1997.95999        17.32169         8.00766
     1997.96306         5.88366         6.13403
     1997.96577        -1.25425         8.16946
     1998.86653         7.75950         5.82575
     1998.86927         6.27658         5.63619
     1998.87474         9.41574         5.61991
     1998.87748         1.72082         5.71948
     1998.88022         2.82090         5.52417
     1998.88296        -4.96401         5.58449
     1998.88569         7.66207         5.54811
     1998.88843        18.65515         5.78650
     1998.89117        21.15623         5.63523
     1998.89391        -6.03069         6.11201
     1998.89665        -1.36461         5.58257
     1998.89938         9.42047         5.91766
     1998.90212         9.86655         5.61991
     1998.90486        23.25364         5.61417
     1998.90760        14.45372         5.54428
     1998.91034        18.24780         5.87841
     1998.91307         6.79488         5.86883
     1998.91581         5.52296         5.77597
     1998.91855        15.94604         5.64385
     1998.92129         9.12312         5.57108
     1998.92772        -4.39304        11.16036
     1998.92950        12.93337         5.54811
     1998.93224        12.26745         5.57300
     1998.93498         4.36553         5.67448
     1998.93771        -0.99939         5.55672
     1998.94045         1.35369         5.64289
     1998.94319        10.80777         5.61991
     1998.94593        11.01386         5.82479
     1998.94867         6.74694         5.52609
     1998.95140         4.82002         5.91479
     1998.95414        -2.01690         5.89756
     1998.95688         4.66218         5.61321
     1998.95962         3.96826         5.68214
     1998.96235         4.71934         5.86788
     1998.96465         0.68257         7.02058
     1998.97081        10.27551         6.09957
     1998.97331        11.47867         5.88415
     1998.97604        10.78575         5.65342
     1998.97878        18.72683         5.83341
     1998.98152        14.35191         6.07467
     1998.98426         8.96899         5.67065
     1998.98700        10.88408         5.81331
     1998.98973         8.90216         5.82384
     1998.99247       -11.73776         5.81905
     1998.99405         3.25971        16.17615
     1998.99795        15.25340         5.89085
     1999.00342        -9.33344         6.37434
     1999.00616       -13.75636         6.05074
     1999.00890       -13.69327         5.97319
     1999.01164        -2.24819         6.12254
     1999.01437        -6.68711         5.96649
     1999.01711        -7.22403         5.88702
     1999.01985        -6.98195         5.76735
     1999.02259       -22.33187         5.94734
     1999.02533        -9.72879         6.04212
     1999.02806        -3.78171         6.39061
     1999.03080         0.63438         6.16563
     1999.03354        -7.10354         5.95404
     1999.03628        -0.51146         6.44902
     1999.03901        -6.53238         5.91766
     1999.04175        -4.47330         5.88415
     1999.04449        -0.51222         5.81043
     1999.04723         0.12586         5.72523
     1999.04997        -4.85805         5.74725
     1999.05270        -3.90397         5.82288
     1999.05544        -3.11489         5.87171
     1999.05818        -4.21181         5.69459
     1999.06092        -1.07373         5.85256
     1999.06366        -9.68065         5.70895
     1999.06639       -17.49857         5.88607
     1999.06913        -6.34349         5.91479
     1999.07187       -15.48540         5.86500
     1999.07461        -7.17432         5.68693
     1999.07612       -17.99983        28.66059
     1999.08008        -8.73216         5.82862
     1999.08282         1.54992         5.77788
     1999.08556        -1.98500         5.66491
     1999.08830        -1.80492         5.89851
     1999.09103         2.10916         5.87458
     1999.09377        -6.36175         5.94160
     1999.09651        -8.04167         5.81618
     1999.09925       -10.34459         5.90522
     1999.10198        -5.27151         5.95213
     1999.10472         0.80657         5.78554
     1999.10746        -6.18535         5.91383
     1999.11020       -16.97027         5.96745
     1999.11294       -11.56918         5.98851
     1999.11567        -9.64310         6.03255
     1999.11841       -13.09902         5.93489
     1999.12115       -20.35494         6.10052
     1999.12389        -8.32686         6.01532
     1999.12663       -13.95078         6.39923
     1999.12936        -6.13970         6.31594
     1999.13210        -3.26262         5.89660
     1999.13484        -5.43753         6.12254
     1999.13758       -15.37045         6.01340
     1999.14031       -17.12937         5.81235
     1999.14305        -9.43929         5.90809
     1999.14579       -16.72221         5.88990
     1999.14853       -12.39913         5.97415
     1999.15127       -10.74305         5.92819
     1999.15400       -16.91496         5.89564
     1999.15674       -10.84688         6.01532
     1999.15948        -9.40980         5.92819
     1999.16222       -18.59472         6.11106
     1999.16496       -17.51664         5.96649
     1999.16769       -17.91056         6.39540
     1999.17043       -14.80548         5.85256
     1999.17317       -14.68240         5.80469
     1999.17591       -21.39331         5.97511
     1999.17864       -10.67923         5.84011
     1999.18138       -14.11715         5.83916
     1999.18412       -13.12507         5.77884
     1999.18686       -17.78299         5.98181
     1999.18960       -18.29091         5.77501
     1999.19233       -14.91583         5.74725
     1999.19507       -13.13875         5.74246
     1999.19781       -14.90866         5.74246
     1999.20055       -14.62558         5.81043
     1999.20329       -11.86450         5.83054
     1999.20602       -16.06142         5.82192
     1999.20876         1.23066         5.75778
     1999.21138       -15.84422         6.06223
     1999.22080       -11.73738        15.12876
     1999.22245       -13.47293         5.82767
     1999.22519       -15.42785         5.84011
     1999.22793       -15.30077         5.89373
     1999.23066       -15.83969         5.88990
     1999.23614       -23.12853         5.84490
     1999.23888       -18.54044         5.88224
     1999.24162       -19.28136         5.87841
     1999.24435       -18.39628         5.92628
     1999.24709        -9.98520         5.88415
     1999.24983       -21.68312         5.92436
     1999.25257       -18.45504         5.91383
     1999.25530       -17.21896         5.87937
     1999.25804       -16.04088         5.83054
     1999.26078       -19.58879         5.88128
     1999.26352       -21.22771         5.80756
     1999.26614       -15.98259         5.86788
     1999.27011        -2.28692        16.06127
     1999.27173       -20.20447         5.76639
     1999.27447       -18.93439         5.72714
     1999.27721       -21.44831         5.80948
     1999.27995       -17.34222         5.69459
     1999.28268       -15.07914         5.74916
     1999.28542       -11.52206         5.73097
     1999.28816        -5.57698         5.82096
     1999.29090       -13.83490         6.05361
     1999.29363       -11.41782         5.89468
     1999.29637        -9.46374         5.66491
     1999.29911        -6.83566         5.82479
     1999.30185        -4.74357         5.86118
     1999.30459       -17.64749         5.94160
     1999.30732       -11.08241         5.80373
     1999.31006        -7.86833         5.75778
     1999.31280       -11.54725         5.81905
     1999.31554        -9.83117         5.64672
     1999.31828        -5.16109         5.92245
     1999.32101       -15.30200         5.74725
     1999.32375        -8.74892         5.66491
