# ================= DQRFIT RESULTS ================
# INPUT FILE: series/NORM.rad
# OUTPUT: LDETRENDED
# FILTER FUNCTION: f(t)
# f(t)=+line(t)+annual(t)
# line(t)=+P 1+P 2*t
# annual(t)=+P 3*sin(2*pi*t+P 4)
# heav(t)=(t<0?0:1)
# TOTAL OBSERVATIONS MTOT= 2838
# INITIAL TIME INTERVAL= 2022.7488 - 2011.6304 = 11.1184
# TOTAL OBSERVATIONS AFTER PREFILTER M= 2833
# TIME-SPAN= 2022.7488 - 2011.6304 = 11.1184
# OBSERVATIONS: USED M=  2833 REJECTED MTOT-M=     5 %USED=   99.8238
# N=  4 PARAMETERS
# MAXSIG= 175.00000
# MAXRES=  41.49509
# SCALE FACTOR FOR LENGTHS: SCL=  10.00000
# SCALE FACTOR FOR SIGMAS: SCLSIG=   1.00000
# CHI^2=   4720.515 DOF=  2829 CHI^2/DOF=   1.66862
# RMS=      7.672 SDEV=      7.670 MEAN=    0.23234
#  P #       PARAMETER +-    SIGMA %error PARAMETER NAME
# P 1 =      1916.23418 +-   78.712   4.11 YZERO                              
# P 2 =        -0.95025 +-    0.039   4.11 SLOPE                              
# P 3 =         6.38142 +-    0.190   2.97 ANNUAL AMPLITUDE                   
# P 4 =         3.07178 +-    0.042   1.36 ANNUAL PHASE                       
#       T            LDETRENDED       SIG_OBS
     2011.63039        10.60445         7.13046
     2011.63312         9.73905         7.13691
     2011.63586         9.78866         7.09816
     2011.63860        12.86826         7.33326
     2011.64134        15.11586         7.52186
     2011.64386         9.18125         7.71303
     2011.64681         0.11806         7.12012
     2011.64955         0.80466         7.32809
     2011.65229         1.49027         7.26609
     2011.65503        -7.60213         7.15629
     2011.65776        -1.15553         7.13562
     2011.66050         2.27907         7.25576
     2011.66324         1.97267         7.18858
     2011.66598        -4.52773         7.34101
     2011.66872        -3.17212         7.26480
     2011.67145         1.00248         7.04520
     2011.67419         6.70508         7.11625
     2011.67693         7.37868         7.21184
     2011.67967         2.14728         7.14596
     2011.68240        -3.03612         7.14466
     2011.68514        -3.20051         7.20538
     2011.68788         5.32209         7.37460
     2011.69062         5.06369         7.26738
     2011.69337         4.81230         7.19117
     2011.69609         2.67089         7.26609
     2011.69883        -1.22051         7.09558
     2011.70157        -0.64691         7.16533
     2011.70431         7.73870         7.23767
     2011.70705        -0.85870         7.32680
     2011.70978        -3.06010         7.16017
     2011.71252        -1.08450         7.26996
     2011.71526        -5.76790         7.25059
     2011.71800         4.83770         7.24413
     2011.72073         4.27831         7.10979
     2011.72347         1.51691         7.06845
     2011.72621         1.24151         7.05424
     2011.72895         0.87011         6.95994
     2011.73169         4.70471         7.33972
     2011.73442         1.14331         7.23380
     2011.73716         1.00692         7.37847
     2011.73990         1.08152         7.05683
     2011.74264         5.33812         7.07104
     2011.74508         5.97044         8.10056
     2011.87132         4.76740         7.18083
     2011.87405        -6.62900         7.06974
     2011.87679        11.76760         7.24930
     2011.87953        18.66820         7.36685
     2011.88227        17.64280         7.43918
     2011.88501         9.15140         7.42110
     2011.88774        -7.04399         7.42239
     2011.89048        17.90961         7.51927
     2011.89322        10.55621         7.31130
     2011.89596        -0.49719         7.25188
     2011.89869         8.14241         7.25188
     2011.90143        -0.05999         7.20538
     2011.90417        -4.34238         7.20796
     2011.90691         2.68022         7.19117
     2011.90965       -10.00318         7.11625
     2011.91238        -2.55058         7.29580
     2011.91512        -3.95098         7.29322
     2011.91786         3.64462         7.30872
     2011.92060        -8.17277         7.11108
     2011.92334       -11.32417         7.21442
     2011.92607        -9.92557         7.25963
     2011.92881        -4.24397         7.37330
     2011.95893        -1.26335         7.19117
     2011.96167         2.90325         7.17825
     2011.96440         2.81285         7.15112
     2011.96714         3.45945         7.06458
     2011.96988         3.69605         7.04391
     2011.97262        -0.73734         7.10204
     2011.97535        -3.16974         7.20667
     2011.97809        -3.04814         7.14208
     2011.98083         4.60946         6.99999
     2011.98631         5.72166         7.03745
     2011.98904        15.25427         7.33584
     2011.99178        13.49187         7.30872
     2011.99452        16.05747         7.12141
     2012.08487        -0.60268         7.15242
     2012.09034        -4.93147         7.18083
     2012.09308        -3.12587         7.19763
     2012.09582        -0.46227         7.16404
     2012.09856        -2.23067         7.16792
     2012.10403        -3.80847         7.21829
     2012.10677         1.64514         7.39656
     2012.10951        -3.79226         7.34101
     2012.11225        -4.54466         7.27513
     2012.11498        -3.25506         7.20150
     2012.11772        -5.58246         7.22863
     2012.12046        -0.81386         7.22217
     2012.12320        -4.07725         7.20796
     2012.12594        -9.17965         7.23380
     2012.12867        -2.96205         7.15242
     2012.13141         1.51355         7.23121
     2012.13415         3.47815         7.25705
     2012.13689         1.67275         7.23509
     2012.13963        11.67636         7.35264
     2012.14236         6.09696         7.48698
     2012.14510        -0.29844         7.26738
     2012.14784        -7.52684         7.21829
     2012.15058        -1.28424         7.21700
     2012.15331        -3.40264         7.19892
     2012.15605        -8.12403         7.38751
     2012.15879        -6.04243         7.39397
     2012.16153        -4.32783         7.16662
     2012.16427        -4.79023         7.26092
     2012.16700        -6.82963         7.30743
     2012.16974        -6.04903         7.21184
     2012.17248        -6.41842         7.18858
     2012.17522        -2.63982         7.26351
     2012.17796        -5.17322         7.16404
     2012.18069        -6.02062         7.12141
     2012.18343        -7.55502         7.26221
     2012.18617        -9.79342         7.21054
     2012.18891        -6.64081         7.18988
     2012.19164         2.94879         7.21313
     2012.19438         3.69739         7.25576
     2012.19712         5.59999         7.17954
     2012.19986        -4.26141         7.25963
     2012.20260        -4.25181         7.36039
     2012.20533         0.36980         7.36555
     2012.20807        -0.38460         7.24025
     2012.21081        -3.40100         7.32034
     2012.21355        -9.22040         7.31518
     2012.21629        -2.38380         7.41206
     2012.21902         7.14280         7.26738
     2012.22176        -2.03459         7.33584
     2012.22450       -20.84599         7.24025
     2012.22724        -8.76839         7.19504
     2012.22997        -7.36879         7.25188
     2012.23271        -0.67819         7.24800
     2012.23545        -6.36359         6.95607
     2012.23819        -5.96399         7.10850
     2012.24093        -4.98138         6.96382
     2012.24333        -3.95410         8.14965
     2012.24640        -6.23818         7.25446
     2012.24914        -4.60458         7.10075
     2012.25188       -12.13698         7.12658
     2012.25462       -15.26138         7.09816
     2012.25735       -12.67677         7.09429
     2012.26009       -14.78417         7.12400
     2012.26283       -18.18057         7.06974
     2012.26557       -14.44497         7.11366
     2012.26830       -13.46437         7.12012
     2012.27104       -14.94777         7.24025
     2012.27378        -9.09116         7.18342
     2012.27652        -3.66356         7.21442
     2012.27926        -2.23096         7.36943
     2012.28199        -7.96536         7.10850
     2012.28473       -10.37476         7.08137
     2012.28747       -12.20616         7.05295
     2012.29021       -10.36155         7.22346
     2012.29295       -11.87795         7.22605
     2012.29568       -15.81735         7.26996
     2012.29842        -4.43375         7.16533
     2012.30116       -13.19915         7.20279
     2012.30390       -15.87955         6.94186
     2012.30663       -15.21394         7.03099
     2012.30937        -9.61834         6.98061
     2012.31211        -8.84674         7.49344
     2012.31485        -2.94414         7.26221
     2012.31759        -9.77454         7.15887
     2012.32032        -8.77994         7.18342
     2012.32306        -9.64333         7.04391
     2012.32580        -9.17273         7.04778
     2012.32854        -4.87113         7.28805
     2012.33128        -1.07053         7.18213
     2012.33401        -5.68893         7.15758
     2012.33675        -5.44533         7.01937
     2012.33949        -2.51772         7.13175
     2012.34223       -14.62412         7.09299
     2012.34496       -15.74552         6.96124
     2012.34770        -9.43292         7.15500
     2012.35044       -10.19032         6.98836
     2012.35318       -10.82472         7.02712
     2012.35592        -9.12511         6.96253
     2012.35865       -11.76251         6.99999
     2012.36139       -11.05891         6.99482
     2012.36413        -9.55431         6.92119
     2012.36687        -9.26271         6.96511
     2012.36961        -7.93211         6.97545
     2012.37234        -6.69551         6.98449
     2012.37508        -5.93390         7.08008
     2012.37782        -7.69530         7.12529
     2012.38329       -10.78310         7.09299
     2012.38603        -5.38450         7.18083
     2012.38877        -4.98690         7.27513
     2012.39151        -0.39529         7.11366
     2012.39425        -8.59569         7.04132
     2012.39698       -20.25409         7.19892
     2012.39972       -16.12449         7.09299
     2012.40246       -11.74089         6.96640
     2012.40520        -7.98929         6.94703
     2012.40794        -7.94368         6.93540
     2012.41067        -5.37508         7.06716
     2012.41341       -10.67648         7.04908
     2012.41615        -6.28788         7.06974
     2012.41889         0.48072         7.28805
     2012.42162       -15.13768         7.09558
     2012.42436         2.10593         7.12529
     2012.42710       -16.51747         7.01420
     2012.42984        -4.33487         7.00774
     2012.43258        -7.78227         7.04649
     2012.43531        -8.28367         6.96511
     2012.43805       -10.51307         7.02324
     2012.44079       -16.70646         7.00257
     2012.44353       -13.01886         7.04262
     2012.44626        -8.70826         7.08266
     2012.44900        -3.03266         7.13304
     2012.45174        -9.16506         7.48698
     2012.45448        -7.94146         7.06587
     2012.45722        -6.85285         7.23896
     2012.45995        -4.90325         7.18471
     2012.46269        -3.96365         7.04003
     2012.46543       -10.69205         6.98061
     2012.46817        -2.18745         7.03228
     2012.47091        -7.40785         7.06458
     2012.47364        -7.51024         7.17050
     2012.47638        -1.70964         7.19504
     2012.47912       -10.66604         7.05683
     2012.48186        -5.75544         7.05553
     2012.48459        -4.76584         7.01678
     2012.48733       -10.42024         7.06199
     2012.49007        -3.40863         7.08912
     2012.49281        -4.49903         7.09170
     2012.49555       -10.74643         7.07104
     2012.49828         2.13617         7.19763
     2012.50102        -3.06523         7.10333
     2012.50376        -5.00963         7.03616
     2012.50650        -6.04503         7.05683
     2012.50924        -4.74942         7.16404
     2012.51197        -3.14182         7.21571
     2012.51471        -6.88222         7.11495
     2012.51745        -4.81162         7.20538
     2012.52019       -10.56902         7.28288
     2012.52292        -5.51642         7.08654
     2012.52566        -3.91681         7.05295
     2012.52840         0.46179         7.09816
     2012.53114        -7.44061         7.19246
     2012.53388        -5.75301         7.12916
     2012.53661        -6.87741         7.06458
     2012.53935         1.78819         7.09299
     2012.54209         5.51780         7.05424
     2012.54483         1.40740         7.21184
     2012.54757        -7.26600         7.27255
     2012.55030        -7.14940         7.13304
     2012.55304        -6.63080         7.03745
     2012.55578        -1.16420         7.00257
     2012.55852        -5.40859         6.98190
     2012.56125        -3.75899         7.01420
     2012.56399         0.76361         7.19375
     2012.56673         0.02521         7.11625
     2012.57221        -2.82459         7.14079
     2012.57494        -0.69698         7.05037
     2012.57768        -3.07238         7.14337
     2012.58042         1.46422         7.13821
     2012.58316        -8.13418         7.06458
     2012.58590        -1.14558         7.06199
     2012.58863         1.36002         7.13175
     2012.59137        -0.16837         7.13046
     2012.59411        -2.64777         7.09170
     2012.59685         8.40583         7.41077
     2012.59958        -0.68357         7.14596
     2012.60232        -0.02597         7.34618
     2012.60506         0.01863         7.09299
     2012.60780         3.17024         7.05812
     2012.61054         5.09684         7.12271
     2012.61327         2.56644         7.02324
     2012.61601         6.33504         7.10333
     2012.61875         4.97564         7.04003
     2012.62149         7.01224         7.04262
     2012.62423         4.53785         7.08137
     2012.62696         6.00245         7.23896
     2012.62970         0.94205         7.29322
     2012.63244         5.28165         7.11495
     2012.63518         4.94525         7.24155
     2012.63791        -1.65015         7.10333
     2012.64065         4.34346         7.09429
     2012.64339        11.44806         7.11237
     2012.64613        10.43166         7.10204
     2012.64887        12.22626         7.11237
     2012.65434         2.14046         7.07620
     2012.65708         7.85506         7.32293
     2012.65982        12.54267         7.30097
     2012.66256        10.78527         7.06716
     2012.66529        11.79987         7.10204
     2012.66803         5.00447         7.12658
     2012.67077         6.16207         7.11754
     2012.67351         4.73967         7.13304
     2012.67624         9.08028         7.17696
     2012.67898         9.02688         7.02453
     2012.68446         8.73708         7.09687
     2012.68720         5.49868         7.02582
     2012.68993         9.86128         7.08266
     2012.69267         8.22689         7.10979
     2012.69541         7.29449         6.98320
     2012.69815         4.64109         7.11883
     2012.70089         1.37269         7.04649
     2012.70362         0.44129         7.05812
     2012.70636         5.40989         7.13821
     2012.70910         5.35650         7.06458
     2012.71184         7.34910         7.01549
     2012.71457         9.16170         6.97415
     2012.71731        12.95030         7.00128
     2012.72005         9.67190         6.99611
     2012.72279         8.79150         7.07879
     2012.72553        11.04011         7.04520
     2012.72826        14.02971         7.29192
     2012.73100         7.70931         7.19504
     2012.73648        10.04451         7.26996
     2012.73921         5.92011         7.18471
     2012.74147         9.00925         8.82781
     2012.74469         7.47732         7.26738
     2012.74743        11.17992         7.41852
     2012.75012         4.89648         7.48310
     2012.75290         6.72912         7.33455
     2012.75564         3.11172         7.21829
     2012.75838         1.68233         7.26221
     2012.76112         9.07293         7.14725
     2012.76386         9.66553         7.18988
     2012.76659         8.17413         7.27513
     2012.76933         8.43373         7.20409
     2012.77207         6.82733         7.14466
     2012.77481         6.05594         7.17825
     2012.77754         7.58654         6.98449
     2012.78028         8.57514         7.35522
     2012.78302        11.30374         7.34359
     2012.78576         7.51334         7.40172
     2012.78850        17.97394         7.52831
     2012.79123        28.30454         7.63165
     2012.79397         6.56415         7.34101
     2012.79671         4.24675         7.39914
     2012.79945         7.01735         7.62778
     2012.80219        17.08695         7.60453
     2012.80492        13.36155         7.16146
     2012.80766        11.22715         7.23767
     2012.81040        11.34876         7.18988
     2012.81314         2.58536         7.37330
     2012.81587        -1.17104         7.33714
     2012.81861        -3.50244         7.49602
     2012.82135        -2.34284         7.37718
     2012.82409        10.98276         7.92101
     2012.82683         8.05037         7.53736
     2012.82956        -2.27503         7.50765
     2012.83230         3.60257         7.40947
     2012.83504         5.59917         7.34489
     2012.83778         2.51277         7.37330
     2012.84052         9.49037         7.38751
     2012.84325         0.36298         7.59161
     2012.84599         0.41958         7.42110
     2012.84873         2.91018         7.44952
     2012.85147         9.99378         7.54382
     2012.85420         0.88638         7.37718
     2012.85694       -23.26402         7.38235
     2012.86516         3.24279         7.26996
     2012.86789         4.93039         7.53219
     2012.87063        -0.06801         7.40560
     2012.87337         0.17659         7.44693
     2012.87611         2.61420         7.34747
     2012.87885         8.02380         7.39010
     2012.88158         4.19540         7.16533
     2012.88432        10.41900         7.39656
     2012.88706        11.09060         7.76987
     2012.88980        17.01320         7.61228
     2012.89253         5.98881         7.36814
     2012.89527        -2.06659         7.57482
     2012.89801         2.59001         7.58386
     2012.90075         2.18261         7.49085
     2012.90349        -1.37179         7.47923
     2012.90622         3.57181         7.45985
     2012.90896         3.07742         7.60711
     2012.91170         0.99402         7.43660
     2012.91444        10.01062         7.44693
     2012.91718         6.68022         7.29192
     2012.91991        11.54482         7.65103
     2012.92265         8.50242         7.89130
     2012.92813        18.95563         7.76858
     2012.93086        12.40523         8.03210
     2012.93360         6.71983         7.99464
     2012.93634        14.46743         7.88355
     2012.93908         5.59403         7.98172
     2012.94182         6.07063         7.81767
     2012.94455         7.12124         7.77116
     2012.94729         8.74284         7.77504
     2012.95003         2.20844         7.61228
     2012.95277         3.35004         7.37976
     2012.95551        -5.09536         7.41852
     2012.95824        16.12824         7.52573
     2012.96098        20.14585         7.86804
     2012.96372        13.37145         7.68074
     2012.96646        17.84105         7.64070
     2012.96919        13.73165         7.67428
