# ================= DQRFIT RESULTS ================
# INPUT FILE: series/NWBG.rad
# OUTPUT: LDETRENDED
# FILTER FUNCTION: f(t)
# f(t)=+line(t)+annual(t)
# line(t)=+P 1+P 2*t
# annual(t)=+P 3*sin(2*pi*t+P 4)
# heav(t)=(t<0?0:1)
# TOTAL OBSERVATIONS MTOT= 4064
# INITIAL TIME INTERVAL= 2022.5270 - 2005.2660 = 17.2610
# TOTAL OBSERVATIONS AFTER PREFILTER M= 4055
# TIME-SPAN= 2022.5270 - 2005.2660 = 17.2610
# OBSERVATIONS: USED M=  4055 REJECTED MTOT-M=     9 %USED=   99.7785
# N=  4 PARAMETERS
# MAXSIG= 175.00000
# MAXRES=  30.16457
# SCALE FACTOR FOR LENGTHS: SCL=  10.00000
# SCALE FACTOR FOR SIGMAS: SCLSIG=   1.00000
# CHI^2=   6449.562 DOF=  4051 CHI^2/DOF=   1.59209
# RMS=     10.004 SDEV=      9.728 MEAN=   -2.34160
#  P #       PARAMETER +-    SIGMA %error PARAMETER NAME
# P 1 =      4185.27158 +-   61.447   1.47 YZERO                              
# P 2 =        -2.07645 +-    0.031   1.47 SLOPE                              
# P 3 =         4.79880 +-    0.173   3.61 ANNUAL AMPLITUDE                   
# P 4 =        -3.05435 +-    0.051   1.67 ANNUAL PHASE                       
#       T            LDETRENDED       SIG_OBS
     2005.26601        -4.04916        23.61802
     2005.26762         9.01918         7.56690
     2005.27310        -6.15445         7.52148
     2005.27583       -10.10576         7.56438
     2005.27857        -2.82208         7.57826
     2005.28131        -5.03039         7.83187
     2005.28405        -6.31371         7.44577
     2005.28679       -10.46702         7.23631
     2005.28952        -7.44534         7.21108
     2005.29226       -11.39365         7.16944
     2005.29500        -3.06197         7.18332
     2005.29774        -3.88528         7.15682
     2005.30047        -6.71460         7.20477
     2005.30321        -8.67391         7.13663
     2005.30595        -7.00223         7.12780
     2005.30869        -3.39654         7.14168
     2005.31143        -7.93386         7.18710
     2005.31416        -3.91817         7.10257
     2005.31690       -15.10149         7.17953
     2005.31964       -15.88580         7.19341
     2005.32238        -1.74312         7.42432
     2005.32512        -1.53443         7.13159
     2005.32785        -4.03875         7.12023
     2005.33059        -1.52806         7.12780
     2005.33333        -3.82838         7.15430
     2005.33607        -7.74669         7.26786
     2005.33880         0.13899         7.29057
     2005.34154        -1.21832         7.17449
     2005.34428        -1.24864         7.16061
     2005.34702        -3.21495         7.13032
     2005.34976        -7.57127         7.16565
     2005.35249        -2.56358         7.12023
     2005.35523        -2.96490         7.29688
     2005.35797        -3.36121         7.39025
     2005.36071        -7.36353         7.38016
     2005.36344        -8.47484         7.40539
     2005.36618        -6.33816         7.36502
     2005.36892        -8.92447         7.71579
     2005.37166         2.45421         7.53914
     2005.37440         0.28390         7.46091
     2005.37713         4.62658         7.75869
     2005.37987         4.02127         7.58583
     2005.38261       -12.80305         7.44451
     2005.38535       -10.90636         7.33852
     2005.38809       -18.89668         7.62242
     2005.39082        -6.13499         7.30445
     2005.39350        -9.47543         7.42937
     2005.39630        -6.52162         7.26155
     2005.39904        -3.73094         7.30950
     2005.40177        -6.95625         7.28300
     2005.40451        -0.14157         7.38394
     2005.40725        -3.37688         7.45334
     2005.40999        -6.17120         7.28174
     2005.41273         0.63949         7.40665
     2005.41546        -5.08083         7.29183
     2005.41820        -6.98114         7.19720
     2005.42094        -3.89746         7.19972
     2005.42368        -3.97777         7.14294
     2005.42642         3.92191         7.24388
     2005.42915        -3.80740         7.18206
     2005.43189        -1.69172         7.26533
     2005.43463       -11.52003         7.14925
     2005.43737        -7.94835         7.36249
     2005.44010         0.74234         7.67163
     2005.44284         6.48402         7.49119
     2005.44558        -5.33129         7.36502
     2005.44826        -0.05373         7.69686
     2005.45100        -5.51704         7.50003
     2005.45379        -5.22624         7.31328
     2005.45653        -1.00155         7.37511
     2005.45927         2.83413         7.28805
     2005.46201        -8.39018         7.13663
     2005.46475       -10.60750         7.23253
     2005.46748        -2.39681         7.36880
     2005.47022        -2.53113         7.34735
     2005.47296        -0.60944         7.24515
     2005.47570        -1.81476         7.13790
     2005.47843        -1.40507         7.23001
     2005.48117        -3.51539         7.49372
     2005.48391        -3.66370         7.19215
     2005.48665        -2.53602         7.11897
     2005.48939        -4.98533         7.13537
     2005.49212        -0.83465         7.15304
     2005.49486        -7.37696         7.18584
     2005.49760        -7.11628         7.25398
     2005.50034        -4.03259         7.13032
     2005.50308        -6.13491         7.12023
     2005.50581        -5.39822         7.16061
     2005.50855        -9.31954         7.31076
     2005.51129        -5.12085         7.40413
     2005.51403        -6.73617         7.15808
     2005.51676         2.60352         7.17449
     2005.51950         4.65520         7.24641
     2005.52224        -1.90311         7.30571
     2005.52498         2.53957         7.23001
     2005.52772        -4.78474         7.11518
     2005.53045        -3.00006         7.13663
     2005.53228        -5.05227        12.88783
     2005.53593        -1.45869         7.29940
     2005.53867         9.32000         7.73472
     2005.54141         4.02368         7.26407
     2005.54414        -1.63463         7.14547
     2005.54688         2.72805         7.32590
     2005.54962        -5.11826         7.16187
     2005.55236         3.49242         7.25019
     2005.55509        -0.75289         7.61990
     2005.55783         0.29579         7.16565
     2005.56057         2.30148         7.32590
     2005.56331        -6.31484         7.37637
     2005.56605         2.10685         7.59214
     2005.56878         4.19853         7.52526
     2005.57152        -8.15878         7.65144
     2005.57426         0.07090         7.33221
     2005.57700        -0.10341         7.43315
     2005.57974        -3.91273         7.34609
     2005.58247         1.46796         7.38773
     2005.58521         5.98664         7.40161
     2005.58795         2.46033         7.29562
     2005.59069         1.89601         7.18080
     2005.59342         4.45570         7.38899
     2005.59616         7.95538         7.17827
     2005.59890         1.22207         7.13032
     2005.60164         1.07375         7.22748
     2005.60438         7.09644         7.21486
     2005.60711        -2.01988         7.30193
     2005.60985         6.32581         7.45839
     2005.61168       -10.33440        13.21085
     2005.62616         6.52568         7.87099
     2005.62902        -0.45740         7.17322
     2005.63175         5.46029         7.31833
     2005.63449         0.07197         7.37132
     2005.63723         6.09366         7.23505
     2005.63997         8.77734         7.33852
     2005.64271        -0.02497         7.24262
     2005.64544        -0.83729         7.17196
     2005.64818         0.25940         7.24388
     2005.65092         5.75408         7.34104
     2005.65366         0.00777         7.21234
     2005.65639        -2.75255         7.15682
     2005.65913         0.45114         7.43946
     2005.66187        -3.50618         7.23001
     2005.66461        -1.37649         7.29688
     2005.66735         6.76019         7.31959
     2005.67008         6.97488         7.16818
     2005.67282        11.68856         7.19972
     2005.67556         5.52225         7.14925
     2005.67830        -4.51007         7.26786
     2005.68104        -1.59938         7.20351
     2005.68377         5.72230         7.26786
     2005.68651         6.66899         7.36375
     2005.68925        -2.70333         7.43063
     2005.69199        -3.93964         7.26912
     2005.69472         2.90004         7.31328
     2005.69746        -0.60627         7.33221
     2005.70020         5.66341         7.44955
     2005.70288         5.38998         7.58204
     2005.70568         6.34578         7.47227
     2005.70836         6.43435         7.60854
     2005.71109         1.26303         7.35997
     2005.71383         0.56272         7.25272
     2005.71657         1.37740         7.60475
     2005.71931         3.10709         7.33095
     2005.72205         4.59377         7.53409
     2005.72478         2.18546         7.38268
     2005.72752         4.46514         7.36880
     2005.73032         5.46895         7.42810
     2005.73300         4.72351         7.45586
     2005.73574         8.59020         7.57195
     2005.73847         3.42288         7.54797
     2005.74121         7.23957         7.46343
     2005.74395        14.75325         7.43441
     2005.74669        -2.32706         7.46596
     2005.74942        14.40062         7.36123
     2005.75216         1.98131         7.65018
     2005.75490        -1.09101         7.51517
     2005.75764         7.10968         7.61863
     2005.76038         4.38736         7.51643
     2005.76311         0.07905         7.48741
     2005.76585         5.80773         7.59971
     2005.76859         5.91042         7.41423
     2005.77133        13.45310         7.42180
     2005.77407         3.52579         7.48488
     2005.77680         6.62747         7.63882
     2005.77869         6.33538        14.33888
     2005.82306        12.23953         8.55614
     2005.82608         8.57880         7.17953
     2005.82882        -5.02551         7.18584
     2005.83156        -3.87683         7.49876
     2005.83430        -2.59114         7.43441
     2005.83704        -8.25646         7.49498
     2005.83977         2.75823         7.49246
     2005.84251        -3.05709         7.57321
     2005.84525        -0.31340         7.72210
     2005.84799        -4.13972         7.71453
     2005.85073         6.34297         7.47731
     2005.85346        -6.00835         7.45082
     2005.85620        -4.90866         7.70822
     2005.85814        -4.36863        12.24432
     2005.99309        -8.46241        11.49987
     2005.99583       -10.09473         7.41170
     2005.99857        -3.68604         7.57321
     2006.00410        -8.88555         7.26533
     2006.00684       -12.05187         7.35618
     2006.00958       -26.66518         7.41044
     2006.01232       -14.38150         7.38647
     2006.01420       -17.75659        12.03108
     2006.02697       -22.47806        15.51991
     2006.02874       -25.56239         7.66406
     2006.03148       -13.25570         7.29940
     2006.03422       -13.68702         7.27164
     2006.03696       -13.62833         7.21991
     2006.03969       -15.00165         7.37763
     2006.04243       -19.29296         7.27417
     2006.04517       -13.36728         7.36754
     2006.04757       -13.51430         8.25457
     2006.05065       -18.08691         7.27038
     2006.05338       -24.43822         7.32716
     2006.05612       -14.05854         7.11140
     2006.05886       -19.93085         7.03695
     2006.06160       -16.23917         7.06093
     2006.06433        -8.84748         7.17449
     2006.06707       -18.36280         6.97513
     2006.06981       -12.29911         6.99531
     2006.07255       -22.56243         7.04074
     2006.07529       -15.23174         6.96629
     2006.07802       -23.61606         6.94106
     2006.08076       -10.45837         7.10004
     2006.08350       -16.85269         7.06597
     2006.08624       -17.70900         6.94610
     2006.08898       -17.41832         6.96251
     2006.09171       -17.01263         6.88302
     2006.09445       -11.75195         7.06471
     2006.09719       -25.92626         7.00793
     2006.09993       -15.84658         7.07354
     2006.10266       -18.43389         6.98522
     2006.10814       -22.93952         7.10130
     2006.11088       -11.49684         7.22748
     2006.11362       -25.47115         7.00667
     2006.11635       -18.38247         7.04074
     2006.11909       -23.68678         7.11392
     2006.12183       -17.40810         7.07102
     2006.12457       -20.42141         7.04705
     2006.12656       -21.82027        10.39077
     2006.13004       -13.88904         7.05588
     2006.13278       -10.57736         7.11897
     2006.13552        -8.28467         7.04200
     2006.13826       -11.67899         7.03948
     2006.14099        -3.08630         7.14420
     2006.14373        -6.43462         7.15682
     2006.14647       -11.35193         7.15177
     2006.14921       -11.69525         7.02938
     2006.15195        -8.48356         7.07481
     2006.15468       -11.49588         7.10635
     2006.15742       -12.89819         7.16061
     2006.16016        -2.83251         7.15051
     2006.16290       -17.68282         7.39530
     2006.16564        -9.03414         7.03948
     2006.16837        -4.73945         7.21486
     2006.17111        -7.81277         6.97639
     2006.17385        -1.48908         7.08742
     2006.17659       -13.81740         7.06471
     2006.17932        -4.42071         7.13663
     2006.18206        -4.22603         7.14673
     2006.18480       -15.29734         7.14294
     2006.18754       -12.42966         7.13916
     2006.19028       -15.31997         7.11518
     2006.19301        -7.49629         7.25398
     2006.19575        -4.24560         7.17070
     2006.19849        -9.69792         7.19594
     2006.20123        -9.46823         7.36628
     2006.20397       -15.68255         7.50760
     2006.20767        -3.04385        13.05817
     2006.20944       -20.44618         7.24767
     2006.21218        -8.56349         7.25019
     2006.21492       -15.57181         7.27417
     2006.21765       -16.60012         7.22874
     2006.22039       -15.33544         7.23884
     2006.22313       -21.90275         7.46091
     2006.22587       -14.23907         7.53914
     2006.22861        -4.61938         7.38142
     2006.23134       -13.21970         7.26660
     2006.23402       -13.88713         8.83751
     2006.23699        -0.83797         9.98069
     2006.23956        -2.89164         8.15237
     2006.24230        -7.80296         6.98143
     2006.24503       -15.70427         7.22748
     2006.24777       -13.41059         7.02181
     2006.25051       -12.75090         7.07481
     2006.25325        -3.82722         7.23758
     2006.25598        -0.26053         7.11392
     2006.25872        -7.60385         7.14294
     2006.26146        -7.06416         7.38268
     2006.26420        -4.92348         7.42937
     2006.26694        -8.81579         7.32969
     2006.26967       -12.72011         7.16944
     2006.27241        -4.56242         7.07354
     2006.27515         2.58626         7.28300
     2006.27789        -7.95105         7.30193
     2006.28062        -4.58537         7.20603
     2006.28336        -5.37168         7.15430
     2006.28519        -2.93489        12.54210
     2006.28981         3.25870        16.10790
     2006.29158         1.32437         7.12023
     2006.29431       -17.57894         7.09373
     2006.29705       -10.20626         7.16439
     2006.29979         1.19543         7.27291
     2006.30253        -9.84389         7.13916
     2006.30527        -1.31420         7.11897
     2006.30800        -4.23452         7.02307
     2006.31074        -4.03083         7.12528
     2006.31348        -6.30715         7.33347
     2006.31622       -15.49546         7.16061
     2006.32169        -8.55309         7.18837
     2006.32443        -5.09841         7.18710
     2006.32717        -8.68472         7.30445
     2006.32991        -1.36704         7.27921
     2006.33264       -13.49935         7.14420
     2006.33538        -1.05467         7.08111
     2006.33812        -3.12498         7.09752
     2006.34086        -0.90830         7.17575
     2006.34360        -9.12261         7.19089
     2006.34633        -9.89393         7.15051
     2006.34907        -3.44524         7.12654
     2006.35181        -3.73856         7.25903
     2006.35455       -14.43987         7.17196
     2006.35728        -3.07919         7.17575
     2006.36002        -5.00650         7.12149
     2006.36276        -6.04082         7.15808
     2006.36550        -7.47413         7.17196
     2006.36824       -11.10545         7.15935
     2006.37080        -3.70012         7.84197
     2006.37371        -6.28908         7.34230
     2006.37645        -1.94439         7.21360
     2006.37919        -2.65671         7.33095
     2006.38193         1.39598         7.26533
     2006.38466         5.79566         7.30824
     2006.38740         6.25235         7.32338
     2006.39014         2.72903         7.31707
     2006.39288         2.69472         7.44829
     2006.39544        -5.45895         7.89370
     2006.39835         2.25809         7.45334
     2006.40109        -3.23223         7.24515
     2006.40383         0.19146         7.26786
     2006.40657        -1.97386         7.28931
     2006.40930        -5.62117         7.42684
     2006.41204        -0.66649         7.30824
     2006.41478        -6.39580         7.35618
     2006.41752        -0.75012         7.54671
     2006.42026         2.40857         7.41801
     2006.42299         3.41325         7.80033
     2006.42573         4.28394         7.43189
     2006.42847        -6.07638         7.43063
     2006.43121        -5.99669         7.42810
     2006.43394        -3.03501         7.18837
     2006.43668        -5.71932         7.24893
     2006.43942        -2.33264         7.27417
     2006.44216         0.86505         7.32716
     2006.44490         3.27173         7.26533
     2006.44763        -4.27358         7.20603
     2006.45037         1.66010         7.30571
     2006.45311        -0.79421         7.26029
     2006.45585         9.09947         7.69056
     2006.45859        -2.93284         7.21739
     2006.46132        -3.10416         7.37132
     2006.46406        -1.75747         7.41170
     2006.46680         0.70021         7.43063
     2006.46954         4.40690         7.39656
     2006.47227         2.88158         7.41675
     2006.47501        -2.01973         7.40413
     2006.47775         0.02595         7.39782
     2006.48049        -1.24836         7.46722
     2006.48323         3.00332         7.50507
     2006.48596         5.19501         7.61359
     2006.48870        -4.89931         7.60349
     2006.49144         1.78638         7.38016
     2006.49418        -1.76094         7.53157
     2006.49692         1.69075         7.45965
     2006.49965        -1.11557         7.47227
     2006.50239       -11.08788         7.46596
     2006.50513        -4.51320         7.50381
     2006.50787        -2.01651         7.41170
     2006.51060        -2.09283         7.41675
     2006.51334        -5.08214         7.26660
     2006.51614        -4.30834         7.91894
     2006.51876         2.40011         8.41608
     2006.52156        -7.36709         7.51895
     2006.52429         0.41160         7.41170
     2006.52703         5.58828         7.52400
     2006.52977         1.45597         7.47101
     2006.53251        -4.30335         7.47101
     2006.53525         0.56334         7.42558
     2006.53798        -6.10098         7.38520
