# ================= DQRFIT RESULTS ================
# INPUT FILE: series/NWPT.rad
# OUTPUT: LDETRENDED
# FILTER FUNCTION: f(t)
# f(t)=+line(t)+annual(t)+jumps(t)
# line(t)=+P 1+P 2*t
# annual(t)=+P 3*sin(2*pi*t+P 4)
# jumps(t)=+P 5*heav(t-2011.0302  )
# heav(t)=(t<0?0:1)
# TOTAL OBSERVATIONS MTOT= 1959
# INITIAL TIME INTERVAL= 2014.1018 - 2007.4031 =  6.6986
# TOTAL OBSERVATIONS AFTER PREFILTER M= 1918
# TIME-SPAN= 2014.1018 - 2007.4031 =  6.6986
# OBSERVATIONS: USED M=  1918 REJECTED MTOT-M=    41 %USED=   97.9071
# N=  5 PARAMETERS
# MAXSIG= 175.00000
# MAXRES=  29.14484
# SCALE FACTOR FOR LENGTHS: SCL=  10.00000
# SCALE FACTOR FOR SIGMAS: SCLSIG=   1.00000
# CHI^2=   1824.183 DOF=  1913 CHI^2/DOF=   0.95357
# RMS=      5.846 SDEV=      5.847 MEAN=    0.07467
#  P #       PARAMETER +-    SIGMA %error PARAMETER NAME
# P 1 =     -1264.37078 +-  257.435  20.36 YZERO                              
# P 2 =         0.63278 +-    0.128  20.25 SLOPE                              
# P 3 =         6.08281 +-    0.184   3.02 ANNUAL AMPLITUDE                   
# P 4 =        -2.88217 +-    0.041   1.43 ANNUAL PHASE                       
# P 5 =        -8.06583 +-    0.484   6.00 OFFSET 2011.0302                   
#       T            LDETRENDED       SIG_OBS
     2007.40314        -0.01253         5.49580
     2007.40588        -6.60826         5.39229
     2007.40862        -5.94399         5.47432
     2007.41136        -4.96873         5.50459
     2007.41410        -2.15046         5.50459
     2007.41683        -6.27519         5.53291
     2007.41957         0.67908         5.48115
     2007.42231         9.16234         5.44111
     2007.42505         6.73961         5.77801
     2007.42778         5.69688         5.35030
     2007.43052        -0.93985         5.34737
     2007.43326         3.67841         5.43233
     2007.43600        -1.60932         5.36104
     2007.43874         1.19795         5.49092
     2007.44421        -4.93951         5.50361
     2007.44695        -6.04525         5.40596
     2007.44969        -6.93998         5.32979
     2007.45243        -6.57071         5.38838
     2007.45516        -4.39744         5.41182
     2007.45790        -8.38218         5.42451
     2007.46064        -2.04491         5.40108
     2007.47433        -0.24557         5.43135
     2007.47707        -2.99130         5.55830
     2007.47980        -6.98204         5.36690
     2007.48254       -12.78577         5.35323
     2007.48528        -4.57950         5.37178
     2007.48802        -3.60723         5.41182
     2007.49074         1.64405         5.70575
     2007.49453         5.69964        10.99160
     2007.49623        -6.98743        14.41817
     2007.49926         0.92265         7.98688
     2007.50172        -0.01790         6.65785
     2007.50537        -6.61221        15.47964
     2007.50718        -3.47536         5.34542
     2007.50992         5.31091         5.48115
     2007.51260        -1.24679         6.68128
     2007.51543         1.82842         5.47236
     2007.51813         2.42871         5.40108
     2007.52087        -1.77402         5.39717
     2007.52361        -2.82776         5.36104
     2007.52635         0.74751         5.40791
     2007.52908         4.90878         5.92937
     2007.53188        10.55301         5.68817
     2007.53456         6.08731         5.45088
     2007.53730         5.54258         5.42647
     2007.54004         5.34685         5.55244
     2007.54277        12.19912         5.49580
     2007.54551         1.38138         5.64813
     2007.54825         9.24565         5.39522
     2007.55099        -4.38108         5.48701
     2007.55373        -0.92281         5.42940
     2007.55646         0.00445         5.40498
     2007.55920        10.53372         5.61884
     2007.56194        -1.01201         6.28580
     2007.56468         3.65126         5.44502
     2007.56741         0.96652         5.49287
     2007.57015         7.99779         5.37764
     2007.57289        12.35806         5.44209
     2007.57563         2.90633         5.40791
     2007.57837         6.84059         5.43233
     2007.58110         5.67086         5.45088
     2007.58384         8.16413         5.47432
     2007.58658         3.75140         5.54658
     2007.58932         4.15966         5.41768
     2007.59206         7.53693         5.39620
     2007.59479        11.81120         5.51045
     2007.59753        12.44547         5.58954
     2007.60027        12.46173         5.37081
     2007.60301         6.83500         5.30147
     2007.60574         8.83927         5.40010
     2007.60848         8.18254         5.40596
     2007.61122        11.99780         5.41963
     2007.61396         2.30307         5.44697
     2007.61670         5.48334         5.72528
     2007.61943         3.18761         5.72723
     2007.62303        -4.54367         9.31688
     2007.62491         5.74014         5.60907
     2007.62769        14.27238         5.80828
     2007.63039        16.69568         5.73211
     2007.63312         7.62895         5.52998
     2007.63586         7.08521         5.47432
     2007.63858         2.72149         5.48799
     2007.64407         9.04402         5.60126
     2007.64681         6.28428         5.62568
     2007.64955        12.01655         5.80731
     2007.65229         6.81282         5.65595
     2007.65503         3.03809         5.54072
     2007.65776         5.13835         5.54365
     2007.66050         4.48162         5.67645
     2007.66324        10.03689         5.82684
     2007.66598         6.59716         5.69208
     2007.66872         7.21642         5.60419
     2007.67145         0.68269         5.59345
     2007.67419        11.21596         5.69012
     2007.67693        13.79023         5.57490
     2007.67967        13.21049         5.61396
     2007.68531         6.57292         5.89129
     2007.68750         4.21653         6.76233
     2007.69142        11.46906         8.18511
     2007.69336         7.65483         5.55244
     2007.69609         7.86110         5.71258
     2007.69883         7.68137         5.57685
     2007.70157         5.14663         5.65692
     2007.70431         8.28590         5.69989
     2007.70705        11.40917         5.59638
     2007.70978         8.10944         5.69598
     2007.71252         6.13670         5.64032
     2007.71526         8.88997         5.39912
     2007.71800        12.41224         5.50068
     2007.72073        10.62151         5.44209
     2007.72347        12.53677         5.48213
     2007.72621         8.83904         5.41280
     2007.72895         7.88431         5.52900
     2007.73169        10.12058         5.50654
     2007.73442        10.88484         5.40791
     2007.73716         4.85511         5.56318
     2007.73990        11.30338         5.44990
     2007.74264        12.19865         5.40010
     2007.74538        12.47791         5.52314
     2007.74811         6.08318         5.62275
     2007.75085        10.72445         5.66669
     2007.75359        14.07272         5.58173
     2007.75633        11.17998         5.40987
     2007.75906        11.28525         5.43721
     2007.76180        11.26552         5.42842
     2007.76454         8.60079         5.40694
     2007.76728        10.30605         5.73797
     2007.77002         3.67832         5.83855
     2007.77275        11.99159         5.63935
     2007.77549         6.53186         5.43330
     2007.77823         8.56712         5.52021
     2007.78100         8.78137         5.44795
     2007.78371         9.47566         5.46357
     2007.78644        11.74993         5.34639
     2007.78918         9.16619         5.47334
     2007.79192         9.75746         5.53486
     2007.79466        12.41073         5.53681
     2007.79739        19.06400         5.66376
     2007.80013        16.76826         5.38936
     2007.80276         5.34360         5.59345
     2007.80561        -1.58820         5.45869
     2007.80835         0.54507         5.53584
     2007.81108         5.52233         5.53877
     2007.81382        11.96760         5.54365
     2007.81656         1.46287         5.63056
     2007.81930         2.42014         5.48799
     2007.82203         0.50341         5.47432
     2007.82477         2.70767         5.48310
     2007.82751         2.26494         5.54170
     2007.83025         4.58221         5.49775
     2007.83299         6.86548         5.69891
     2007.83572         3.32274         5.39424
     2007.83846        -0.10999         5.39229
     2007.84120         9.12527         5.44014
     2007.84400        -0.47849         5.55537
     2007.84674         1.17177         5.44795
     2007.84948         4.59704         5.46553
     2007.85221         7.78831         5.60614
     2007.85495        10.81258         5.66962
     2007.85769         6.61884         5.47627
     2007.86043         8.66411         5.44893
     2007.86316         8.86838         5.45381
     2007.86592         8.59164         5.64228
     2007.86864         4.72591         5.44111
     2007.87138         9.38618         5.58466
     2007.87412         9.05645         5.45381
     2007.87685        11.29372         5.52314
     2007.87959         7.44298         5.53095
     2007.88233         4.89725         5.45967
     2007.88507         5.01352         5.48310
     2007.88781        -3.70121         5.48896
     2007.89054        -1.35895         7.52010
     2007.89328        -3.65368         5.66278
     2007.89642        -0.27066         7.11485
     2007.89876         1.15686         5.57978
     2007.90149         1.44612         5.55830
     2007.90423         0.49839         5.61396
     2007.90697        -6.01334         5.56904
     2007.90971        -6.53507         5.64130
     2007.91245        -4.46281         5.56513
     2007.91518        -1.47354         5.62860
     2007.91792         4.41573         5.59345
     2007.92066         6.57600         5.90691
     2007.92340        -1.19174         5.70868
     2007.92614         2.64253         5.55439
     2007.92887         2.18980         5.57685
     2007.93161         0.74907         5.57490
     2007.93435        -4.85966         5.52021
     2007.93709        -6.02040         5.50654
     2007.93982        -8.31213         5.45576
     2007.94256        -4.69586         5.51045
     2007.94530        -4.57759         5.59443
     2007.94804        -8.73333         5.58466
     2007.95078        -9.93806         5.52119
     2007.95345        -3.79675         5.48018
     2007.95619        -3.60749         5.44795
     2007.95893        14.89778         5.57978
     2007.96167        -7.09595         5.58271
     2007.96530        11.02575        10.75431
     2007.96714         7.38658         5.59345
     2007.96988        -6.99715         5.61005
     2007.97262        -4.86088         5.47920
     2007.97535       -13.00461         5.57001
     2007.97809        -1.09535         5.56611
     2007.98083        -9.89008         5.49971
     2007.98357        -6.89481         5.38448
     2007.98631       -10.24854         5.53779
     2007.98904        -6.99428         5.52705
     2007.99178        -8.01301         5.58466
     2007.99452       -11.94574         5.61298
     2007.99726        -8.35947         5.51045
     2008.00051       -18.29353         7.03771
     2008.00273       -13.06394         5.48506
     2008.00547        -2.22467         5.22335
     2008.00821        11.75260         5.52314
     2008.01095         5.10087         5.44795
     2008.01368         8.83413         5.38448
     2008.01642         4.57740         5.31612
     2008.01916        -2.81533         5.32686
     2008.02190        -3.65806         5.35909
     2008.02464         1.08920         5.38838
     2008.02737        18.22247         5.39131
     2008.03011        -1.00826         5.44893
     2008.03285        -6.25599         5.39522
     2008.03559        -9.07773         5.41865
     2008.03833        -3.14646         5.52119
     2008.04106       -11.97619         5.47529
     2008.04380        -8.52192         5.47432
     2008.04654       -11.93466         5.52802
     2008.04928        -9.35039         5.45186
     2008.05201       -17.88712         5.38155
     2008.05475       -18.73185         5.42256
     2008.05749       -13.58259         5.36495
     2008.06023        -8.30232         5.57490
     2008.06297        -5.18905         5.40596
     2008.08504         4.03898         5.77801
     2008.08761         3.75836         5.39620
     2008.09034        14.91062         5.62568
     2008.09308        -5.59311         5.34737
     2008.09582        -9.28684         5.58271
     2008.09856         5.11543         5.57197
     2008.10130         3.40669         5.60712
     2008.10403        -3.64704         5.50361
     2008.10677        -2.91277         5.40694
     2008.10951        -2.91050         5.40596
     2008.11225        -8.00024         5.31905
     2008.11498       -10.04097         5.39327
     2008.11861        -4.23126         9.17334
     2008.12045        -7.15943         5.44600
     2008.12322        -7.53418         5.66669
     2008.12571       -12.21875         6.64222
     2008.12885        -1.05774         7.29062
     2008.13141        -8.41536         5.40401
     2008.13415        -1.82610         5.39815
     2008.13689        -3.77683         5.43037
     2008.13963        -2.90256         5.44697
     2008.14236        -3.10729         5.32198
     2008.14510        -0.58603         5.37764
     2008.14784        -3.08676         5.34542
     2008.15058       -10.22049         5.37178
     2008.15331       -11.06722         5.38057
     2008.15697        -3.64054         9.13037
     2008.15879        -3.22569         5.34932
     2008.16153        -6.55842         5.42158
     2008.16427         1.11985         5.35225
     2008.16700       -12.02089         5.35909
     2008.16974        -6.48562         5.29561
     2008.17248       -10.81435         5.27218
     2008.17522       -12.68108         5.44209
     2008.17796        -7.89282         5.28585
     2008.18069        -9.14455         5.34932
     2008.18343        -6.46128         5.30733
     2008.18611       -10.85898         5.40987
     2008.18891       -12.58574         5.20187
     2008.19164        -4.96048         5.43721
     2008.19438        -6.39321         5.23605
     2008.19712         0.36506         6.48696
     2008.19986         4.69733         5.31319
     2008.20140        23.06835        16.26964
     2008.20533        -3.26814         5.33760
     2008.20807        -8.02687         5.47334
     2008.21081        -6.52460         5.47725
     2008.21355         0.52066         5.78289
     2008.21629        -1.87307         5.36983
     2008.21902        -5.01580         5.62958
     2008.22176       -19.03253         5.40401
     2008.22450        -8.92227         5.36397
     2008.22724        -5.41700         5.40694
     2008.22997        -6.66173         5.43819
     2008.23271        -7.14746         5.43135
     2008.23545        -5.42520         7.55135
     2008.23819        -5.85293         5.37667
     2008.24093         0.65034         5.35811
     2008.24366        -9.77539         5.35421
     2008.24640        -2.75213         5.40010
     2008.24914        -4.99686         6.23697
     2008.25188        -4.07259         5.42940
     2008.25462        -4.99432         5.28390
     2008.25735        -4.52706         5.25851
     2008.26009         2.81421         5.26827
     2008.26283        -5.50052         5.33565
     2008.26557        -3.77525         5.34053
     2008.26830        -6.62099         5.26827
     2008.27104        -6.44972         5.34249
     2008.27378        -8.31545         5.16574
     2008.27652        -6.66318         5.38057
     2008.27926       -10.65692         5.41670
     2008.28199        -5.20565         5.37374
     2008.28473         1.50162         5.21749
     2008.28747         2.00989         5.27511
     2008.29021        -0.42585         5.36397
     2008.29295        -5.58358         5.41768
     2008.29568         1.78669         5.30147
     2008.29842        -4.45504         5.17648
     2008.30116        -1.58978         5.21066
     2008.30390        -4.06651         5.15695
     2008.30663        -3.73824         5.93913
     2008.30937        -6.64697         5.47236
     2008.31211        -4.97171         5.76532
     2008.31485        -5.82544         5.28780
     2008.31759       -12.29117         5.31124
     2008.32032        -9.16590         5.38643
     2008.32306        -6.48364         5.31417
     2008.32580         3.48163         5.79852
     2008.32854         0.65590         5.24581
     2008.33128        -7.98083         5.26046
     2008.33401        -4.11857         5.31319
     2008.33675        -5.30930         5.31222
     2008.33949        -2.00603         5.53681
     2008.34223        -6.28976         5.29171
     2008.34496        -5.25650         5.40010
     2008.34770        -0.33923         5.34737
     2008.35044         3.14204         5.39815
     2008.35318        -4.77069         5.27218
     2008.35592        -4.00243         5.24191
     2008.35865        -1.11816         5.29659
     2008.36139        -1.06089         5.74872
     2008.36413        -2.66462         5.25655
     2008.36687        -4.05036         5.24484
     2008.36961        -9.98309         5.38936
     2008.37234       -12.12682         5.31710
     2008.37508        -0.80155         7.37656
     2008.37782        -5.03628         5.36104
     2008.38056         2.04298         5.32686
     2008.38329        -2.44875         5.27218
     2008.38603         3.41652         5.29757
     2008.38877         2.48079         5.37569
     2008.39151        -9.38695         5.46650
     2008.39425        -4.11768         5.25655
     2008.39698        -3.95841         5.36299
     2008.39972         2.80786         5.31514
     2008.40246        -2.50788         5.89617
     2008.40520        -2.15861         5.40498
     2008.40794        -0.05134         5.30050
     2008.41067        -6.69507         5.36885
     2008.41341        -1.76381         5.30538
     2008.41615        -0.21954         5.34151
     2008.41889         0.31873         5.42256
     2008.42162        -2.49500         5.40010
     2008.42476         3.94601         8.24565
     2008.42710         0.74053         5.31807
     2008.42984        -1.37420         5.36299
     2008.43258         3.53107         5.43819
     2008.43531        -1.49067         5.40303
     2008.43805         0.53560         5.41475
     2008.44079        -2.60713         5.33272
     2008.44353        -4.84186         5.35518
     2008.44626        -5.80160         5.45088
     2008.44900         1.70067         5.42842
     2008.45174         0.83294         5.66083
     2008.45448        -5.74479         5.52509
     2008.45722         0.83647         5.46162
     2008.45995        -6.19326         5.37471
     2008.46269        -2.59799         5.85223
     2008.46543        -1.73972         5.33956
     2008.46817        -6.71246         5.36299
     2008.47091        -0.28919         5.50654
     2008.47364        -4.80192         5.47725
     2008.47638         0.51035         5.40694
     2008.47912        -1.08539         5.34151
     2008.48186         3.28988         5.44307
     2008.48459        -0.96085         5.55537
     2008.48733        -0.83458         5.43819
     2008.49007        -9.98332         5.35128
     2008.49281        -1.91905         5.43526
     2008.49555        -6.55878         5.46455
     2008.49828        -1.16051         5.63349
     2008.50102        -5.39425         5.69696
     2008.50376         1.28602         5.47529
     2008.50650         1.89929         5.54951
