# ================= DQRFIT RESULTS ================
# INPUT FILE: series/ODOT.rad
# OUTPUT: LDETRENDED
# FILTER FUNCTION: f(t)
# f(t)=+line(t)+annual(t)
# line(t)=+P 1+P 2*t
# annual(t)=+P 3*sin(2*pi*t+P 4)
# heav(t)=(t<0?0:1)
# TOTAL OBSERVATIONS MTOT= 2979
# INITIAL TIME INTERVAL= 2022.5235 - 2011.9151 = 10.6084
# TOTAL OBSERVATIONS AFTER PREFILTER M= 2971
# TIME-SPAN= 2022.5235 - 2011.9151 = 10.6084
# OBSERVATIONS: USED M=  2971 REJECTED MTOT-M=     8 %USED=   99.7315
# N=  4 PARAMETERS
# MAXSIG= 175.00000
# MAXRES=  43.71740
# SCALE FACTOR FOR LENGTHS: SCL=  10.00000
# SCALE FACTOR FOR SIGMAS: SCLSIG=   1.00000
# CHI^2=   2387.593 DOF=  2967 CHI^2/DOF=   0.80472
# RMS=      5.367 SDEV=      5.363 MEAN=    0.23900
#  P #       PARAMETER +-    SIGMA %error PARAMETER NAME
# P 1 =     -1291.20689 +-   69.869   5.41 YZERO                              
# P 2 =         0.64230 +-    0.035   5.40 SLOPE                              
# P 3 =         4.44425 +-    0.132   2.96 ANNUAL AMPLITUDE                   
# P 4 =        -2.96617 +-    0.041   1.39 ANNUAL PHASE                       
#       T            LDETRENDED       SIG_OBS
     2011.91512        -6.02085         4.89705
     2011.91786        -3.86261         5.09889
     2011.92060        -8.79437         4.90423
     2011.92334        -4.94012         4.97240
     2011.92607        -5.39888         5.36890
     2011.92881        -5.02964         5.00111
     2011.93138        -1.18729         5.42093
     2011.93794         0.70550         8.37585
     2011.93976         2.08032         4.98227
     2011.94250         2.56757         5.00380
     2011.94524         3.37881         4.96074
     2011.94798         5.10605         5.00739
     2011.95071         9.97629         5.03430
     2011.95345         7.19153         4.99214
     2011.95619        -1.20423         5.02174
     2011.95893         0.83701         4.81811
     2011.96167         4.25726         5.11145
     2011.96440         4.39750         4.89436
     2011.96714         0.79674         4.93203
     2011.96988         2.58898         4.78223
     2011.97262         2.00022         4.83067
     2011.97535        -2.72454         4.91051
     2011.97792       -14.33619         5.42362
     2012.00861        -5.32790         5.99146
     2012.01095         1.06860         4.92127
     2012.01368         3.30084         4.78223
     2012.01642         7.53609         4.84502
     2012.01916         2.70533         4.82080
     2012.02190         2.47457         4.82977
     2012.02464         1.01381         4.83515
     2012.02737         1.89605         4.76967
     2012.03011         4.76429         4.81900
     2012.03285        -0.82447         4.80914
     2012.03559         2.98978         4.89256
     2012.03833        -0.97398         4.85040
     2012.04106         6.70526         4.80286
     2012.04380         8.51650         4.94998
     2012.04654        10.26974         4.81093
     2012.04928         8.23798         4.85040
     2012.05201         6.86422         4.84412
     2012.05475         4.08147         4.87552
     2012.05749         1.63171         4.84053
     2012.06023         7.01595         5.00559
     2012.06297         2.67019         4.87193
     2012.06570        -4.58857         4.96792
     2012.06844        -8.89233         5.03340
     2012.07118        -4.97208         4.76877
     2012.07392        -2.89284         4.80914
     2012.07666         0.80040         4.85130
     2012.07939         3.56764         4.84771
     2012.08213         4.23988         4.83425
     2012.08487         4.60312         4.85668
     2012.08761        -3.37664         4.85220
     2012.09034         2.57461         4.81273
     2012.09308        -1.23815         4.82977
     2012.09582         1.71909         4.82708
     2012.09856         2.42233         4.79927
     2012.10130         2.33457         4.95087
     2012.10403         0.71181         4.84950
     2012.10677         1.07405         4.95087
     2012.10951        -3.89370         4.94459
     2012.11225        -1.01746         4.92396
     2012.11498        -6.72922         4.88987
     2012.11772         5.80702         4.86475
     2012.12046         5.67426         4.92845
     2012.12320         0.04350         4.87373
     2012.12594        -8.65026         4.95177
     2012.12856        -2.80894         5.08274
     2012.15058        -3.59408         4.84412
     2012.15331        -3.34984         4.83425
     2012.15605        -0.52060         4.95356
     2012.15879        -1.94236         4.93921
     2012.16153         2.20888         4.85040
     2012.16427        -6.06587         4.94549
     2012.16700        -1.50663         4.95087
     2012.16974        -4.95039         4.89974
     2012.17248        -3.92715         4.85668
     2012.17522        -6.19591         4.92217
     2012.17796        -1.05067         4.89974
     2012.18069        -4.15143         4.88270
     2012.18343        -4.71318         4.91858
     2012.18617        -4.06794         4.94011
     2012.18891        -0.13570         5.10786
     2012.19153         2.14261         5.17603
     2012.19318        10.68555        13.19306
     2012.19712        -2.30398         4.88718
     2012.19986        -0.90774         4.85578
     2012.20260        -2.50349         4.92576
     2012.20533        -0.13625         4.90153
     2012.20807         2.48199         4.95805
     2012.21081         4.44723         4.82080
     2012.21355         0.19647         4.82080
     2012.21629        -0.67029         4.84502
     2012.21902       -13.36805         4.83784
     2012.22176        -5.35180         4.84053
     2012.22450        -8.40256         4.82977
     2012.22724         0.22668         4.82618
     2012.22997         1.01692         4.82080
     2012.23271         2.33616         4.83874
     2012.23545         1.22840         5.03699
     2012.23813        -3.06332         5.03161
     2012.24093        -0.68811         4.93562
     2012.24366        -1.10487         4.92127
     2012.24640        -0.96263         4.90871
     2012.24914         0.45061         5.00290
     2012.25188        -6.14015         4.94459
     2012.25462        -0.84091         5.03161
     2012.25735        -0.38066         4.88449
     2012.26009        -5.19242         4.91320
     2012.26283        -2.23718         4.84053
     2012.26557        -7.47994         4.84502
     2012.26830        -5.35170         5.14643
     2012.27104         1.07254         5.00649
     2012.27378        -1.33022         5.04148
     2012.27646        -0.04094         5.28278
     2012.27869        -4.66737         7.49493
     2012.28125        -5.17601         8.74813
     2012.28473        -1.61425         4.88628
     2012.28747        -2.31201         4.88180
     2012.29021        -7.72877         4.93203
     2012.29295        -5.42653         5.09171
     2012.29568        -4.45428         4.92755
     2012.29842        -4.15704         4.91230
     2012.30116        -4.15080         4.96792
     2012.30390        -7.96556         4.86565
     2012.30663        -9.84832         4.87821
     2012.30937        -3.33108         4.94549
     2012.31211        -3.76383         5.03699
     2012.31485         1.35041         4.97778
     2012.31759        -5.83735         4.91858
     2012.32032        -4.94711         4.98586
     2012.32306        -5.27487         4.83964
     2012.32580        -6.73063         4.88270
     2012.32854        -8.99039         4.97151
     2012.33128        -4.90914         5.01277
     2012.33401        -2.93990         4.96612
     2012.33675        -2.82666         4.93921
     2012.33949        -4.34542         4.85399
     2012.34223       -11.91118         4.82977
     2012.34496       -14.59494         4.89525
     2012.34770        -6.66670         5.08453
     2012.35044        -0.25145         5.01367
     2012.35306        -2.60514         5.39492
     2012.35506        -9.75642         8.56602
     2012.35779         6.17882        23.40070
     2012.36139        -4.36549         4.84053
     2012.36413        -3.98425         5.03161
     2012.36687         1.10599         5.02174
     2012.36961        -4.39876         4.84412
     2012.37234        -0.13752         4.88718
     2012.37508        -4.77628         4.95177
     2012.37782        -2.73504         5.03161
     2012.38056        -6.33380         4.98945
     2012.38329        -4.99156         4.96971
     2012.38603        -2.55931         5.07736
     2012.38877        -7.67807         5.03968
     2012.39151         1.03617         5.00111
     2012.39425        -1.86559         4.95626
     2012.39699         0.17165         4.96881
     2012.39972         0.15789         4.89077
     2012.40246        -5.53887         4.87014
     2012.40519        -9.77062         4.87642
     2012.40794        -4.41638         4.87373
     2012.41067        -0.24414         4.86206
     2012.41295        -2.94061         6.18254
     2012.41707         6.74675         9.55548
     2012.41889        -0.69742         5.74298
     2012.42157        -3.07814         6.39514
     2012.42436        -0.09293         5.45681
     2012.42710        -4.40969         4.85668
     2012.42984        -2.69745         4.87642
     2012.43258        -1.83321         4.94728
     2012.43531        -4.90997         4.91230
     2012.43805        -5.56273         4.88718
     2012.44079       -13.48049         4.83964
     2012.44353        -8.97124         4.86565
     2012.44581       -14.96571         6.52701
     2012.44900         0.19524         4.80824
     2012.45397        -3.61095         6.28749
     2012.45722        -0.94004         4.82618
     2012.45995         2.17221         4.97240
     2012.46269         0.02045         4.99214
     2012.46543        -4.56131         4.87642
     2012.46817        -3.57407         4.92217
     2012.47091        -0.40883         4.82977
     2012.47364         1.41741         4.93562
     2012.47638        -1.72735         4.89256
     2012.47912        -1.65210         4.80734
     2012.48186         1.58014         4.84502
     2012.48459        -5.75762         4.96433
     2012.48625         3.73632        12.15606
     2012.49384         4.48044         9.82639
     2012.49555        -2.02666         4.93024
     2012.49828        -1.99541         4.80196
     2012.50102         1.46683         4.93473
     2012.50376         2.91807         4.85848
     2012.50650        -3.85169         4.81273
     2012.50924        -1.94245         4.90602
     2012.51197         0.48879         4.97240
     2012.51471        -4.60997         4.80375
     2012.51745        -0.61372         4.83695
     2012.52019         2.42052         4.83246
     2012.52292        -6.88324         4.80914
     2012.52566         0.35100         4.81003
     2012.52840         0.83224         4.86834
     2012.53114        -2.59452         4.82618
     2012.53353         0.80394         5.63533
     2012.53673         2.36389         5.16886
     2012.53936         0.72120         5.50884
     2012.54209         7.15745         5.21281
     2012.54483         0.78669         4.90871
     2012.54757        -0.12307         4.93293
     2012.55030        -3.79483         5.03430
     2012.55304         2.93342         4.89077
     2012.55578         1.61366         4.90333
     2012.55852        -2.98010         4.81631
     2012.56125         3.84114         4.77864
     2012.56399         0.44338         4.85489
     2012.56673         1.08663         4.89167
     2012.56947         1.64086         4.85848
     2012.57221        -3.05089         4.86206
     2012.57494        -0.39165         4.82798
     2012.57768         3.24659         4.85130
     2012.58042         2.77083         4.83605
     2012.58316        -0.76093         4.83246
     2012.58590         1.70331         4.90064
     2012.58863         8.82755         5.68646
     2012.59137         6.02880         4.85848
     2012.59411         6.37804         4.84233
     2012.59685         5.94528         5.24780
     2012.59958        -2.51748         5.12939
     2012.60238         7.39573         5.29983
     2012.60506         6.44700         4.84681
     2012.60780         3.06124         4.82708
     2012.61054         4.86049         4.81273
     2012.61327         6.59373         4.86565
     2012.61601         5.69397         4.86296
     2012.61875         8.34421         4.91051
     2012.62149        11.42045         4.86027
     2012.62423        11.05669         4.96343
     2012.62696         4.92594         4.97509
     2012.62970         3.68318         5.02533
     2012.63244        -0.15658         5.00111
     2012.63518         7.86866         4.92127
     2012.63791         4.80390         4.83605
     2012.64065        10.24214         6.40501
     2012.64339         8.54638         4.94818
     2012.64613         5.27263         4.88628
     2012.64887         5.45887         4.89436
     2012.65160        14.46011         4.94190
     2012.65434         7.82835         5.22896
     2012.65705         7.86461        11.23926
     2012.65983         3.85983         6.61223
     2012.66256        11.86607         5.48014
     2012.66529         7.11332         4.90871
     2012.66803         5.86556         5.19577
     2012.67077         5.16980         4.96523
     2012.67351         7.30204         4.96792
     2012.67624         6.40028         4.87462
     2012.67898         7.12752         4.87193
     2012.68172        10.52876         4.88898
     2012.68446         6.23701         4.88987
     2012.68720         4.46525         5.07287
     2012.68959        15.58371         5.89548
     2012.69279        13.62066         7.76405
     2012.69541         4.62397         4.91140
     2012.69815         6.16021         4.99034
     2012.70089         4.22846         5.01815
     2012.70362         1.87470         4.99034
     2012.70636         3.40194         4.88090
     2012.70910         4.58318         4.89167
     2012.71184         8.72342         4.85220
     2012.71457         7.55766         4.85130
     2012.71731         8.76990         4.86834
     2012.72005         9.77215         4.80196
     2012.72279        10.58839         4.80106
     2012.72553         6.81063         4.86745
     2012.72826         9.71587         5.05583
     2012.73100         6.45811         4.96971
     2012.73374         4.44435         5.28996
     2012.73648         5.44259         4.85489
     2012.73921         7.78184         5.00918
     2012.74195        11.00908         4.96164
     2012.74469        11.58932         4.85040
     2012.74669        11.28904         7.18993
     2012.75108         4.55022        10.18611
     2012.75290        10.15904         5.08453
     2012.75564         5.15028         4.88449
     2012.75838         5.21053         4.85668
     2012.76112        10.54077         4.88539
     2012.76386         8.00501         4.85040
     2012.76659        11.83825         4.90692
     2012.76933        10.99749         4.97599
     2012.77207         7.21873         5.06390
     2012.77481         4.04197         4.88270
     2012.77754         4.64122         4.90692
     2012.78028         6.73346         4.98765
     2012.78302         8.87770         4.95536
     2012.78576         8.02694         4.94280
     2012.78850        15.16218         5.09081
     2012.79123        11.32942         5.15002
     2012.79397         4.54267         5.01277
     2012.79671         4.90691         5.26215
     2012.79928        11.44126         5.69364
     2012.80856         7.01230         9.21370
     2012.81040         7.55611         4.95626
     2012.81314         1.50436         4.94101
     2012.81587        -2.80740         4.98137
     2012.81861        -6.11216         5.02084
     2012.82135         2.87708         4.94280
     2012.82409         5.95032         5.07556
     2012.82683         4.37556         5.06390
     2012.82956        -0.60020         4.97599
     2012.83230         2.49205         4.91678
     2012.83504        -0.02371         5.06928
     2012.83778         4.12253         5.15630
     2012.84052         3.26677         4.99214
     2012.84325         3.90901         6.14665
     2012.84599         3.29125         5.03968
     2012.84873        -1.08251         4.93114
     2012.85147         1.00374         5.12490
     2012.85420         0.51198         4.92755
     2012.85694         2.76922         4.95984
     2012.85968         2.94746         4.94011
     2012.86242        -2.98230         4.94190
     2012.86516         5.98394         4.99573
     2012.86789         2.22419         5.08364
     2012.87063        -1.54857         4.92486
     2012.87337        -1.22233         4.93742
     2012.87611         1.25191         4.90064
     2012.87885         0.73515         4.94728
     2012.88158         2.74539         4.88628
     2012.88432         3.23163         4.97509
     2012.88706         5.19188         5.23793
     2012.88944         1.86935         6.13140
     2012.91170         1.82105         5.09620
     2012.91444         0.60429         5.01815
     2012.91718        -1.80647         4.96792
     2012.91991         4.11577         4.84771
     2012.92265        -5.43699         5.00201
     2012.92506        -5.94553         5.78334
     2012.92813         1.75950         4.90423
     2012.93086        -1.36726         4.93114
     2012.93360        -2.80902         4.94728
     2012.93634         0.55822         4.87642
     2012.93908        -4.24654         5.07826
     2012.94182         4.21371         4.84771
     2012.94455         8.12295         4.88718
     2012.94729         5.06219         4.93114
     2012.95003         3.09043         4.94459
     2012.95277         6.26767         4.86386
     2012.95551         8.57691         4.82977
     2012.95824         7.53115         4.87552
     2012.96098         5.59740         5.33481
     2012.96372         4.72264         5.03520
     2012.96646         5.24788         4.87103
     2012.96919        -2.55288         4.94011
     2012.97193         6.71936         4.95984
     2012.97467         8.34860         4.88628
     2012.97741         5.28784         4.86206
     2012.98015         0.13109         4.88987
     2012.98288         1.51033         4.93742
     2012.98562         4.12457         4.88539
     2012.98836         4.33381         4.86206
     2012.99110         6.61105         4.84412
     2012.99384         2.94629         4.91140
     2012.99657         3.95153         5.21012
     2012.99931         1.34378         4.88359
     2013.00205         3.47802         4.88180
     2013.00479         3.48126         5.00918
     2013.00752         1.00650         4.95446
     2013.01026         3.67674         4.89974
     2013.01300        -0.00102         4.88539
     2013.01573         3.76923         4.86027
     2013.01848         0.16947         4.94280
     2013.02121         5.98471         4.89525
     2013.02395        -0.19605         4.98048
     2013.02669         6.46319         5.03789
     2013.02943        -0.37457         4.91320
     2013.03216        -8.19433         5.18411
     2013.03490        -4.89608         4.90423
     2013.03764        -5.17384         4.89974
     2013.04038        -7.54960         4.90871
     2013.04312        -7.04436         4.98855
     2013.04585        -4.90512         4.99752
     2013.04859        -5.60188         5.00021
     2013.05133        -3.51764         4.91589
     2013.05407        -1.47939         4.89705
     2013.05681         0.16485         4.86745
     2013.05954         1.39909         4.93473
     2013.06228        -2.64467         5.03251
     2013.06502         2.27857         5.04865
