# ================= DQRFIT RESULTS ================
# INPUT FILE: series/ODSA.rad
# OUTPUT: LDETRENDED
# FILTER FUNCTION: f(t)
# f(t)=+line(t)+annual(t)
# line(t)=+P 1+P 2*t
# annual(t)=+P 3*sin(2*pi*t+P 4)
# heav(t)=(t<0?0:1)
# TOTAL OBSERVATIONS MTOT= 1940
# INITIAL TIME INTERVAL= 2022.7488 - 2017.2054 =  5.5434
# TOTAL OBSERVATIONS AFTER PREFILTER M= 1921
# TIME-SPAN= 2022.7488 - 2017.2054 =  5.5434
# OBSERVATIONS: USED M=  1921 REJECTED MTOT-M=    19 %USED=   99.0206
# N=  4 PARAMETERS
# MAXSIG= 175.00000
# MAXRES=  41.74198
# SCALE FACTOR FOR LENGTHS: SCL=  10.00000
# SCALE FACTOR FOR SIGMAS: SCLSIG=   1.00000
# CHI^2=   1396.946 DOF=  1917 CHI^2/DOF=   0.72871
# RMS=      6.144 SDEV=      6.135 MEAN=    0.35264
#  P #       PARAMETER +-    SIGMA %error PARAMETER NAME
# P 1 =         5.33125 +-  159.562 ****** YZERO                              
# P 2 =        -0.00205 +-    0.079 ****** SLOPE                              
# P 3 =         4.37839 +-    0.168   3.84 ANNUAL AMPLITUDE                   
# P 4 =         2.29536 +-    0.035   1.54 ANNUAL PHASE                       
#       T            LDETRENDED       SIG_OBS
     2017.20539        -1.99757         6.54150
     2017.20739        -4.53756         4.47226
     2017.21013        -4.07556         4.52348
     2017.21286        -4.11655         4.48421
     2017.21560        -4.08455         4.49275
     2017.21834        -3.64254         4.48507
     2017.22108         4.79046         4.47311
     2017.22381        -0.42853         4.53458
     2017.22655        -4.06852         4.58324
     2017.22929        -4.07452         4.44068
     2017.23203        -0.23151         4.45946
     2017.23477        -4.93751         4.46885
     2017.23750        -6.56650         4.44324
     2017.24024        -3.43850         4.44494
     2017.24298        -4.64449         4.47994
     2017.24532        -2.42049         5.28920
     2017.25667        -4.55346         4.48250
     2017.25941       -11.15546         4.48336
     2017.26214        -4.76045         4.50470
     2017.26427         1.15255         6.31870
     2017.27427         4.33657        13.04630
     2017.27583        -7.73142         4.47824
     2017.27847        -9.73942         4.59092
     2017.28196        -4.65641         6.20687
     2017.28405        -8.55241         4.46116
     2017.28680        -6.82540         4.48250
     2017.28952        -8.86340         4.42616
     2017.29226        -1.80639         4.44409
     2017.29500        -7.58238         4.48592
     2017.29774        -5.78838         4.46031
     2017.30047        -9.89037         4.49531
     2017.33716        -9.47630        10.34792
     2017.33880        -7.81730         4.43812
     2017.34154        -2.53329         4.77189
     2017.34428        -8.79028         4.49275
     2017.34702        -4.28728         4.45007
     2017.34976        -7.60227         4.42104
     2017.35249        -8.81727         4.41507
     2017.35523       -10.42626         4.49104
     2017.35797        -9.52326         4.50897
     2017.36071        -6.27925         4.51836
     2017.36344        -2.50524         4.43726
     2017.36618        -7.93024         4.43812
     2017.36892        -1.14223         4.44494
     2017.37166        -6.57723         4.48165
     2017.37440        -5.05022         4.44580
     2017.37713        -2.92522         4.53970
     2017.37987       -12.33021         4.49958
     2017.38261        -4.92521         4.55336
     2017.38535        -8.96320         4.45690
     2017.38809        -3.76219         4.46372
     2017.39082        -6.63019         4.45946
     2017.39356         2.24082         4.57811
     2017.39630         2.80682         4.40141
     2017.39904        -1.87117         4.42616
     2017.40177        -5.96017         4.45092
     2017.40451        -2.34516         4.64555
     2017.40725        -3.46115         4.49360
     2017.40987        -2.38415         6.87528
     2017.41621       -15.88914        54.86309
     2017.41849        -8.47913         5.87907
     2017.42094        -6.90413         4.53031
     2017.42368        -4.98212         4.55250
     2017.42642        -6.16912         4.86750
     2017.42915        -0.04111         4.43982
     2017.43189        -1.15210         4.55250
     2017.43463        -5.24910         4.67031
     2017.43737         1.76391         4.45263
     2017.44010         1.23191         4.46116
     2017.44284         0.88892         4.46116
     2017.44558         0.92592         4.58580
     2017.44832        -3.90907         4.53628
     2017.45106         3.47093         4.52263
     2017.45379         1.59794         5.00494
     2017.45618        -5.41605         9.41317
     2017.50581         1.93805         8.35294
     2017.50855         4.14205         8.65172
     2017.51129         3.44306         8.58087
     2017.51403         5.03106         9.10842
     2017.51676         7.90107         8.48441
     2017.51950         4.63507         8.56721
     2017.52224        -7.64292         8.84465
     2017.52498         4.79409         8.47928
     2017.52772        -2.57891         9.11867
     2017.52994         3.47510         9.69829
     2017.53319         5.96510         8.41697
     2017.53593         8.82811         8.46221
     2017.53867        14.41211         9.00001
     2017.54141         7.94012         8.45794
     2017.54414        -0.63587         8.24538
     2017.54688         1.65013         8.61587
     2017.54962         0.44514         8.89586
     2017.55236        -3.91786         8.54501
     2017.55509         1.02115         8.58855
     2017.55783         0.01215         8.48611
     2017.56057        -4.96784         8.70379
     2017.56331         1.89816         8.41526
     2017.56605         0.91317         8.40160
     2017.56878         9.96418         8.76355
     2017.57152         7.01518         8.45880
     2017.57426         6.04219         8.42465
     2017.57700        -6.12881         8.54587
     2017.57974        -3.64580         8.51172
     2017.58247         0.24720         8.34953
     2017.58795         3.59021         8.31880
     2017.59069         9.95122         8.62611
     2017.59342        -7.83677         8.44087
     2017.59616         7.81423         8.39648
     2017.59890         9.19724         8.32990
     2017.60164         2.54924         8.36916
     2017.60438       -13.33675         8.52794
     2017.60711        -3.73075         8.46563
     2017.60985        -6.61874         8.37172
     2017.61259        13.11327         8.72599
     2017.61533        29.57527         8.86172
     2017.61807        -1.88972         8.30770
     2017.62080         1.23528         8.35209
     2017.62354         4.08229         8.37258
     2017.62628         0.87729         8.56550
     2017.62902         6.38530         8.47928
     2017.63175        -2.20070         8.80452
     2017.63449         7.29831         8.48697
     2017.63723         4.02132         8.36148
     2017.63997        13.53932         8.51514
     2017.64271         5.98933         8.61928
     2017.64544         4.96633         8.48441
     2017.64818         8.85634         8.37855
     2017.65092         5.73434         8.28038
     2017.65366         2.75035         8.49465
     2017.65639        21.77736         8.54160
     2017.65913        -2.23464         8.39050
     2017.66187        21.36337         8.54843
     2017.66461         3.20937         8.40160
     2017.66735         3.13438         8.59026
     2017.67008         9.44438         8.35294
     2017.67282         4.25839         8.20099
     2017.67556        -3.93961         8.39307
     2017.67830         3.95440         8.24880
     2017.68104         0.93441         8.47416
     2017.68377        10.51641         8.97098
     2017.68651        12.19042         8.56721
     2017.68925        20.99142         8.68501
     2017.69199        10.85343         8.43319
     2017.69472        10.38043         8.29404
     2017.69746        12.17844         8.40587
     2017.70020        11.05444         8.66453
     2017.70294        16.35645         8.46904
     2017.70568         8.91146         8.30002
     2017.70841         7.37246         8.26416
     2017.71115         9.95847         8.19502
     2017.71389        22.09047         8.79855
     2017.71663        11.72248         8.26587
     2017.71937        10.91448         8.46136
     2017.72210        12.23149         8.39307
     2017.72484        10.42150         8.26929
     2017.72758        10.99750         8.28294
     2017.73032        14.31651         8.39989
     2017.73305        15.45051         8.39221
     2017.73579        13.42752         8.44599
     2017.73853         5.86652         8.48697
     2017.74127         5.74453         8.49038
     2017.74401        11.64953         8.64233
     2017.74674        14.55454         8.40672
     2017.74948        12.31155         8.39989
     2017.75222        11.84455         8.42721
     2017.75496         3.01756         8.35721
     2017.75770         7.59256         8.34782
     2017.76043        11.79357        11.46022
     2017.76317         7.70957         8.53477
     2017.76591        22.86858         8.56636
     2017.77182         9.09659        10.31463
     2017.77412        12.32160         8.52453
     2017.77686         3.42260         8.52538
     2017.77960        13.28861         8.67306
     2017.78234         2.20461         8.25563
     2017.78507        16.98062         8.33160
     2017.78781         1.24062         8.29660
     2017.79055         8.33763         8.54245
     2017.79329        19.42064         8.49977
     2017.79603        -2.65536         8.46648
     2017.79876        17.21165         8.27014
     2017.80150        12.28465         8.27441
     2017.80424        11.63666         8.33672
     2017.80698        14.50666         8.39477
     2017.80971         7.86167         8.28380
     2017.81245        -2.47233         8.25051
     2017.81519        13.48368         8.44258
     2017.81793         0.18969         8.23770
     2017.82067         1.25369         8.23002
     2017.82340         5.56570         8.27441
     2017.82614         6.87570         8.38453
     2017.82888         1.14771         8.38453
     2017.83162        12.47871         8.39221
     2017.83436        10.34072         8.11136
     2017.83709        16.00273         8.17880
     2017.83983         3.28073         8.34868
     2017.84257         7.93274         8.33160
     2017.84531        11.76274         8.29233
     2017.84804        -3.53225         8.15404
     2017.85078        17.40075         8.37599
     2017.85352        -0.46624         8.38368
     2017.85626        16.23876         8.97611
     2017.85900        13.82377         9.01964
     2017.86173        10.51778         8.28465
     2017.86447        13.27678         8.25221
     2017.86721        19.06379         8.18648
     2017.86995         7.98879         8.33331
     2017.87269        14.39780         8.39563
     2017.87542         6.07880         8.34185
     2017.87816        17.79781         8.12929
     2017.88090        11.70481         8.26246
     2017.88364        18.08782         8.33843
     2017.88637        11.45183         8.34526
     2017.88911         5.81983         8.97525
     2017.89185         2.16584         8.38453
     2017.89459        18.59684         8.48953
     2017.89733        26.45285         8.32990
     2017.90006         3.78085         8.44685
     2017.90280         5.36086         8.55099
     2017.90554         6.94387         8.28636
     2017.90828        18.13787         8.30343
     2017.91102         5.41288         8.72257
     2017.91375         6.23088         8.92574
     2017.91649         6.05989         8.37770
     2017.91923         6.36589         8.31112
     2017.92197         1.17290         8.14807
     2017.92470         6.27990         8.19673
     2017.92744         6.81391         8.24453
     2017.93018         2.43492         8.35124
     2017.93292        -0.49708         8.25477
     2017.93566         1.35493         8.20356
     2017.93839        14.28493         8.20099
     2017.94113        -2.20706         8.13612
     2017.94387         5.64094         8.25819
     2017.94661         4.61395         8.24624
     2017.94935        11.61195         8.36746
     2017.95208         9.92796         8.94025
     2017.95482         0.22897         8.25904
     2017.95756         9.46897         8.21209
     2017.96030        14.29698         8.10453
     2017.96303         2.34298         8.22404
     2017.96577        12.48899         8.22234
     2017.96851         6.01599         8.23770
     2017.97125         4.12100         8.07551
     2017.97399         8.09501         8.13953
     2017.97672         2.41401         8.10112
     2017.97946        -0.33498         8.20953
     2017.98220         3.11602         8.14295
     2017.98494         2.24303         8.04563
     2017.98767         7.72203         8.05673
     2017.99041         2.43504         8.23087
     2017.99315        -2.89596         8.19502
     2017.99589         6.28705         8.38880
     2017.99863         0.56306         8.21038
     2018.00136       -11.00394         8.02856
     2018.00410        -1.33493         8.16258
     2018.00684        -2.05693         8.27953
     2018.00958        10.80508         8.18648
     2018.01232         2.98508         8.26246
     2018.01505        -2.16591         8.21465
     2018.01779         3.42609         8.13953
     2018.02053        -7.00090         8.40416
     2018.02327        -0.49489         8.17282
     2018.02600         7.10311         8.47331
     2018.02874        -6.22788         8.22746
     2018.03148        -3.44888         8.17112
     2018.03422        -5.82287         8.20868
     2018.03696        -9.51487         8.30941
     2018.03969        -7.26786         8.21380
     2018.04243        -8.04385         8.31794
     2018.04517        -7.52385         8.36148
     2018.04791        -9.23984         8.40246
     2018.05065         5.13016         8.25819
     2018.05338         5.47017         8.26929
     2018.05612         3.13617         8.30087
     2018.05886        -8.88182         8.18478
     2018.06160         3.00218         8.22490
     2018.06433        -1.31981         8.45624
     2018.06707         6.69020         8.54075
     2018.06981         1.89120         8.59026
     2018.07255        -2.44979         8.40502
     2018.07529        -3.29979         8.51087
     2018.07802       -12.77878         8.78062
     2018.08076         4.32422         8.64318
     2018.08350        -3.68377         8.47843
     2018.08624        -2.61476         8.44002
     2018.08898       -12.29076         8.57575
     2018.09171        -9.01675         8.55782
     2018.09445         8.22925         8.39989
     2018.09719         3.50326         8.52623
     2018.09993        -3.46074         8.56806
     2018.10266        -9.92073         8.59709
     2018.10540         5.55327         8.78233
     2018.10814         2.91828         8.68587
     2018.11088        -2.01471         8.54672
     2018.11362         7.23629         8.64318
     2018.11635        -1.79870         8.82245
     2018.11909        -2.36170         8.57148
     2018.12183        10.00831         8.78489
     2018.12457        33.15231         8.94367
     2018.12731         0.31132         8.57148
     2018.13004         4.72832         8.73196
     2018.13278         4.78833         8.72940
     2018.13552         2.45534         8.53136
     2018.13826         4.75634         8.66026
     2018.14099        -2.26665         8.50063
     2018.14373         2.87035         8.69952
     2018.14647        -1.33964         8.57745
     2018.14921         6.05436         8.47160
     2018.15195         2.85137         8.44258
     2018.15468         6.33138         8.38282
     2018.15742        -0.33862         8.54160
     2018.16016         4.15739         8.40246
     2018.16290        -2.10961         9.34574
     2018.16564        -1.44660         9.77341
     2018.16837        -3.00360         8.34441
     2018.17111         1.10541         8.42550
     2018.17385        -2.52759         8.50916
     2018.17659         1.88242         8.46136
     2018.17932        -4.04357         8.47587
     2018.18206         9.80843         9.16049
     2018.18480        -0.24256         8.98977
     2018.18754         1.11344         8.46648
     2018.19028        -3.65155         8.40075
     2018.19301        -1.91655         8.38368
     2018.19575        -0.80454         8.46819
     2018.19849         2.87846         8.58855
     2018.20123         9.75147         8.48782
     2018.20397        12.78548         8.67562
     2018.20670         4.70148         8.49636
     2018.20944        -1.93251         8.37941
     2018.21218         3.76349         8.57062
     2018.21492       -16.59950         8.55184
     2018.21765         2.84950         8.04307
     2018.22018        -1.39549         9.18354
     2018.22313         6.34952         7.98161
     2018.22587       -11.54148         8.21209
     2018.22861       -11.74047         8.99489
     2018.23134        -5.63747         8.09344
     2018.23408         0.62954         8.28977
     2018.23682        -5.28446         8.08746
     2018.23956        -6.17445         7.97563
     2018.24230        -5.85845         7.96795
     2018.24503       -10.13744         8.05844
     2018.24777        -0.56343         8.17965
     2018.25051        -3.97843         8.07039
     2018.25325         0.51258         8.19160
     2018.25598        -3.29042         7.93807
     2018.25872       -19.30141         7.84332
     2018.26146         0.87759         8.08148
     2018.26420         8.61160         8.13185
     2018.26694        -2.27439         7.98758
     2018.26967       -14.88539         7.98673
     2018.27241        -1.72838         8.10965
     2018.27515         1.43462         8.07124
     2018.27789        -4.74837         8.07551
     2018.28062        -3.88937         8.03368
     2018.28336       -11.53636         8.05502
     2018.28610        -4.04736         8.02173
     2018.28884        -2.98235         8.24453
     2018.29158        -1.38534         8.10368
     2018.29431         2.10466         8.37172
     2018.29705        -6.84533         8.17880
     2018.29979        -9.74833         8.13868
     2018.30253       -14.27032         8.12417
     2018.30527        -5.50832         8.09002
     2018.30800        -7.56631         8.03112
     2018.31074       -11.71131         8.20441
     2018.31348        -6.20430         8.19075
     2018.31622       -10.81629         8.04990
     2018.31895        -4.02529         8.84379
     2018.32169        -2.10728         8.35038
     2018.32443       -10.50228         8.10795
     2018.32717        -4.41327         8.28721
     2018.32991        -3.48727         8.13356
     2018.33264         0.59974         8.19673
     2018.33538        -4.15425         8.98806
     2018.33812        -1.23125         9.09818
     2018.34086        -2.72424         8.36148
     2018.34355        -2.99724         8.24795
     2018.34639       -13.97723         8.31965
     2018.34907       -10.71223         8.22063
     2018.35181        -8.38222         9.00342
     2018.35455         3.01478         8.33160
     2018.35728        -6.84121         8.36233
     2018.36002       -14.01720         8.43916
     2018.36276        -5.93820         8.41526
     2018.36550        -1.51119         8.20782
     2018.36824         1.39581         9.12379
     2018.37097       -10.18918         8.45965
     2018.37371        -3.05718         8.28038
     2018.37645       -15.00017         9.46183
