# ================= DQRFIT RESULTS ================
# INPUT FILE: series/OKNG.rad
# OUTPUT: LDETRENDED
# FILTER FUNCTION: f(t)
# f(t)=+line(t)+annual(t)+jumps(t)
# line(t)=+P 1+P 2*t
# annual(t)=+P 3*sin(2*pi*t+P 4)
# jumps(t)=+P 5*heav(t-2011.2032  )
# heav(t)=(t<0?0:1)
# TOTAL OBSERVATIONS MTOT= 3272
# INITIAL TIME INTERVAL= 2022.7488 - 2011.1931 = 11.5557
# TOTAL OBSERVATIONS AFTER PREFILTER M= 3261
# TIME-SPAN= 2022.7488 - 2011.1931 = 11.5557
# OBSERVATIONS: USED M=  3261 REJECTED MTOT-M=    11 %USED=   99.6638
# N=  5 PARAMETERS
# MAXSIG= 175.00000
# MAXRES=  32.74371
# SCALE FACTOR FOR LENGTHS: SCL=  10.00000
# SCALE FACTOR FOR SIGMAS: SCLSIG=   1.00000
# CHI^2=   3535.017 DOF=  3256 CHI^2/DOF=   1.08569
# RMS=      6.168 SDEV=      6.169 MEAN=   -0.04382
#  P #       PARAMETER +-    SIGMA %error PARAMETER NAME
# P 1 =      2825.67564 +-   74.131   2.62 YZERO                              
# P 2 =        -1.42055 +-    0.037   2.59 SLOPE                              
# P 3 =         4.28210 +-    0.141   3.29 ANNUAL AMPLITUDE                   
# P 4 =        -2.96414 +-    0.046   1.54 ANNUAL PHASE                       
# P 5 =        36.62656 +-    3.079   8.41 OFFSET 2011.2032                   
#       T            LDETRENDED       SIG_OBS
     2011.19307         0.46488         8.15443
     2011.19507        -1.79429         5.60890
     2011.19780        -2.55140         5.73081
     2011.20048       -11.03060         5.84335
     2011.20328        32.06038         5.73394
     2011.20602        35.77727         5.66100
     2011.20876        24.84716         5.65162
     2011.21149        21.11205         5.56827
     2011.21423        28.62694         5.52971
     2011.21697        25.95183         5.75478
     2011.21971        30.70571         5.74123
     2011.22245        29.03160         5.62974
     2011.22518        26.08549         5.52242
     2011.22792        24.83338         5.59223
     2011.23066        27.34227         5.54951
     2011.23340        23.98816         5.57139
     2011.23613        25.49705         5.51513
     2011.23887        31.55294         5.54013
     2011.24161        34.32883         5.52555
     2011.24435        31.48272         5.71414
     2011.24709        29.79261         5.65267
     2011.24982        25.78650         5.58285
     2011.25257        30.10839         5.55055
     2011.25530        33.70227         5.52555
     2011.25804        31.64616         5.68497
     2011.26078        31.02205         5.74227
     2011.26351        30.94294         5.51825
     2011.26625        18.23683         5.54638
     2011.26899        34.18572         5.53492
     2011.27173        29.52162         5.61620
     2011.27446        28.95250         5.80688
     2011.27720        26.77039         5.74123
     2011.27994        28.63128         5.59327
     2011.28268        27.75517         5.62036
     2011.28502        20.78449         6.65295
     2011.28815        18.15495         5.57660
     2011.29090        34.92484         5.53388
     2011.29369        30.06281         5.63391
     2011.29637        28.95161         5.55785
     2011.29911        29.42950         5.46094
     2011.30184        29.92839         5.68392
     2011.30441        31.03404         5.95275
     2011.30732        34.18717         5.58390
     2011.30983        38.63274         6.15177
     2013.56149        22.96533        10.90313
     2013.56331        37.43891         5.66413
     2013.56605        32.35480         5.66413
     2013.56878        38.05969         5.62349
     2013.57152        38.92958         5.59015
     2013.57426        40.85147         5.64225
     2013.57700        38.79136         5.71518
     2013.57974        29.77925         5.70060
     2013.58247        33.98214         5.74540
     2013.58521        39.18003         5.68080
     2013.58795        37.18791         5.51617
     2013.59069        44.02980         5.69434
     2013.59342        40.49569         5.69018
     2013.59616        30.77458         5.77041
     2013.59877        35.58628         5.91107
     2013.60252        35.84162        10.31442
     2013.60438        44.58625         5.71310
     2013.60711        35.97814         5.73915
     2013.60985        47.42303         6.03090
     2013.61259        42.15492         5.74748
     2013.61533        39.48581         5.94546
     2013.61807        40.35670         5.84543
     2013.62080        37.80259         5.69330
     2013.62354        40.63847         5.69747
     2013.62628        38.38836         5.59015
     2013.62902        39.51425         5.74019
     2013.63175        36.63714         5.60473
     2013.63449        43.70503         5.77353
     2013.63723        42.92191         5.74019
     2013.63997        44.52581         5.63808
     2013.64271        39.44770         5.64016
     2013.64544        38.80059         5.76207
     2013.64818        42.50048         5.59223
     2013.65092        46.86437         5.60161
     2013.65366        41.70526         5.69539
     2013.65639        42.81615         5.60890
     2013.65913        46.78503         5.88294
     2013.66187        36.29292         5.84543
     2013.66461        39.51781         5.57764
     2013.66735        46.82070         5.59640
     2013.67008        44.73959         5.66308
     2013.67282        44.52548         5.89232
     2013.67556        37.11137         5.89753
     2013.67830        50.33026         5.82146
     2013.68104        34.43215         5.93712
     2013.68377        41.73204         5.61307
     2013.68651        40.29793         5.53180
     2013.68925        40.06282         5.57556
     2013.69199        42.81771         5.67663
     2013.69472        42.21060         5.60578
     2013.69746        42.18748         5.62974
     2013.70020        44.63937         5.81938
     2013.70294        46.26626         5.61515
     2013.70568        40.40915         5.60994
     2013.70841        39.33404         5.90274
     2013.71115        42.64793         5.57869
     2013.71389        40.93882         5.67559
     2013.71663        40.48071         5.59744
     2013.71937        41.51660         5.55993
     2013.72210        46.34449         5.72560
     2013.72484        44.59838         5.60786
     2013.72758        41.31327         5.69018
     2013.73032        43.48616         5.55368
     2013.73305        46.11204         5.56201
     2013.73579        44.04593         5.58702
     2013.73853        40.77582         5.69851
     2013.74127        46.73171         5.93400
     2013.74401        47.99260         5.86002
     2013.74674        45.17049         5.73498
     2013.74948        39.59138         8.14088
     2013.75222        31.10327         5.69122
     2013.75496        31.69816         5.56201
     2013.75770        33.62305         5.86523
     2013.76043        34.50294         5.59640
     2013.76317        32.88783         5.59640
     2013.76591        44.39272         5.72144
     2013.76864        43.92860         6.38829
     2013.77138        30.82149        13.86752
     2013.77412        32.73638        11.72316
     2013.77686        36.25327         6.04236
     2013.77960        39.06016         5.73498
     2013.78182        36.83832         6.95825
     2013.78593        34.91916        10.07164
     2013.78781        29.85983         5.71727
     2013.79055        38.70272         5.70476
     2013.79329        34.54061         5.67559
     2013.79603        37.21650         5.58911
     2013.79876        36.38139         5.56931
     2013.80150        39.31128         5.69226
     2013.80424        34.56117         5.67559
     2013.80698        33.69605         5.58911
     2013.80971        38.17494         5.55055
     2013.81245        36.64783         5.56931
     2013.81519        31.24772         5.53492
     2013.81793        31.83061         5.52138
     2013.82067        35.20150         5.77458
     2013.82340        36.91039         5.60057
     2013.82569        37.52363         6.91344
     2013.82888        42.18317         5.91628
     2013.83162        33.14806         5.66204
     2013.83436        35.56095         5.72248
     2013.83709        39.99484         5.70060
     2013.83983        44.07873         5.66829
     2013.84257        37.29561         5.59223
     2013.84531        37.88650         5.68497
     2013.84804        36.16939         5.73185
     2013.85078        19.25228         5.80688
     2013.85352        38.88117         5.55993
     2013.85626        34.23006         5.63808
     2013.85900        33.60195         5.52346
     2013.86173        31.98684         5.68392
     2013.86447        28.78373         5.57869
     2013.86721        32.14862         5.61620
     2013.86995        35.22251         5.61099
     2013.87269        40.85840         5.54951
     2013.87542        45.85729         5.57973
     2013.87816        43.29817         5.66308
     2013.88090        42.58906         5.59744
     2013.88364        42.74195         5.95275
     2013.88637        39.48984         5.60578
     2013.88911        31.97673         5.56514
     2013.89185        27.16862         5.61724
     2013.89459        26.82451         5.56827
     2013.89733        33.12240         5.56931
     2013.90006        34.95929         5.64850
     2013.90280        31.98118         5.64746
     2013.90554        32.05207         5.58285
     2013.90828        33.73996         5.59536
     2013.91102        36.76885         5.54951
     2013.91375        36.41174         5.55159
     2013.91649        44.03662         5.64746
     2013.91923        41.39951         5.81938
     2013.92197        38.24940         5.64746
     2013.92470        35.95129         5.68913
     2013.92744        37.21018         5.62036
     2013.93018        35.57707         8.78377
     2013.93292        36.70796         5.57243
     2013.93566        34.19285         5.62349
     2013.93839        34.49474         5.58702
     2013.94113        35.15963         5.55576
     2013.94301        37.41530         8.96195
     2013.94661        33.29241         5.60161
     2013.94935        36.64330         5.53076
     2013.95208        34.28518         5.53284
     2013.95482        22.85807        13.14961
     2013.95756        41.89396         5.56931
     2013.96030        39.88785         5.59536
     2013.96303        38.78474         5.58285
     2013.96577        41.89763         5.55576
     2013.96851        42.91252         5.59744
     2013.97036        45.62415         8.74522
     2013.97946        36.06808         5.67142
     2013.98222        28.35899         5.71727
     2013.98494        32.04986         5.69643
     2013.98767        24.06174         5.63704
     2013.99041        26.07263         5.78187
     2013.99315        29.54952         5.77145
     2013.99589        37.01541         5.77353
     2013.99863        31.51030         5.70789
     2014.00410        34.59808         5.67663
     2014.00684        38.20897         5.78395
     2014.00958        36.47186         5.74540
     2014.01233        28.82476         5.80896
     2014.01505        33.48264         5.77353
     2014.01779        33.05253         5.88919
     2014.02053        38.04442         5.61515
     2014.02327        36.52531         5.95067
     2014.02600        41.82119         5.97463
     2014.02874        44.40208         5.78499
     2014.03148        44.88897         5.72039
     2014.03422        29.94486         5.71206
     2014.03696        34.17875         5.65475
     2014.03969        35.02064         5.72248
     2014.04244        35.71654         5.96109
     2014.04517        35.72042         5.79125
     2014.04791        36.90931         5.68392
     2014.05065        38.60820         5.69330
     2014.05338        34.75309         5.62870
     2014.05612        31.93498         5.62453
     2014.05886        34.42787         5.78187
     2014.06160        33.42375         5.62557
     2014.09266        42.35889        10.81873
     2014.09445        32.70643         5.67142
     2014.09711        30.47120         6.01319
     2014.09995        36.89924         5.93295
     2014.10266        41.23709         5.94650
     2014.10540        42.80498         5.61724
     2014.10814        38.36487         5.72456
     2014.11088        35.78076         5.74853
     2014.11362        40.49965         5.68809
     2014.11635        38.54854         5.84960
     2014.11909        37.03043         5.83814
     2014.12183        29.79632         5.73290
     2014.12457        33.50521         7.51153
     2014.12731        41.64310         5.76728
     2014.13004        42.25199         5.66204
     2014.13276        43.10385         5.85272
     2014.13552        35.95176         6.23408
     2014.13826        41.15065         6.73006
     2014.14099        39.38054         5.84751
     2014.14373        37.24243         5.74019
     2014.14647        36.34032         5.79333
     2014.14921        34.76321         5.69122
     2014.15195        31.49010         5.77979
     2014.15468        37.26499         5.81625
     2014.15742        41.89288         5.78395
     2014.16016        39.70477         6.14864
     2014.16292        37.64769         5.92358
     2014.16564        31.57855         5.78916
     2014.16837        28.71144         5.79125
     2014.17111        38.39832         5.91837
     2014.17385        36.83321         5.83084
     2014.17659        39.90210         5.85481
     2014.17932        40.36599         6.05695
     2014.18206        36.46688         5.84751
     2014.18480        38.07177         5.69643
     2014.18754        37.40066         6.60294
     2014.19028        29.87955         6.10800
     2014.19301        37.33144         5.64850
     2014.19575        36.59733         5.76624
     2014.19849        42.89822         5.78083
     2014.20123        30.94811         5.76207
     2014.20397        34.69700         5.69330
     2014.20670        40.63488         5.77458
     2014.20944        39.62077         5.74748
     2014.21218        37.83966         5.78916
     2014.21492        44.40555         5.85272
     2014.21764        34.90543         5.91837
     2014.22039        41.60633         8.74209
     2014.22313        35.52322         5.77145
     2014.22587        35.12511         5.82772
     2014.22861        39.24000         5.68601
     2014.23134        45.22689         5.74853
     2014.23408        38.94378         5.76520
     2014.23682        34.01567         5.69018
     2014.23956        34.91056         5.87148
     2014.24230        33.51544         5.73394
     2014.24501        32.56130         6.45706
     2014.24787        37.25237         6.27055
     2014.25051        37.19111         5.75478
     2014.25325        32.02000         5.73394
     2014.25598        38.54589         5.93087
     2014.25872        38.79278         5.70268
     2014.26146        36.88067         6.03298
     2014.26420        29.98356         5.72144
     2014.26694        33.93845         5.94442
     2014.26967        34.70534         5.86731
     2014.27241        37.79323         5.79646
     2014.27515        35.67412         6.64149
     2014.27789        33.79901         6.07466
     2014.27984        29.72977         9.54024
     2014.28439        40.16425        10.85937
     2014.28610        35.02067         5.83918
     2014.28884        36.40756         5.97463
     2014.29158        34.73145         5.80583
     2014.29431        39.00334         5.70997
     2014.29705        35.15923         5.78291
     2014.29979        28.59312         5.62662
     2014.30253        37.52901         5.73290
     2014.30527        36.09890         5.71727
     2014.30798        40.58376         5.93191
     2014.31074        35.91368         5.98193
     2014.31348        33.75757         5.77562
     2014.31622        35.47845         5.74332
     2014.31895        36.83534         5.77979
     2014.32169        32.42823         5.94337
     2014.32443        28.50712         5.82667
     2014.32717        28.49601         5.84751
     2014.32991        32.11390         5.66100
     2014.33264        33.29979         5.71935
     2014.33537        35.36167         5.85793
     2014.33812        36.51357         5.83397
     2014.34086        35.82046         5.79958
     2014.34360        34.37735         5.79229
     2014.34633        28.01524         5.66204
     2014.34907        34.28413         5.86210
     2014.35181        35.54601         6.08091
     2014.35455        33.58690         5.69955
     2014.35728        32.29879         5.70685
     2014.36002        28.08068         5.62245
     2014.36276        24.48457         5.86002
     2014.36550        30.32646         5.75061
     2014.36824        29.90735         5.84855
     2014.37097        39.06224         5.86731
     2014.37371        23.29313         5.76937
     2014.37645        28.94902         5.64537
     2014.37919        33.79591         5.80167
     2014.38193        27.43380         5.91524
     2014.38466        32.75469         5.87148
     2014.38740        35.14158         5.74853
     2014.39014        36.09446         5.83397
     2014.39289        31.13437         5.90899
     2014.39561        33.98224         5.82876
     2014.39835        32.73913         5.94337
     2014.40109        37.77002         5.83293
     2014.40383        31.66491         5.88086
     2014.40657        30.07180         5.85064
     2014.40930        32.34569         5.77353
     2014.41204        27.86158         5.70060
     2014.41478        29.26547         5.80896
     2014.41752        38.28636         5.79750
     2014.41915        53.18967        17.20703
     2014.43397        33.96073         5.78187
     2014.43668        31.50358         6.00485
     2014.43942        34.68047         5.84022
     2014.44216        35.77436         5.73394
     2014.44490        36.48025         5.91628
     2014.44762        36.78312         5.92670
     2014.45037        30.49703         5.65996
     2014.45311        36.85592         5.80792
     2014.45585        38.32181         5.73915
     2014.45859        27.80070         5.75582
     2014.46132        31.31658         5.74019
     2014.46406        36.48147         5.73498
     2014.46680        36.48836         5.81730
     2014.46954        36.72525         5.73811
     2014.47227        34.93614         5.77041
     2014.47501        35.77703         5.70997
     2014.47775        29.92991         5.91837
     2014.48049        40.30481         5.81209
     2014.48323        36.41670         6.00068
     2014.48596        33.03659         7.59489
     2014.48870        39.74748         5.90899
     2014.49144        35.59737         5.81521
     2014.49418        33.70826         5.63912
     2014.49692        32.99515         5.70581
     2014.49964        32.06002         5.72352
     2014.50239        37.08492         5.94963
     2014.50513        33.22281         5.77249
     2014.50787        36.41170         5.73290
     2014.51060        31.91659         5.68288
     2014.51334        38.34748         5.79125
     2014.51608        45.02737         5.72248
     2014.51882        40.88626         5.71623
     2014.52156        44.58615         5.99860
     2014.52429        38.23404         5.72664
     2014.52702        43.08591         5.74227
     2014.52977        30.21782         5.71310
     2014.53251        40.97071         5.82459
     2014.53525        32.68959         5.73602
     2014.53798        42.33248         5.72769
     2014.54072        48.17337         5.79854
     2014.54346        42.12026         5.89023
     2014.54620        43.07915         6.06945
     2014.54893        41.04304         5.83293
     2014.55167        41.15693         5.80479
