# ================= DQRFIT RESULTS ================
# INPUT FILE: series/OLAR.rad
# OUTPUT: LDETRENDED
# FILTER FUNCTION: f(t)
# f(t)=+line(t)+annual(t)+jumps(t)
# line(t)=+P 1+P 2*t
# annual(t)=+P 3*sin(2*pi*t+P 4)
# jumps(t)=+P 5*heav(t-2017.5668  )
# heav(t)=(t<0?0:1)
# TOTAL OBSERVATIONS MTOT= 3357
# INITIAL TIME INTERVAL= 2022.7488 - 2013.0086 =  9.7402
# TOTAL OBSERVATIONS AFTER PREFILTER M= 3345
# TIME-SPAN= 2022.7488 - 2013.0086 =  9.7402
# OBSERVATIONS: USED M=  3345 REJECTED MTOT-M=    12 %USED=   99.6425
# N=  5 PARAMETERS
# MAXSIG= 175.00000
# MAXRES=  33.69363
# SCALE FACTOR FOR LENGTHS: SCL=  10.00000
# SCALE FACTOR FOR SIGMAS: SCLSIG=   1.00000
# CHI^2=   2492.587 DOF=  3340 CHI^2/DOF=   0.74628
# RMS=      5.134 SDEV=      5.134 MEAN=    0.09777
#  P #       PARAMETER +-    SIGMA %error PARAMETER NAME
# P 1 =      2059.88669 +-  121.811   5.91 YZERO                              
# P 2 =        -1.02698 +-    0.060   5.89 SLOPE                              
# P 3 =         4.83867 +-    0.116   2.39 ANNUAL AMPLITUDE                   
# P 4 =         3.01174 +-    0.033   1.11 ANNUAL PHASE                       
# P 5 =        11.10095 +-    0.341   3.07 OFFSET 2017.5668                   
#       T            LDETRENDED       SIG_OBS
     2013.00856        12.10240         9.66160
     2013.01026         0.08115         4.80057
     2013.01300        -0.43504         4.62606
     2013.01574         2.00778         4.64420
     2013.01848         0.11659         4.72627
     2013.02121        -0.02860         4.67358
     2013.02395        -3.06179         4.72714
     2013.02669        -0.87098         4.75737
     2013.02943        -0.75916         4.67271
     2013.03216        -4.18635         4.62779
     2013.03491        -5.26354         4.63902
     2013.03764        -5.89673         4.66148
     2013.04035       -13.46794         4.62520
     2013.04312        -9.28511         4.68912
     2013.04585        -6.98929         4.87227
     2013.04859        -6.17448         4.76687
     2013.05133        -4.28967         4.63297
     2013.05407        -3.34585         4.61915
     2013.05681         0.51695         4.65371
     2013.05954        -3.41424         4.63211
     2013.06228        -3.31842         4.83771
     2013.06502        -0.28561         4.85413
     2013.06776        -0.75680         4.66234
     2013.07049        -0.80799         4.67530
     2013.07324         0.60783         5.03381
     2013.07597        -0.34437         4.69431
     2013.07871         0.29545         4.61138
     2013.08145        -1.91374         4.77119
     2013.08418        -7.62393         4.62520
     2013.08692        -3.26512         4.62779
     2013.08966        -5.98331         4.66926
     2013.09240        -2.32449         4.60878
     2013.09514         1.68832         4.73577
     2013.09787         0.55113         4.94138
     2013.10061        -5.93706         4.99753
     2013.10335        -3.59725         4.69172
     2013.10594        -1.17458         5.12279
     2013.11720        -8.78402         5.03381
     2013.11978        -6.63738         4.94397
     2013.12251        -6.59657         4.61829
     2013.12525        -8.74775         4.68308
     2013.12799        -4.39394         4.68221
     2013.13073        -2.95513         4.64679
     2013.13347        -0.30932         4.76169
     2013.13618         4.08847         4.71159
     2013.13894         2.24830         4.68049
     2013.14168         0.78712         4.69517
     2013.14442        -2.31707         4.83944
     2013.14715         4.73474         4.78415
     2013.14990        -9.09044         4.66407
     2013.15263        -4.60664         4.67617
     2013.15536       -12.18683         4.70727
     2013.15811        -8.69101         4.61483
     2013.16084       -11.39420         4.64507
     2013.16358       -11.10739         4.98284
     2013.16632        -6.55958         4.63643
     2013.16906        -3.25077         4.70381
     2013.17180        -2.41296         4.65111
     2013.17453        -1.86814         4.62779
     2013.17727        -2.53533         4.70381
     2013.18001        -4.97752         4.72368
     2013.18275        -1.87571         4.65889
     2013.18548        -2.51490         4.60533
     2013.18823        -8.11708         4.62001
     2013.19096        -4.15827         4.61051
     2013.19370        -4.26246         4.62433
     2013.19644        -4.48165         4.66666
     2013.19917        -1.52184         4.75046
     2013.20191        -0.16403         4.65371
     2013.20465        -2.81721         4.64766
     2013.20739         5.64260         4.65284
     2013.21013        -1.12959         4.59410
     2013.21286        -2.64178         4.62693
     2013.21560        -3.08297         4.62952
     2013.21834         1.76984         4.60619
     2013.22108        -2.94734         4.62693
     2013.22381        -4.46253         4.60447
     2013.22656        -5.68972         4.58028
     2013.22929        -3.64191         4.61656
     2013.23203        -2.92110         4.62952
     2013.23477        -4.33329         4.59410
     2013.23750        -7.82547         4.68999
     2013.24024        -5.42666         4.72109
     2013.24298        -2.78585         4.68653
     2013.24572         1.80597         4.69863
     2013.24846         0.74177         4.69863
     2013.25119        -1.61342         4.69085
     2013.25393        -2.78360         4.83426
     2013.25667         0.99621         4.82562
     2013.25941        -0.33798         4.71245
     2013.26214         3.16983         4.74873
     2013.26489         0.10265         4.68308
     2013.26762        -3.92055         4.88436
     2013.27036        -4.78073         4.70727
     2013.27310        -4.20092         4.85585
     2013.27583       -12.79411         4.76515
     2013.27857        -3.92930         4.74182
     2013.28131         4.44751         4.73750
     2013.28405        -0.14367         4.71763
     2013.28679        -3.05586         4.69085
     2013.28952        -4.91905         4.92237
     2013.29188       -10.64763         5.85795
     2013.30703        -4.20507         9.82919
     2013.30743       -13.73266        17.62655
     2013.31690        -8.08793         4.72714
     2013.31964        -4.09312         4.68394
     2013.32238        -7.48031         4.64679
     2013.32512         6.00950         4.87054
     2013.32785        -4.10969         4.70467
     2013.33059        -8.25588         4.65716
     2013.33333       -11.08106         4.72454
     2013.33607       -14.27025         4.72454
     2013.33880        -5.51844         4.68912
     2013.34155        -4.39362         4.67185
     2013.34428        -5.58182         4.70295
     2013.34702        -1.85201         4.70036
     2013.34976        -4.91719         4.74355
     2013.35249        -9.44438         4.66580
     2013.35523        -5.62457         4.74269
     2013.35797        -0.46776         4.66234
     2013.36071        -9.60994         4.75478
     2013.36344        -2.60213         4.75651
     2013.36618        -7.13232         4.69344
     2013.36892        -2.12751         4.67962
     2013.37166        -4.65270         4.71504
     2013.37440        -3.08889         4.65630
     2013.37713        -8.34008         4.71159
     2013.37988        -6.88826         4.67012
     2013.38261        -9.14045         4.67185
     2013.38535        -5.06464         4.69517
     2013.38809        -2.72383         4.63643
     2013.39082        -9.23302         4.65111
     2013.39299        -9.74080         8.48673
     2013.39907        -4.73755         5.52104
     2013.40177        -4.23377         4.72800
     2013.40451        -3.30296         4.62606
     2013.40725        -2.70115         4.81007
     2013.40999        -5.33934         4.84030
     2013.41273        -4.68852         4.68826
     2013.41546        -8.86071         4.80488
     2013.41821        -4.77590         4.67617
     2013.42094         0.09491         4.65543
     2013.42368        -7.48628         4.74614
     2013.42642        -1.75247         4.70122
     2013.42915        -1.37965         4.67703
     2013.43190        -9.49584         4.75651
     2013.43463        -3.48403         4.71072
     2013.43737        -1.93121         4.63643
     2013.44010        -4.83641         4.68221
     2013.44284        -3.76359         4.68308
     2013.44558        -6.02678         4.86968
     2013.44832        -8.13197         4.70122
     2013.45106        -5.61916         4.70986
     2013.45379        -4.57335         4.68567
     2013.45654        -4.55253         4.70122
     2013.45927        -9.51272         5.63507
     2013.46201        -3.48191         4.72973
     2013.46475        -4.89510         4.68049
     2013.46748        -4.01629         4.67530
     2013.47022        -4.47048         4.70727
     2013.47296        -3.40167         4.69258
     2013.47570         1.09015         4.66148
     2013.47763         1.94713         8.12390
     2013.48121        11.59280         6.51277
     2013.48391         2.09758         5.08046
     2013.48665        -4.00361         6.04109
     2013.48939        -7.49280         4.98543
     2013.49212         3.98902         5.74219
     2013.49487        -6.54217         5.64544
     2013.49760         1.15664         5.09687
     2013.50034        -5.74555         4.66062
     2013.50308         4.49126         4.68912
     2013.50581        -1.27493         4.67530
     2013.50855        -2.73911         4.60619
     2013.51129        -1.49130         4.59669
     2013.51403        -2.22349         4.58028
     2013.51676         0.41132         4.73923
     2013.51950        -2.24987         4.62088
     2013.52224         0.21794         4.69517
     2013.52498        -2.35624         4.83426
     2013.52772        -0.43943         4.64161
     2013.53023        -2.63485         4.94051
     2013.54798         0.35338        12.67135
     2013.54855         0.39196        10.77168
     2013.56149         2.14525         8.83401
     2013.56331         1.97812         4.72714
     2013.56605         0.13293         4.64075
     2013.56878         2.30674         4.65803
     2013.57152         3.74156         4.65198
     2013.57426         5.39237         4.62952
     2013.57700         1.67818         4.65889
     2013.57974         1.88999         4.64852
     2013.58247         7.52480         4.61829
     2013.58521         4.65361         4.64593
     2013.58795         2.64343         4.64939
     2013.59069         2.46124         4.62347
     2013.59342         2.52305         4.64075
     2013.59616         7.07586         4.63988
     2013.59890         3.70967         4.65025
     2013.60164         2.36348         4.65371
     2013.60438         3.85130         4.69863
     2013.60711         0.66411         4.67185
     2013.60985         7.09292         4.65975
     2013.61259         6.27673         4.63643
     2013.61533         7.39054         4.76342
     2013.61807         5.32036         4.87227
     2013.62080         8.33517         4.92583
     2013.62354         2.66698         4.70986
     2013.62628         3.42679         4.82303
     2013.62902         0.55960         4.63384
     2013.63175         4.47541         4.71418
     2013.63449         4.66623         4.76515
     2013.63723         7.26104         4.64334
     2013.63997        11.10085         4.66321
     2013.64271         7.88466         4.67530
     2013.64544         6.92447         4.65716
     2013.64818         7.81628         4.69085
     2013.65092         7.68210         4.70899
     2013.65366         9.41491         4.68481
     2013.65639         7.73472         4.71936
     2013.65913        11.34753         4.88782
     2013.66187         7.94134         4.75824
     2013.66461         0.63415         4.62347
     2013.66735         7.23197         4.67271
     2013.67008        14.08478         4.69085
     2013.67282         7.21759         4.82216
     2013.67556         4.51640         5.01567
     2013.67830        11.50421         4.89732
     2013.68104         5.77802         4.65716
     2013.68377         7.83584         4.62606
     2013.68651         9.01565         4.66407
     2013.68925         6.58146         4.63384
     2013.69199         5.95527         4.64161
     2013.69472        11.01908         4.60878
     2013.69746         2.22389         4.63038
     2013.70020         9.31671         4.65630
     2013.70294        12.43852         4.66666
     2013.70568        16.25933         4.66666
     2013.70841         2.86714         4.69776
     2013.71115         6.23195         4.67098
     2013.71389        -3.03823         4.69517
     2013.71663         6.90658         4.70986
     2013.71937         9.37439         4.68481
     2013.72210        14.59920         4.62952
     2013.72484        11.95101         4.79970
     2013.72758        10.69882         4.79625
     2013.73032         9.29264         4.71245
     2013.73305         8.55445         4.65284
     2013.73579         6.71626         4.61397
     2013.73853         2.49807         4.74960
     2013.74127         2.15688         4.69604
     2013.74401        13.74569         4.79279
     2013.74674        10.45151         4.97680
     2013.74948         1.26232         6.95680
     2013.75222        -2.45787         4.67271
     2013.75496        -0.67506         4.60878
     2013.75770        -2.44225         4.75305
     2013.76043        -1.73644         4.65889
     2013.76317         3.82538         4.61397
     2013.76591        14.09419         4.85844
     2013.76865         5.85000         4.70727
     2013.77138         1.60681         4.66062
     2013.77412         0.13962         4.64161
     2013.77686         0.71443         4.65630
     2013.77960        -2.49775         4.66321
     2013.78182        -3.36447         5.75947
     2013.78593        -3.83425         8.20770
     2013.78781        -6.84632         4.63988
     2013.79055         2.21749         4.66926
     2013.79329        -0.48569         4.65111
     2013.79603         1.68812         4.61915
     2013.79876         1.53993         4.62261
     2013.80150         5.04474         4.72800
     2013.80424         3.84655         4.69258
     2013.80698         5.58136         4.60965
     2013.80971         6.04118         4.64939
     2013.81245         6.10799         4.63902
     2013.81519         3.76580         4.63556
     2013.81793        -1.03839         4.62261
     2013.82067         3.20742         4.78415
     2013.82341         2.72624         4.79020
     2013.82568         5.21557         6.73997
     2013.82888         6.35686         4.81525
     2013.83162         2.91467         4.64507
     2013.83436         6.94448         4.74528
     2013.83709        -0.49671         4.83426
     2013.83983         7.92710         4.74873
     2013.84257         3.31992         4.80575
     2013.84531        -5.93327         4.89905
     2013.84804        -6.30346         4.62174
     2013.85078        -1.10365         4.64420
     2013.85352        13.49716         4.80661
     2013.85626        -0.02003         4.66494
     2013.85900         4.01279         4.63125
     2013.86173         0.43260         4.62261
     2013.86447        -9.65359         4.70467
     2013.86721        -6.62178         4.67098
     2013.86995         0.39803         4.71159
     2013.87269         3.71385         4.70467
     2013.87542        15.47566         4.71677
     2013.87816         6.34547         4.62520
     2013.88090         4.11828         4.72109
     2013.88364         6.96409         4.88782
     2013.88637         1.69490         4.69949
     2013.88911        -0.78728         4.61742
     2013.89185        -5.89247         4.60447
     2013.89459        -4.81366         4.61483
     2013.89733         0.69315         4.62174
     2013.90006        -2.36904         4.70986
     2013.90280        -5.46323         4.72714
     2013.90554        -0.58141         4.67617
     2013.90828         0.68740         4.63729
     2013.91102         1.16821         4.64248
     2013.91375        -4.63698         4.64420
     2013.91649         5.20683         4.63556
     2013.91923         5.67764         4.82043
     2013.92197        -3.71054         4.69344
     2013.92470        -1.30073         4.60274
     2013.92744        -0.22192         4.69776
     2013.93018         2.72389         7.78440
     2013.93292        -1.98730         4.62779
     2013.93566        -1.39649         4.68826
     2013.93839         1.38833         4.60792
     2013.94113        -1.93886         4.61224
     2013.94301         0.90507         7.40256
     2013.94661         2.69576         4.74441
     2013.94935         1.83057         4.63902
     2013.95208         5.72938         4.63384
     2013.95482        -0.80680         5.07441
     2013.95756         0.64801         4.61310
     2013.96030        -3.11018         4.72541
     2013.96303         3.18463         4.64507
     2013.96577         3.45544         4.63038
     2013.96851         4.45626         4.72109
     2013.97125         5.67507         4.62174
     2013.97399        -0.84612         4.70381
     2013.97672        -0.27631         4.74096
     2013.97946        -1.63750         4.62693
     2013.98220         0.53431         4.64420
     2013.98494        -4.01387         4.60274
     2013.98767       -10.65206         4.66321
     2013.99041        -9.02525         4.63729
     2013.99315       -10.52844         4.64852
     2013.99589        -3.85163         4.64161
     2013.99863        -6.28482         4.64679
     2014.00410        -0.59919         4.63643
     2014.00684        -8.25038         4.80402
     2014.00958        -1.33357         4.61742
     2014.01232        -5.64476         4.65371
     2014.01505        -1.82695         4.72627
     2014.01779        -5.59713         4.72454
     2014.02053        -1.21732         4.64248
     2014.02327        -1.52551         4.84635
     2014.02600         4.62030         4.73664
     2014.02874         1.33811         4.76515
     2014.03148         4.80692         4.70122
     2014.03422         1.11774         4.63729
     2014.03696        -2.89345         4.61483
     2014.03969        -1.37464         4.59842
     2014.04243        -0.35783         4.75651
     2014.04517         3.74598         4.79625
     2014.04791         0.71580         4.69863
     2014.05065        -0.75639         4.62433
     2014.05338        -1.18258         4.58373
     2014.05612        -4.42077         4.60360
     2014.05886        -4.07796         4.64593
     2014.06160         1.03285         4.64852
     2014.06433         0.08467         4.80316
     2014.06707        -0.87052         4.78070
     2014.06981         1.65529         4.66494
     2014.07255         2.37110         4.80316
     2014.07529         0.57791         4.65716
     2014.07802        -1.29228         4.68653
     2014.08083         2.55760         5.00012
     2014.08350         1.93035         4.80661
     2014.08620        -3.22987         5.12625
     2014.09017        13.93020        19.54695
     2014.09171        -1.66622         5.29038
     2014.09444        -1.86842         5.20659
     2014.09713        -4.77965         5.68604
     2014.09995         2.04024         5.58065
     2014.10272         1.49408         5.22127
     2014.10540         5.25284         4.62174
     2014.10814        -0.55635         4.66148
     2014.11088         2.86846         5.06232
     2014.11364         7.11231         5.10551
     2014.11635         5.32409         4.83166
     2014.11909        -0.53510         4.70899
     2014.12183         2.54371         4.83080
     2014.12457         4.67552         6.27779
