# ================= DQRFIT RESULTS ================
# INPUT FILE: series/OLMP.rad
# OUTPUT: LDETRENDED
# FILTER FUNCTION: f(t)
# f(t)=+line(t)+annual(t)+jumps(t)
# line(t)=+P 1+P 2*t
# annual(t)=+P 3*sin(2*pi*t+P 4)
# jumps(t)=+P 5*heav(t-2018.5342  )+P 6*heav(t-2020.7597  )
# heav(t)=(t<0?0:1)
# TOTAL OBSERVATIONS MTOT= 3818
# INITIAL TIME INTERVAL= 2022.7488 - 2011.8960 = 10.8528
# TOTAL OBSERVATIONS AFTER PREFILTER M= 3772
# TIME-SPAN= 2022.7488 - 2011.8960 = 10.8528
# OBSERVATIONS: USED M=  3772 REJECTED MTOT-M=    46 %USED=   98.7952
# N=  6 PARAMETERS
# MAXSIG= 175.00000
# MAXRES=  22.58427
# SCALE FACTOR FOR LENGTHS: SCL=  10.00000
# SCALE FACTOR FOR SIGMAS: SCLSIG=   1.00000
# CHI^2=   4001.361 DOF=  3766 CHI^2/DOF=   1.06250
# RMS=      6.088 SDEV=      6.089 MEAN=   -0.02546
#  P #       PARAMETER +-    SIGMA %error PARAMETER NAME
# P 1 =      4294.68420 +-  131.105   3.05 YZERO                              
# P 2 =        -2.12520 +-    0.065   3.06 SLOPE                              
# P 3 =         5.33450 +-    0.136   2.54 ANNUAL AMPLITUDE                   
# P 4 =        -2.87046 +-    0.035   1.21 ANNUAL PHASE                       
# P 5 =       138.99272 +-    0.386   0.28 OFFSET 2018.5342                   
# P 6 =      -151.78777 +-    0.341   0.22 OFFSET 2020.7597                   
#       T            LDETRENDED       SIG_OBS
     2011.89596        -8.89298         5.73008
     2011.89869         0.93084         5.75791
     2011.90143        -5.77034         5.89397
     2011.90417        -4.18152         5.87026
     2011.90691        -2.42870         5.79089
     2011.90965        -2.93688         5.71255
     2011.91238        -0.32107         5.81872
     2011.91512       -10.53225         5.73729
     2011.91786        -4.71143         5.95582
     2011.92060        -8.20361         5.78161
     2011.92334       -10.24679         5.82903
     2011.92607       -15.44797         5.82182
     2011.92881        -6.98716         5.73935
     2011.93155         0.16666         5.84965
     2011.93429        -2.69052         5.80120
     2011.93702        -3.07370         5.77646
     2011.93976        -1.99488         5.85377
     2011.94250        -1.06406         5.82078
     2011.94524        -0.94124         5.85686
     2011.94798         5.19857         5.78883
     2011.95071         1.95139         5.65792
     2011.95345         2.61621         5.92489
     2011.95619         2.75703         5.87954
     2011.95893        -1.23115         5.68885
     2011.96165        -5.83036         6.07435
     2011.96449         1.27668         5.84758
     2011.96714        -9.94970         5.64968
     2011.96988        -1.25388         5.58989
     2011.97262        -3.98906         5.59814
     2011.97535        -6.53724         5.69194
     2011.97809        -0.16142         5.68885
     2011.98083        -5.56460         5.64349
     2011.98357         0.14821         5.61360
     2011.98631         1.82203         5.62597
     2011.98904        -5.44915         5.64658
     2011.99178         3.75767         5.64555
     2011.99452         2.31549         5.62391
     2011.99726        -3.88569         5.61360
     2012.00273        -9.48906         5.61875
     2012.00547         1.18476         5.66926
     2012.00821        -4.87842         5.65689
     2012.01095         0.99940         5.65071
     2012.01368        -1.73578         5.68678
     2012.01642         1.40604         5.59608
     2012.01916        -2.69314         5.61154
     2012.02190         5.81867         5.64246
     2012.02464         1.38649         5.69606
     2012.02737        -4.90869         5.58680
     2012.03011        -2.45887         5.60020
     2012.03285        -5.67105         5.59917
     2012.03559        -1.33624         5.63421
     2012.03833        -8.18742         5.54248
     2012.04106       -11.26260         5.55175
     2012.04380        -9.66378         5.54144
     2012.04654        -3.91296         5.54969
     2012.04928       -15.71814         6.32586
     2012.05201       -30.87132         5.90737
     2012.05475         2.74349         5.57649
     2012.05749         0.07532         5.65689
     2012.06023         1.92813         5.68781
     2012.06297        -6.43605         5.68885
     2012.06570        -0.70623         5.73523
     2012.06844        -2.65141         5.67545
     2012.07118        -8.50760         5.56618
     2012.07392        -2.59478         5.55381
     2012.07666        -2.92195         5.64452
     2012.07939        -1.67914         5.53423
     2012.08213        -0.29532         5.53732
     2012.08487         2.16450         5.57855
     2012.08761        -5.10568         5.58989
     2012.09034        -5.01587         5.62700
     2012.09308        -7.34105         5.59711
     2012.09582        -1.45622         5.64452
     2012.09856        -5.43941         5.57546
     2012.10130        -3.78859         5.78677
     2012.10403        -8.12577         5.56618
     2012.10677        -4.16696         5.81975
     2012.10951        -3.89314         5.80738
     2012.11225        -7.30832         5.58783
     2012.11498        -3.01750         5.60432
     2012.11772        -1.71268         5.57649
     2012.12046         1.52414         5.62391
     2012.12320        -4.51804         5.62597
     2012.12594        -3.02523         5.73008
     2012.12867        -8.71141         5.61875
     2012.13141        -5.83959         5.59401
     2012.13415        -5.32076         5.67235
     2012.13689        -4.99095         5.61566
     2012.13963         5.44687         5.97540
     2012.14236        -1.48331         5.95066
     2012.14510        -4.51750         5.71874
     2012.14784        -7.22968         5.58474
     2012.15058        -3.22586         5.54557
     2012.15332        -6.99603         5.58268
     2012.15605        -7.48522         5.67441
     2012.15879        -1.44940         5.69915
     2012.16153        -2.50859         5.58577
     2012.16427        -6.18477         5.68266
     2012.16700        -9.36495         5.67854
     2012.16974        -9.41513         5.59401
     2012.17248        -4.07530         5.65689
     2012.17522        -5.43149         5.69091
     2012.17796        -6.33567         5.67441
     2012.18069        -8.67786         5.67338
     2012.18343       -11.75804         5.62700
     2012.18617       -13.26922         5.74245
     2012.18891        -5.91740         5.73111
     2012.19164        -2.55358         5.67441
     2012.19438        -1.22976         5.88985
     2012.19712        -1.14895         5.52083
     2012.19986        -5.17813         5.57649
     2012.20260        -0.32531         5.73626
     2012.20533        -3.04949         5.62906
     2012.20807        -5.19867         5.57134
     2012.21081        -4.95584         5.49918
     2012.21355        -6.75903         5.57340
     2012.21629        -3.44222         5.63731
     2012.21902        -9.14440         5.54969
     2012.22176        -5.30758         5.59711
     2012.22450       -15.29576         5.56515
     2012.22724        -4.81194         5.57855
     2012.22998        -4.94411         5.58680
     2012.23271        -2.05831         5.66617
     2012.23545        -0.78949         5.59814
     2012.23819         1.95333         5.62803
     2012.24093        -4.19785         5.54454
     2012.24366         0.29997         5.69606
     2012.24640        -0.70721         5.61154
     2012.24914        -2.60139         5.68885
     2012.25188        -7.40758         5.60020
     2012.25462        -4.40176         5.64968
     2012.25735        -5.27394         5.53011
     2012.26009        -9.60112         5.54557
     2012.26283       -10.29330         5.64349
     2012.26557        -7.09448         5.64040
     2012.26831        -4.05166         5.66308
     2012.27104        -3.95285         5.75069
     2012.27378        -6.71503         5.56721
     2012.27652        -5.10321         5.60638
     2012.27926        -5.90739         5.73935
     2012.28199        -3.78157         5.66617
     2012.28473        -7.19875         5.61051
     2012.28747        -5.04894         5.64143
     2012.29021        -6.46112         5.71152
     2012.29295        -7.85530         5.67029
     2012.29568        -7.89348         5.63215
     2012.29842       -10.62966         5.64555
     2012.30116       -10.60884         5.63112
     2012.30390        -8.72303         5.65586
     2012.30664        -8.50920         5.65689
     2012.30937        -7.85839         5.61257
     2012.31211        -1.52157         5.70018
     2012.31485        -2.65075         5.67854
     2012.31759        -2.88793         5.57649
     2012.32032        -9.12911         5.76409
     2012.32306        -9.60030         5.55175
     2012.32580       -10.25647         5.58164
     2012.32854        -2.93766         5.54557
     2012.33128        -4.25184         5.67132
     2012.33401        -9.19302         5.69503
     2012.33675        -8.22120         5.57134
     2012.33949       -16.78339         5.60844
     2012.34223       -16.86157         5.61257
     2012.34497       -15.52874         5.54144
     2012.34770       -11.39493         5.71152
     2012.35044        -7.25911         5.86614
     2012.35318        -7.15229         5.73832
     2012.35592       -12.02247         5.59401
     2012.35865       -12.43266         5.59608
     2012.36139        -8.14684         5.62081
     2012.36413        -8.82801         6.41451
     2012.36687        -8.11920         5.57649
     2012.36961       -11.32938         5.61257
     2012.37234        -3.13956         5.82697
     2012.37508        -3.38575         5.61669
     2012.37782         0.70707         5.82078
     2012.38056       -11.54111         5.79501
     2012.38330        -6.33628         5.67751
     2012.38603        -8.45447         5.78058
     2012.38877        -7.02865         5.75997
     2012.39151         0.75117         5.65071
     2012.39425        -4.50302         5.68060
     2012.39698        -3.77620         5.75791
     2012.39972        -6.72438         5.63628
     2012.40246        -8.36356         5.93726
     2012.40520        -5.64574         5.65689
     2012.40794        -7.73292         5.59608
     2012.41067        -4.43610         5.61669
     2012.41341        -9.39829         5.71152
     2012.41615         1.44353         5.67029
     2012.41889        -2.84165         5.78265
     2012.42162        -5.61183         5.63628
     2012.42436         2.44199         5.60226
     2012.42710        -8.15219         5.62288
     2012.42984        -2.38038         5.64864
     2012.43258        -3.01256         5.76306
     2012.43531        -8.59874         5.66617
     2012.43805        -8.66792         5.76100
     2012.44079       -10.53209         5.70018
     2012.44353        -8.58628         5.69503
     2012.44626        -4.29546         5.68163
     2012.44900        -7.35365         5.69812
     2012.45174        -7.28383         5.68163
     2012.45448        -6.75801         5.67132
     2012.45722        -0.09719         5.66926
     2012.45995        -1.77637         5.77646
     2012.46269        -4.29655         5.64143
     2012.46543        -8.97374         5.66926
     2012.46817        -0.36092         5.82182
     2012.47091        -6.47210         5.61154
     2012.47364        -0.77328         5.75378
     2012.47638        -5.16046         6.41657
     2012.47912        -3.57864         5.74245
     2012.48186        -3.90282         5.61360
     2012.48459        -5.50401         5.68885
     2012.48733        -7.68119         5.58371
     2012.49007        -4.19237         5.71771
     2012.49281        -5.50155         5.63009
     2012.49555        -4.06873         5.63628
     2012.49833         3.01119         5.73935
     2012.50102        -4.04310         5.61772
     2012.50376         1.72372         5.68060
     2012.50650        -7.42146         5.70121
     2012.50924        -4.17964         5.94345
     2012.51197        -4.04582         5.72801
     2012.51471        -5.17300         5.60123
     2012.51745        -1.78217         5.72595
     2012.52019        -1.79237         5.57443
     2012.52292        -5.04855         5.63834
     2012.52566         0.94427         5.65380
     2012.52840         5.82409         5.71874
     2012.53114        -0.04009         5.65792
     2012.53388        -6.42527         5.76409
     2012.53661        -1.44146         5.75172
     2012.53935         2.86036         5.78986
     2012.54209         6.91318         5.63112
     2012.54483         6.36700         5.59608
     2012.54757         0.65382         5.61051
     2012.55030         7.88764         5.73317
     2012.55304         1.56746         5.62803
     2012.55578         0.35428         5.63628
     2012.55852        -5.41091         5.64143
     2012.56125         3.94391         5.68988
     2012.56399        -0.81127         5.61463
     2012.56673         0.52655         5.61154
     2012.56947         4.43937         5.61154
     2012.57221         4.76418         5.61978
     2012.57494         4.32000         5.62288
     2012.57768         3.81482         5.70843
     2012.58042         5.90364         6.27742
     2012.58316        -3.41754         5.70637
     2012.58590         6.12128         5.70843
     2012.58858        10.09097         5.73626
     2012.59138         0.72893         5.71358
     2012.59411         3.41074         5.58989
     2012.59685         7.31855         5.68885
     2012.59958         2.24337         5.67545
     2012.60232        15.32119         5.87954
     2012.60506         7.27101         5.65689
     2012.60780        -0.67218         5.59917
     2012.61054         2.47464         5.65277
     2012.61328         4.05247         5.67751
     2012.61601        11.60428         5.78986
     2012.61875        13.66310         5.75481
     2012.62149         4.50692         5.68472
     2012.62423         9.54074         5.63628
     2012.62696         5.90255         5.76306
     2012.62970         3.59737         5.74348
     2012.63244        11.99119         5.72286
     2012.63518         6.45201         5.63834
     2012.63791         5.07183         5.66720
     2012.64065         1.03265         5.68678
     2012.64339        11.74246         5.60226
     2012.64613         6.70428         5.74141
     2012.64887         8.12410         5.75791
     2012.65161        14.47493         5.70121
     2012.65434         6.97774         5.71565
     2012.65708        13.41256         5.87335
     2012.65982         8.30138         5.85377
     2012.66256         4.50119         5.64349
     2012.66529         3.66501         5.71565
     2012.66803         2.79683         5.65586
     2012.67077         5.57165         5.73317
     2012.67351         9.17147         5.68781
     2012.67624         4.80129         5.65895
     2012.67898        10.11611         5.65380
     2012.68172         5.14192         5.71668
     2012.68446         6.69874         5.66823
     2012.68720         6.51256         5.81666
     2012.68994        12.28139         5.74141
     2012.69267        10.81120         5.90531
     2012.69541         2.31602         5.71771
     2012.69815         1.14883         5.79914
     2012.70089         6.98965         5.87232
     2012.70362        -1.23653         5.66411
     2012.70636         3.14029         5.67441
     2012.70910         3.43312         5.69297
     2012.71184         6.36493         5.70637
     2012.71457         8.44675         5.65071
     2012.71731        10.66656         5.60226
     2012.72005         6.33538         5.53938
     2012.72279         9.09820         5.55691
     2012.72553         9.33602         5.73935
     2012.72826        11.06784         5.74141
     2012.73100         9.46866         5.76925
     2012.73374        12.14047         5.80532
     2012.73648         4.14729         5.62906
     2012.73921         5.59711         5.83212
     2012.74195         9.66193         6.17434
     2012.74469        16.02275         5.76821
     2012.74743         7.48458         5.71565
     2012.75017         3.78839         5.73008
     2012.75290        10.92220         5.69709
     2012.75564         6.15402         5.63112
     2012.75838         9.66184         5.66617
     2012.76112        10.36566         5.63009
     2012.76386         9.62148         5.69606
     2012.76659         9.48730         5.71049
     2012.76933         8.77511         5.77337
     2012.77207        10.87093         5.75688
     2012.77481        12.98075         5.75378
     2012.77754        10.23557         5.67441
     2012.78028         8.55639         5.91562
     2012.78302         7.02721         5.83109
     2012.78576        11.83504         5.74141
     2012.78850        10.05084         5.98571
     2012.79123        15.05466         6.09085
     2012.79397         6.40848         5.78574
     2012.79671         0.81630         5.76203
     2012.79945        14.79612         5.88263
     2012.80219        24.83594         5.96200
     2012.80493        11.14376         5.77028
     2012.80766         2.37757         6.02075
     2012.81040         3.73139         5.79811
     2012.81314         1.14121         5.74451
     2012.81587        -1.13897         5.71977
     2012.81861        -0.91815         5.81975
     2012.82135         2.89267         5.77955
     2012.82409         6.80348         5.83006
     2012.82683         9.96230         5.85892
     2012.82956         0.32512         5.75585
     2012.83230         4.20094         5.65689
     2012.83504         8.44276         5.81048
     2012.83778        13.41658         5.77646
     2012.84052         8.68739         5.82388
     2012.84326         4.13722         5.80841
     2012.84599         6.52703         6.02075
     2012.84873        -2.40015         5.81666
     2012.85147         7.23267         5.91871
     2012.85420         0.73049         5.71152
     2012.85694        -3.26669         5.73935
     2012.85968         1.66512         5.80532
     2012.86242        -0.26705         5.84037
     2012.86516         3.66776         5.79605
     2012.86789        -1.26042         5.83934
     2012.87063        -0.41760         5.63731
     2012.87337        -2.24278         5.73008
     2012.87611         6.36503         5.72080
     2012.87885         6.97185         5.71358
     2012.88158         5.84367         5.63215
     2012.88432         2.07049         5.69606
     2012.88706         5.35531         5.86305
     2012.88980        11.16413         5.88160
     2012.89253        -0.61905         5.67854
     2012.89527         0.78476         5.70225
     2012.89801         0.98458         5.85995
     2012.90075         0.46641         5.59608
     2012.90349        -5.46078         5.67132
     2012.90622        -7.16296         5.81254
     2012.90896        -1.59914         5.84655
     2012.91170         3.78567         7.85244
     2012.91444        -2.19251         7.51125
     2012.91718         0.79631         7.46281
     2012.91992         0.61214         8.04004
     2012.92265         2.97195         8.20703
     2012.92539         6.10877         7.75452
     2012.92816        -7.63934         8.76055
     2012.93086        -9.34560         7.02988
     2012.93360         1.61922         7.08245
     2012.93634         2.68704         6.24856
     2012.93908         0.66986         6.19392
     2012.94182         0.35268         6.94124
     2012.94459        11.22857         8.67397
     2012.94732         6.54039         8.67809
     2012.95003        -0.57687         9.03989
     2012.95277        12.54695         6.39802
     2012.95551         3.18777         6.16300
     2012.95825         8.49860         5.76100
