# ================= DQRFIT RESULTS ================
# INPUT FILE: series/ONTO.rad
# OUTPUT: LDETRENDED
# FILTER FUNCTION: f(t)
# f(t)=+line(t)+annual(t)+jumps(t)
# line(t)=+P 1+P 2*t
# annual(t)=+P 3*sin(2*pi*t+P 4)
# jumps(t)=+P 5*heav(t-2020.6549  )
# heav(t)=(t<0?0:1)
# TOTAL OBSERVATIONS MTOT= 1773
# INITIAL TIME INTERVAL= 2022.7488 - 2017.6673 =  5.0815
# TOTAL OBSERVATIONS AFTER PREFILTER M= 1744
# TIME-SPAN= 2022.7488 - 2017.6673 =  5.0815
# OBSERVATIONS: USED M=  1744 REJECTED MTOT-M=    29 %USED=   98.3644
# N=  5 PARAMETERS
# MAXSIG= 175.00000
# MAXRES=  24.74053
# SCALE FACTOR FOR LENGTHS: SCL=  10.00000
# SCALE FACTOR FOR SIGMAS: SCLSIG=   1.00000
# CHI^2=   1416.915 DOF=  1739 CHI^2/DOF=   0.81479
# RMS=      5.173 SDEV=      5.175 MEAN=    0.01520
#  P #       PARAMETER +-    SIGMA %error PARAMETER NAME
# P 1 =      1162.51843 +-  334.623  28.78 YZERO                              
# P 2 =        -0.62297 +-    0.166  26.60 SLOPE                              
# P 3 =         3.59298 +-    0.173   4.83 ANNUAL AMPLITUDE                   
# P 4 =        -2.96641 +-    0.067   2.27 ANNUAL PHASE                       
# P 5 =       117.96871 +-    0.494   0.42 OFFSET 2020.6549                   
#       T            LDETRENDED       SIG_OBS
     2017.66735         3.56862         5.03862
     2017.67008         7.55033         4.83733
     2017.67282         3.69004         4.99800
     2017.67556         0.50474         4.88517
     2017.67830         2.83145         4.88878
     2017.68104         4.80715         4.91406
     2017.68377         4.83086         4.97815
     2017.68651         9.05156         5.02238
     2017.68914         9.06820         5.16770
     2017.69250         5.30929         6.26533
     2017.69467         6.38264         5.00523
     2017.69803         4.76674        11.48178
     2017.70037        28.30020        10.37061
     2017.70294        14.99080         6.85928
     2017.70556        13.76443         8.57974
     2017.70859         5.02232         5.23631
     2017.71115         3.14091         6.79519
     2017.71378         3.92855         7.91268
     2017.71680         9.80243         8.28999
     2017.71919         5.54592         7.32415
     2017.72227        10.27284         7.90726
     2017.72484        11.65544         7.54891
     2017.72758         6.06615         7.77457
     2017.73032         1.56585         6.21659
     2017.73283         3.08242         5.41142
     2017.73562         0.72816         8.78645
     2017.73882         1.02615         5.51432
     2017.74064         0.54128         6.43864
     2017.74315         5.79385         7.87116
     2017.74657        -0.03102         5.30942
     2017.75353        19.58032       106.70112
     2017.75496         3.05920         4.85719
     2017.75770        -1.52209         5.53508
     2017.76043         2.03161         4.87524
     2017.76317         7.31632         4.89149
     2017.76591         7.68803         4.91135
     2017.76865        12.53273         4.89871
     2017.77138         0.44844         4.86080
     2017.77412         3.13414         4.87073
     2017.77686         8.18485         4.90413
     2017.77960         5.19355         4.95919
     2017.78234        -0.70774         4.86622
     2017.78507        -0.12403         4.84997
     2017.78781        -2.13333         4.85087
     2017.79055        -3.30762         4.85087
     2017.79329         2.90808         4.84365
     2017.79603         5.35879         4.89239
     2017.79876        10.50449         4.97634
     2017.80095        15.03886         6.56862
     2017.81338        -4.02340         8.07967
     2017.81519        -1.37127         4.98356
     2017.81776        -2.91167         5.32657
     2017.82112        -7.17158         5.97197
     2017.82409        -4.87373         9.64217
     2017.82683         1.10998        11.64697
     2017.82888         2.81725         5.39608
     2017.83162         4.79596         6.56682
     2017.83430         3.86763         6.93962
     2017.83755         0.97866         7.34852
     2017.84034        -0.31860         6.20034
     2017.84234        -6.14336         8.31346
     2017.84531        -2.78051         4.84636
     2017.84782        -5.15495         7.80436
     2017.85118         0.92715         7.01815
     2017.85352         0.46461         6.58307
     2017.85620         7.66728         7.34130
     2017.85917        -2.63288         9.75500
     2017.86253         3.10122         7.76645
     2017.86396       -10.44189         6.29873
     2017.86653        -8.79629         8.25027
     2017.86915         5.35534         8.54093
     2017.87263        -0.35749         4.95829
     2017.87564        13.73339         9.48511
     2017.87862         3.05424         5.96746
     2017.88010        -3.17184         7.42073
     2017.88364        -3.33863         5.42406
     2017.88637         4.08907         8.25118
     2017.88911         3.80478         4.82560
     2017.89134        -5.36184         6.32130
     2017.89442        -2.46892         5.91691
     2017.89778         3.47318         7.05425
     2017.90081         4.56806         7.17340
     2017.90257        -3.82084         6.52349
     2017.90588         6.15122         5.62264
     2017.90828         5.48072         5.79144
     2017.91102        -0.45258         5.85824
     2017.91375        -2.85487         6.03877
     2017.91615        -0.13638         5.59646
     2017.91957         0.74475         7.95601
     2017.92208         6.59032         5.04765
     2017.92431        -0.42230         5.85282
     2017.92790        -7.21506        11.76973
     2017.93035        -6.25653        11.33916
     2017.93309        -4.51183         5.96114
     2017.93548        -6.10133         5.18937
     2017.93874        -3.84631         6.50093
     2017.94164        -3.66850         6.12723
     2017.94387        -2.54411         4.84275
     2017.94661        -0.94740         4.84094
     2017.94935        -0.35170         4.82740
     2017.95208         1.41001         4.91225
     2017.95482        -2.94429         4.78407
     2017.95756        -2.11458         4.87163
     2017.96030        -1.84888         4.83462
     2017.96303         0.90183         4.83101
     2017.96577         7.42353         4.93933
     2017.96851         3.47324         4.81025
     2017.97125         0.14195         4.79671
     2017.97399        -0.77935         4.84726
     2017.97672        -2.91364         4.83192
     2017.97946        -3.24694         4.78769
     2017.98220        -9.53923         4.79491
     2017.98494       -12.63553         4.83462
     2017.98767       -15.44782         4.88969
     2017.99041       -10.37111         4.88246
     2017.99315        -7.08541         4.91767
     2017.99589        -1.23070         4.92399
     2017.99863        -3.45600         4.79671
     2018.00136        -7.23529         4.81838
     2018.00410       -12.34459         4.83101
     2018.00684       -12.31588         4.81567
     2018.00958        -2.64718         4.85268
     2018.01232        -4.75447         4.83282
     2018.01505         0.53824         4.83462
     2018.01779         1.85494         4.87705
     2018.02053        -3.85035         4.93211
     2018.02327         3.38535         4.81206
     2018.02600         2.18906         4.82830
     2018.02874         0.69776         4.80484
     2018.03148        -7.31653         4.78678
     2018.03399       -12.28397         5.29408
     2018.03696       -14.49712         4.77956
     2018.03969       -10.02141         4.80213
     2018.04243        -4.55171         4.90052
     2018.04517       -10.01900         4.82469
     2018.04791        -9.72130         4.89420
     2018.05065        -3.49759         4.84094
     2018.05338        -0.48789         4.81115
     2018.05612        -2.98718         4.82108
     2018.05886        -8.39548         4.83101
     2018.06160        -3.59477         4.80664
     2018.06433         1.95594         4.90593
     2018.06707        -2.10036         4.90052
     2018.06981        -1.98565         4.92940
     2018.07255        -8.30095         4.92669
     2018.07529       -17.10524         4.94294
     2018.07802       -13.01254         4.94023
     2018.08076       -11.00683         4.96370
     2018.08350        -6.38812         4.97454
     2018.08624        -5.28542         4.89871
     2018.08898        -7.65171         4.92940
     2018.09171        -7.50501         4.91677
     2018.09445        -4.62930         4.89330
     2018.09719         0.44340         5.03140
     2018.09993        -3.83789         4.89781
     2018.10266        -8.30319         4.85358
     2018.10540        -8.95148         5.04404
     2018.10814        -3.84577         4.93933
     2018.11088        -6.31507         4.91767
     2018.11362        -1.97936         4.90142
     2018.11635         1.46634         4.85358
     2018.11909        -7.13695         4.95377
     2018.12183        -2.20025         4.90142
     2018.12457        -0.83554         4.93211
     2018.12731        -5.84084         4.87885
     2018.13004         4.00987         4.91315
     2018.13278         4.50558         4.94294
     2018.13552         5.08328         4.89510
     2018.13826        -1.40001         4.89961
     2018.14099        -3.50731         4.89239
     2018.14373        -0.94160         4.87073
     2018.14647         0.91010         5.09188
     2018.14921        -0.05619         4.98537
     2018.15195         4.77452         4.87073
     2018.15468         3.71422         4.87976
     2018.15742        -0.55807         4.89871
     2018.16016         0.97663         4.87885
     2018.16290        -3.30666         5.01064
     2018.16564        -0.92896         5.06300
     2018.16837         1.02775         4.89420
     2018.17111        -1.21255         4.90232
     2018.17385        -5.30584         4.89600
     2018.17659        -4.37013         4.88788
     2018.17932        -2.58843         4.89871
     2018.18206         3.40128         5.12708
     2018.18480         6.69798         5.01245
     2018.18754        -0.93131         4.90503
     2018.19028        -3.85561         4.87254
     2018.19301        -1.99090         4.87705
     2018.19575         3.31980         4.87163
     2018.19849         3.33951         4.89149
     2018.20123         9.72122         4.94746
     2018.20397         6.89292         4.85809
     2018.20670         2.43463         4.87434
     2018.20944         2.82733         4.84184
     2018.21218        -2.18496         4.85990
     2018.21492       -10.83226         4.88517
     2018.21765         3.16345         4.78949
     2018.22039         3.56616         4.79491
     2018.22313        -0.11914         4.89420
     2018.22587        -7.58443         4.81115
     2018.22861        -4.21473         4.81115
     2018.23134        -2.69002         4.79671
     2018.23408        -3.05432         4.78407
     2018.23682        -0.70961         4.83192
     2018.23956        -5.45991         4.75790
     2018.24230        -6.68320         4.78949
     2018.24503        -4.22849         4.81296
     2018.24777        -1.98479         4.79852
     2018.25051        10.46592         4.80664
     2018.25325        -1.98138         4.73443
     2018.25598        -2.03067         4.76422
     2018.25872        -4.47597         4.90593
     2018.26146        -1.58026         4.87615
     2018.26420         2.33844         4.88878
     2018.26694        -3.62385         4.76783
     2018.26967        -6.26614         4.74165
     2018.27241        -5.88844         4.80123
     2018.27515         0.49827         4.85087
     2018.27789         8.19597         4.98356
     2018.28062        -1.10832         4.88066
     2018.28336        -3.52062         4.76783
     2018.28610         1.08309         4.76512
     2018.28884         5.18380         4.82379
     2018.29158         4.46850         4.91406
     2018.29705        -3.28809         4.73082
     2018.29979        -4.21838         4.75248
     2018.30253         0.19632         4.79039
     2018.30527        -4.15497         4.74526
     2018.30800        -3.04627         4.96190
     2018.31074        -3.52956         4.71277
     2018.31348        -5.30885         4.73533
     2018.31622        -6.82515         4.72901
     2018.31895         3.94856         4.89691
     2018.32169         1.52826         4.75068
     2018.32443        -3.66403         4.70013
     2018.32717        -3.96733         4.74075
     2018.32991        -0.77862         4.87705
     2018.33264         0.42408         4.83553
     2018.33538        -5.44221         4.88517
     2018.33812        -3.86150         4.87254
     2018.34086        -1.44580         4.75158
     2018.34360        -2.37309         4.86712
     2018.34633        -2.07539         4.83282
     2018.34907        -0.82768         4.83011
     2018.35181         2.98702         4.86802
     2018.35455        -0.29127         4.75248
     2018.35728         3.41844         4.76422
     2018.36002         0.56914         4.78859
     2018.36276         2.76785         4.90864
     2018.36550         1.50755         4.78227
     2018.36824        -0.01574         4.76151
     2018.37097        -0.89504         4.74887
     2018.37371         5.60767         4.85719
     2018.37645        -2.63663         4.99800
     2018.37919        -1.40192         4.83462
     2018.38193        -1.36721         4.82199
     2018.38466        -0.12651         4.78137
     2018.38740         2.62620         4.76783
     2018.39014         4.40390         4.76873
     2018.39288        -0.56339         4.82469
     2018.39561         2.39131         4.90323
     2018.39835         1.18202         4.84365
     2018.40109         7.29772         4.81928
     2018.40383         4.28843         4.80754
     2018.40657        -1.95986         4.85448
     2018.40930        12.21984         5.16409
     2018.41204         8.96555         4.89600
     2018.41478        -2.36775         4.76692
     2018.42299         1.62537         4.88156
     2018.42573         8.62007         4.84365
     2018.42847         3.91078         4.79491
     2018.43121         4.16949         4.80393
     2018.43394         0.33419         4.76783
     2018.43668         0.90990         4.80123
     2018.43942         8.75360         4.80845
     2018.44216        -1.60569         4.83914
     2018.44490         0.70601         4.79130
     2018.44763        -0.56728         4.77144
     2018.45037        -3.87157         4.83823
     2018.45311         1.87913         4.82921
     2018.45585         5.11984         4.90593
     2018.45859         9.47154         4.87163
     2018.46132        -0.09875         4.77234
     2018.46406        -2.32205         4.79761
     2018.46680        -0.83834         4.82199
     2018.46954         4.86436         4.96731
     2018.47227         4.42107         4.96009
     2018.47501        13.73278         4.94114
     2018.47775         4.79948         4.77324
     2018.48049         1.10419         4.90593
     2018.48323        -6.77811         4.82379
     2018.48596         1.65460         4.85087
     2018.48870         0.88030         4.89149
     2018.49144         2.31701         4.82469
     2018.49418         3.64271         4.89871
     2018.49692         4.60342         4.98537
     2018.49965         4.09413         4.86351
     2018.50239         3.45083         4.86531
     2018.50513        -3.94646         4.85087
     2018.50787         2.00124         4.87254
     2018.51060         2.88895         4.78678
     2018.51334         0.60765         4.81386
     2018.51608         4.07936         4.87976
     2018.51882         0.09907         4.86712
     2018.52156         1.11877         4.85990
     2018.52429         0.58148         4.83643
     2018.52703         4.97818         4.82560
     2018.52977         0.13389         4.85719
     2018.53251         5.77159         4.86622
     2018.53525         4.39630         4.89961
     2018.53798         4.00000         4.94565
     2018.54072         4.82971         4.86351
     2018.54346         7.67842         4.83011
     2018.54620         2.07312         4.83462
     2018.54893         0.80183         4.82650
     2018.55167         5.10753         4.87073
     2018.55441        -2.06876         4.82379
     2018.55715         0.29494         4.83192
     2018.55989        -0.37135         4.92940
     2018.56262         4.58735         4.81206
     2018.56519        -0.81405         5.12618
     2018.56810         1.04277         4.85538
     2018.57084         2.96647         4.84546
     2018.57357         6.52418         4.90232
     2018.57631         2.56088         5.02960
     2018.57905         4.52759         5.10723
     2018.58179         5.69829         4.98446
     2018.58453         4.73300         4.98807
     2018.58726         2.56171         4.86351
     2018.59000        10.03441         4.81206
     2018.59274         4.41512         4.84365
     2018.59548         6.51782         4.81567
     2018.59822         5.75553         4.84816
     2018.60095         6.20923         4.82108
     2018.60369         9.46094         4.76873
     2018.60643         1.00864         4.81657
     2018.60917         5.40835         4.84726
     2018.61190        10.81806         5.06841
     2018.61459         6.36573         4.93753
     2018.61738         9.01947         4.80213
     2018.62012        11.66917         4.77956
     2018.62286         9.62188         4.96370
     2018.62559         6.19058         5.07112
     2018.62833         5.47129         5.22367
     2018.63107         6.50499         4.78046
     2018.63381        11.63470         4.95829
     2018.63655         4.99741         4.83823
     2018.63928         2.90511         5.05397
     2018.64202         5.82782         5.06931
     2018.64556        12.08702         8.29360
     2018.64750         4.85123         4.82289
     2018.65023        12.86993         4.90954
     2018.65297        12.10264         4.82830
     2018.65571         5.32335         4.81115
     2018.65845         6.68905         4.82740
     2018.66119         9.55776         4.86080
     2018.66392         6.57246         4.88607
     2018.66666         7.07817         4.81477
     2018.66940         5.69387         4.77415
     2018.67214         4.83258         4.81025
     2018.67488         8.03628         4.82921
     2018.67761         2.94499         4.82740
     2018.68035         0.11470         4.90864
     2018.68309        -1.98160         4.86351
     2018.68583         7.34811         4.84275
     2018.68856         8.02481         4.86983
     2018.69130         5.25952         4.85087
     2018.69404         5.70822         4.95558
     2018.69678        10.41093         4.85177
     2018.69952         3.11163         4.86802
     2018.70225         3.25934         4.94204
     2018.70499         5.30805         4.90954
     2018.70773         3.21875         4.86531
     2018.71047         5.16546         4.85358
     2018.71321         4.51716         4.82740
     2018.71594         2.26587         4.85177
     2018.71868        -2.00743         4.86351
     2018.72142        -1.58172         4.82740
     2018.72416         5.18399         4.82289
     2018.72689         4.72569         4.95919
     2018.72963         5.01240         5.06390
     2018.73237        -1.12990         4.84726
     2018.73511        -1.38719         4.81928
     2018.73785         3.36551         4.80123
     2018.74058        -0.54478         4.83101
     2018.74332         5.03092         4.82199
     2018.74606         4.27163         4.86983
     2018.74880        -2.73666         4.79761
     2018.75154         4.96404         4.81206
