# ================= DQRFIT RESULTS ================
# INPUT FILE: series/OTIS.rad
# OUTPUT: LDETRENDED
# FILTER FUNCTION: f(t)
# f(t)=+line(t)+annual(t)+jumps(t)
# line(t)=+P 1+P 2*t
# annual(t)=+P 3*sin(2*pi*t+P 4)
# jumps(t)=+P 5*heav(t-2006.7435  )
# heav(t)=(t<0?0:1)
# TOTAL OBSERVATIONS MTOT= 1729
# INITIAL TIME INTERVAL= 2008.0214 - 2001.1257 =  6.8957
# TOTAL OBSERVATIONS AFTER PREFILTER M= 1725
# TIME-SPAN= 2008.0214 - 2001.1257 =  6.8957
# OBSERVATIONS: USED M=  1725 REJECTED MTOT-M=     4 %USED=   99.7687
# N=  5 PARAMETERS
# MAXSIG= 175.00000
# MAXRES=  30.30881
# SCALE FACTOR FOR LENGTHS: SCL=  10.00000
# SCALE FACTOR FOR SIGMAS: SCLSIG=   1.00000
# CHI^2=   1338.622 DOF=  1720 CHI^2/DOF=   0.77827
# RMS=      5.337 SDEV=      5.339 MEAN=   -0.02140
#  P #       PARAMETER +-    SIGMA %error PARAMETER NAME
# P 1 =      5402.22939 +-  250.066   4.63 YZERO                              
# P 2 =        -2.82855 +-    0.125   4.41 SLOPE                              
# P 3 =         5.01380 +-    0.178   3.55 ANNUAL AMPLITUDE                   
# P 4 =        -2.67988 +-    0.045   1.69 ANNUAL PHASE                       
# P 5 =       303.99710 +-    0.419   0.14 OFFSET 2006.7435                   
#       T            LDETRENDED       SIG_OBS
     2001.12571       -18.22078         6.67998
     2001.12845       -17.97904         6.69851
     2001.13119       -17.44730         6.68969
     2001.13393       -10.91055         6.80878
     2001.13666       -20.80881         6.86701
     2001.13940       -16.33506         7.11843
     2001.14214       -13.73032         6.79379
     2001.14488       -23.85458         6.75409
     2001.14762       -15.88183         6.76291
     2001.15309       -23.12234         6.92788
     2001.15583        -6.25360         6.87230
     2001.15772        25.32974        63.33721
     2001.16131         0.54589         6.99581
     2001.16404        -4.46337         7.27194
     2001.16678        -9.57762         7.02139
     2001.16952       -21.75188         6.92700
     2001.17226        -6.32513         6.91906
     2001.17499       -34.80939         6.90318
     2001.17773       -33.25765         6.89171
     2001.18047       -20.36590         6.79908
     2001.18321       -21.13116         6.84936
     2001.18595       -11.99941         6.89259
     2001.18868       -17.64067         6.90053
     2001.19142        -2.26392         6.83348
     2001.19416        -9.08318         7.13255
     2001.19690        -1.08944         6.99581
     2001.19963       -12.69969         6.70645
     2001.20237        -9.08395         6.66057
     2001.20511        -8.88320         7.13608
     2001.20785       -10.71146         6.85378
     2001.21059       -17.78472         6.73997
     2001.21361       -15.90016         8.77961
     2001.21606       -12.66623         7.21548
     2001.21880       -22.10948         6.74438
     2001.22154       -10.16774         6.75585
     2001.22428       -13.12099         6.82907
     2001.22639       -15.41403        11.00891
     2001.94661        -4.06984         5.41844
     2001.94935         6.95790         5.25877
     2001.95191         5.98516         5.70692
     2001.95482         4.12539         5.74486
     2001.95756        -5.97987         5.28964
     2001.95918        16.10872        16.50323
     2001.96303         1.37762         5.31346
     2001.96577        -8.68463         5.17319
     2001.96851        -8.55089         5.27376
     2001.97125        -9.04415         5.17584
     2001.97399       -13.03940         5.38845
     2001.97932       -17.68430         5.60900
     2001.98126        -4.14583         9.88764
     2001.98494       -18.67542         5.21025
     2001.98767        -4.16968         5.24200
     2001.99041        -6.04094         5.24377
     2001.99315        -3.71319         5.19613
     2001.99589        -7.46645         5.30729
     2001.99863        -6.02170         5.40168
     2002.00410         8.31078         5.40168
     2002.00684         5.87353         5.40521
     2003.14031         3.23361         5.29494
     2003.14305        -0.74065         5.44050
     2003.14579        -5.67790         5.35493
     2003.14852        -0.30416         5.42727
     2003.15126         0.14858         5.35757
     2003.15400         5.90933         5.28170
     2003.15674        -3.09193         5.60900
     2003.15948        -0.68518         5.27817
     2003.16221        -5.64444         5.50843
     2003.16495         0.04931         5.53401
     2003.16769         1.38105         5.42285
     2003.17043         4.88979         5.40962
     2003.17257         7.63586         7.09726
     2003.17590         4.53028         5.28964
     2003.17864        -1.10597         5.64164
     2003.18089         4.69940         6.52295
     2003.18412        -2.60749         5.26053
     2003.18685         2.31926         5.37963
     2003.18959        -4.27300         5.25788
     2003.19233        -1.32025         5.50137
     2003.19507         5.30349         5.52872
     2003.19780         6.55923         5.49784
     2003.20054         3.28598         5.41668
     2003.20328         2.81572         5.58959
     2003.20876        -4.61879         5.59929
     2003.21149        -6.26304         5.39992
     2003.27173        -0.72167         5.56665
     2003.27446        -5.58493         5.36551
     2003.27720        -7.56818         5.30729
     2003.27994         0.36156         5.28523
     2003.28268        -1.33670         5.27112
     2003.28542        -0.75895         5.24906
     2003.28815        -0.67721         5.23583
     2003.29089         0.06154         5.35934
     2003.32648        -1.24879         5.30111
     2003.32922        -2.33105         5.36375
     2003.33196        -5.42730         5.33375
     2003.33470        -1.65756         5.30111
     2003.33744        -4.62381         5.22348
     2003.34017        -0.17507         5.28611
     2003.34291         5.29968         5.27641
     2003.34565        -5.04958         5.24642
     2003.34839         2.46816         5.36022
     2003.35112        -7.05509         5.28082
     2003.35386         0.46865         5.19172
     2003.35660        -2.68260         5.13879
     2003.35934         3.42314         5.23848
     2003.36208         2.48488         5.25171
     2003.36481         0.24763         5.30905
     2003.36755        -1.26963         5.28170
     2003.37029         0.43212         5.24200
     2003.37303        -6.53814         5.24994
     2003.37577        -8.70140         5.15731
     2003.37850        -9.94365         5.20495
     2003.38124        -6.82291         5.19966
     2003.38398        -3.47716         5.16614
     2003.38672        -3.51742         5.26318
     2003.38945        -2.92267         5.31258
     2003.39219        -1.29593         5.31876
     2003.39493         5.57281         5.34875
     2003.39767         7.60056         5.26229
     2003.40041         1.26030         5.64693
     2003.40314         7.59205         5.67781
     2003.40588         4.92179         5.58782
     2003.40862         2.37853         5.41491
     2003.41136         5.21228         5.15908
     2003.41410         2.60402         5.22348
     2003.41683        -2.10323         5.38668
     2003.41957         1.25751         5.28170
     2003.42231         0.68626         5.21466
     2003.42505         0.85800         5.25788
     2003.42778         1.90174         5.30464
     2003.43052         2.15649         5.29494
     2003.43326         3.29123         5.28523
     2003.43600         6.61498         5.28435
     2003.43874         4.05672         5.16437
     2003.44147         4.12946         5.16614
     2003.44421         4.09321         5.27376
     2003.44695         3.47695         5.29670
     2003.44969         2.30170         5.22789
     2003.45243        -4.31356         5.16437
     2003.45516        -8.68381         5.18995
     2003.45790        -5.97107         5.29494
     2003.46064         3.05667         5.27641
     2003.46338        -3.30258         5.27376
     2003.46611         6.31916         5.17055
     2003.46885         3.23591         5.24465
     2003.47159        -2.12035         5.20054
     2003.47433         5.77739         5.22348
     2003.47707        -3.89286         5.26141
     2003.47980         6.35788         5.39639
     2003.48254         1.45963         5.34434
     2003.48528         6.41637         5.37786
     2003.48802         3.03012         5.25788
     2003.49076        12.11186         5.37698
     2003.49349        -1.56040         5.34081
     2003.49623        -2.68065         5.18731
     2003.49897         0.83609         5.20672
     2003.50171        -6.59816         5.38404
     2003.50444        -3.28142         5.43079
     2003.50718         2.50532         5.25259
     2003.50992         0.03207         5.13702
     2003.51266         4.97181         5.38139
     2003.51540         8.39756         5.31876
     2003.51813         6.50330         5.20142
     2003.52087         8.81304         5.22965
     2003.52361         5.33079         5.28347
     2003.52908        12.70928         5.39198
     2003.53165         6.69254         5.55165
     2003.53456         6.67377         5.47490
     2003.53684        -7.82278         6.42326
     2003.54004        -0.22175         5.30376
     2003.54277        -6.40400         5.15114
     2003.54551        -1.37126         5.25171
     2003.54825        -3.88351         5.36110
     2003.55099         3.01523         5.34434
     2003.55373        -3.84903         5.15290
     2003.55646         7.86872         5.24553
     2003.55920         9.09846         5.30552
     2003.56194         3.48121         5.34610
     2003.56468         2.78695         5.25965
     2003.56741        -2.71330         5.20848
     2003.57015         5.12144         5.20319
     2003.57289         4.42018         5.44932
     2003.57563         1.41693         5.18643
     2003.57837         5.06067         5.27112
     2003.58110         1.57442         5.42374
     2003.58384         3.76816         5.25877
     2003.58658         8.74090         5.28259
     2003.58932         4.42065         5.20672
     2003.59206         6.45639         5.38580
     2003.59479         2.14714         5.36904
     2003.59753         3.88688         5.31964
     2003.60027         8.92063         5.39110
     2003.60301        10.93937         5.41403
     2003.60574         5.20911         5.42021
     2003.60848        -0.88614         5.31611
     2003.61122        -3.91840         5.23759
     2003.61396         2.65835         5.28170
     2003.61670        -5.62891         5.24112
     2003.61943         3.09183         5.34434
     2003.62217         5.95658         5.27641
     2003.62491         6.94332         5.27112
     2003.62765         5.67807         5.45726
     2003.63039         8.89781         5.41403
     2003.63312         5.27856         5.29405
     2003.63586         2.33630         5.36287
     2003.63860         6.83204         5.30905
     2003.64407         3.20853         5.27729
     2003.64681         1.92328         5.33552
     2003.64955         5.94302         5.40345
     2003.65229         5.42876         5.24642
     2003.65503        -3.43049         5.21025
     2003.65776        -4.88875         5.21025
     2003.66050         2.44900         5.16966
     2003.66324         2.89074         5.26318
     2003.66598         8.51749         5.36728
     2003.66872        -2.94377         5.10791
     2003.67145         5.07297         5.14585
     2003.67419         6.24872         5.32581
     2003.67693        11.37646         5.26494
     2003.67967        10.28121         5.33199
     2003.68240         9.12595         5.34434
     2003.68514         4.20669         5.28964
     2003.68788         8.21844         5.20936
     2003.69062         8.23118         5.26847
     2003.69336         7.43493         5.36375
     2003.69609         7.16067         5.34963
     2003.69883         3.33941         5.17937
     2003.70157        10.55716         5.27288
     2003.70431        -3.10110         5.21289
     2003.70705         8.73265         5.21907
     2003.70978         5.63439         5.17584
     2003.71252        10.58914         5.30288
     2003.71526        14.60088         5.23759
     2003.71800         3.34962         5.12908
     2003.72073         0.67437         5.17319
     2003.72347         3.84011         5.49519
     2003.72621         2.99586         5.39286
     2003.72895        -2.06240         5.33463
     2003.73169        -0.10666         5.43785
     2003.73442        -1.76191         5.29670
     2003.73716         1.71083         5.28259
     2003.73990         5.40358         5.25083
     2003.74264         4.96332         5.45373
     2003.74538         6.36807         5.31699
     2003.74811         4.17281         5.38227
     2003.75085         8.97655         5.33111
     2003.75359        13.35830         5.20848
     2003.75633        -1.07096         5.19084
     2003.75906         7.27679         5.22171
     2003.76180        11.37953         5.49519
     2003.76454         8.52427         5.54724
     2003.76728        15.47902         5.43079
     2003.76941        11.55906         7.38486
     2003.78644         2.64623         5.32934
     2003.78918         6.32697         5.30199
     2003.80835         2.44618         5.63546
     2003.81108         3.22693         5.39374
     2003.81383        -4.23732         5.30464
     2003.81662        -8.13143         5.16614
     2003.81930        13.74016         5.39551
     2003.82203        -1.93510         5.53136
     2003.82477         0.96465         6.16478
     2003.82751        -4.54862         6.20801
     2003.83025        -3.24987         5.29758
     2003.83299        -1.95711         5.08938
     2003.83578         2.89778         5.12820
     2003.83846        -0.30463         5.17408
     2003.84120         0.47811         5.24730
     2003.84394        -6.25915         5.15643
     2003.84668        -5.80540         5.14849
     2003.84941         3.43934         5.15467
     2003.85216         4.11610         5.08850
     2003.85495         5.59999         5.15996
     2003.85763         5.33258         5.31082
     2003.86036         3.15332         5.35493
     2003.86310        -2.65894         5.12732
     2003.86584         2.14181         5.39374
     2003.86858         9.91555         5.31611
     2003.87679         4.92678         5.23318
     2003.87953         2.17553         5.21466
     2003.88227         9.93827         5.11585
     2003.88501        12.16802         5.98481
     2003.88774         5.28976         5.15467
     2003.89049         3.31452         5.25347
     2003.89328         2.06441         5.17408
     2003.89596        16.81199         5.18025
     2003.89869        10.16174         5.25965
     2003.90143        -2.23652         5.00822
     2003.90417        -5.26177         5.05763
     2003.90691        -0.17703         5.09380
     2003.90965         1.38073         5.07086
     2003.91244         2.50662         5.12114
     2003.91512         3.71420         5.14055
     2003.91786        -1.02805         5.23495
     2003.92060        -9.31331         5.29141
     2003.92334        -2.72056         5.31170
     2003.92607         6.61818         5.43432
     2003.92882         4.50794         5.16261
     2003.93161         7.45283         5.20848
     2003.93429         1.74941         5.17584
     2003.93702        -1.94284         5.07351
     2003.94250         4.14064         5.09115
     2003.94524         8.58539         5.16261
     2003.94798         7.37215         5.14320
     2003.95077         2.72404         5.15820
     2003.95345        -0.93438         5.09732
     2003.95619         0.57537         5.28523
     2003.95893        -2.51289         5.30376
     2003.96167        -2.55515         5.32846
     2003.96440         5.43960         5.36904
     2003.96715         0.56436         5.17231
     2003.97262        -4.53417         5.25612
     2003.97535         3.32257         5.30993
     2003.97809         7.41932         5.27553
     2003.98083         6.50106         5.04439
     2003.98357         1.78281         5.16790
     2003.98631        -2.70444         5.14143
     2003.98910        -2.38054         5.20231
     2003.99178        -7.00796         5.20848
     2003.99452        -3.17522         5.23671
     2003.99726         3.89053         5.03822
     2004.00273        -5.61298         5.21995
     2004.00548        -1.60423         5.06027
     2004.00827        -0.21333         5.11497
     2004.01095        -6.49875         5.03381
     2004.01368         6.40799         5.18025
     2004.01642        24.44874         5.19789
     2004.01916        -4.21652         5.07439
     2004.02190        -0.23478         5.07439
     2004.02464        -1.65302         5.07439
     2004.02743        -3.68513         5.27817
     2004.03011        -6.37554         5.14673
     2004.03285        -3.84880         5.15555
     2004.03559       -11.37105         5.57283
     2004.03833        -1.39831         5.10085
     2004.04106        -7.90057         5.28611
     2004.04381        -4.97881         5.20848
     2004.04660         1.32408         5.27553
     2004.04928         0.51167         5.05674
     2004.05201        -9.40159         5.10791
     2004.05481       -12.67168         5.31434
     2004.05749        -6.84410         5.29053
     2004.06023        -7.37336         5.13085
     2004.06297        -0.93060         5.03381
     2004.06576        -7.30071         5.21642
     2004.06844        -5.28012         5.07351
     2004.07118       -10.45638         5.09997
     2004.07392        -3.60364         5.15643
     2004.07666         0.73511         5.10085
     2004.07939         4.89485         5.08321
     2004.08214         4.74161         5.02851
     2004.08493        -2.73050         5.13085
     2004.08761        -3.41492         5.06204
     2004.09034        -0.08617         5.15908
     2004.09308         0.03657         5.17760
     2004.09582        -6.17268         5.05939
     2004.09856       -12.27094         5.22524
     2004.10130         0.74482         5.09644
     2004.10409        -8.56129         5.18113
     2004.10677       -10.21771         5.05939
     2004.10951        -7.05096         5.04616
     2004.11225        -3.75122         5.10085
     2004.11498        -5.93047         5.30817
     2004.11772        -0.79973         5.09291
     2004.12047        -4.05297         5.12026
     2004.12326         1.54692         5.44579
     2004.12594         7.47750         5.12732
     2004.12867         0.31025         5.13879
     2004.13141         1.17899         5.15114
     2004.13415        -1.89926         5.05410
     2004.13689        -3.93752         5.03822
     2004.13963        -2.19376         4.95970
     2004.14242        -3.10387         5.23406
     2004.14510        -3.17729         5.05763
     2004.14784         5.00846         5.15820
     2004.15058         3.05520         5.06733
     2004.15331         4.38794         5.06204
     2004.15605         3.16769         5.09644
     2004.15880        -9.38955         5.09556
     2004.16159        -1.28466         5.15290
     2004.16427        -5.35108         5.05586
     2004.16700       -12.09034         5.05145
     2004.16957       -10.53107         5.73692
     2004.17248         2.75515         5.28347
     2004.17522         1.16590         5.28788
     2004.17796         5.35766         5.15378
     2004.18075        -6.35345         5.13879
     2004.18343        -6.33387         5.13173
     2004.18617        -2.28713         5.44314
     2004.18891        -1.34238         5.08497
