# ================= DQRFIT RESULTS ================
# INPUT FILE: series/P061.rad
# OUTPUT: LDETRENDED
# FILTER FUNCTION: f(t)
# f(t)=+line(t)+annual(t)
# line(t)=+P 1+P 2*t
# annual(t)=+P 3*sin(2*pi*t+P 4)
# heav(t)=(t<0?0:1)
# TOTAL OBSERVATIONS MTOT= 3520
# INITIAL TIME INTERVAL= 2016.6899 - 2006.3025 = 10.3874
# TOTAL OBSERVATIONS AFTER PREFILTER M= 3517
# TIME-SPAN= 2016.6899 - 2006.3025 = 10.3874
# OBSERVATIONS: USED M=  3517 REJECTED MTOT-M=     3 %USED=   99.9148
# N=  4 PARAMETERS
# MAXSIG= 175.00000
# MAXRES=  17.58277
# SCALE FACTOR FOR LENGTHS: SCL=  10.00000
# SCALE FACTOR FOR SIGMAS: SCLSIG=   1.00000
# CHI^2=   2800.050 DOF=  3513 CHI^2/DOF=   0.79705
# RMS=      5.196 SDEV=      5.197 MEAN=    0.03500
#  P #       PARAMETER +-    SIGMA %error PARAMETER NAME
# P 1 =      -641.33272 +-   62.194   9.70 YZERO                              
# P 2 =         0.31945 +-    0.031   9.68 SLOPE                              
# P 3 =         3.73096 +-    0.125   3.35 ANNUAL AMPLITUDE                   
# P 4 =        -2.98104 +-    0.047   1.57 ANNUAL PHASE                       
#       T            LDETRENDED       SIG_OBS
     2006.30253        -6.21340         5.14508
     2006.30527         1.27873         5.12187
     2006.30800         7.56185         5.16473
     2006.31074         1.59398         5.11919
     2006.31348         2.89010         5.22901
     2006.31622         3.11223         5.10402
     2006.32169        -2.86252         5.22454
     2006.32443         2.39461         5.14687
     2006.32717         3.22273         5.14955
     2006.32991        -2.92314         5.09509
     2006.33264        -0.18302         5.09687
     2006.33538        -0.11789         5.15133
     2006.33812         3.15223         5.14241
     2006.34086         2.12836         5.13526
     2006.34360         8.93548         5.13973
     2006.34633         4.63561         5.21740
     2006.34907        -2.25027         5.11027
     2006.35181        -1.75014         5.23258
     2006.35455         0.98199         5.13437
     2006.35728        -5.13089         5.17008
     2006.36002         3.15624         5.18794
     2006.36276        -0.03364         5.15580
     2006.36550        -4.64951         5.15848
     2006.36824        -2.77139         5.21561
     2006.37097        -1.42126         5.43702
     2006.37371        -1.78214         5.28257
     2006.37645         9.17199         5.20044
     2006.37919         5.69511         5.26918
     2006.38193         1.46324         5.23704
     2006.38466        15.00136         5.37274
     2006.38740         1.73349         5.30936
     2006.39014         6.28862         5.29686
     2006.39288         1.22974         5.33525
     2006.39561        -1.24913         5.44863
     2006.39835        -3.04301         5.39595
     2006.40109        -3.73788         5.24686
     2006.40383        -3.36076         5.28436
     2006.40657         4.22437         5.28882
     2006.40930        -2.03851         5.34060
     2006.41204        -3.60138         5.37096
     2006.41478        -4.00826         5.36024
     2006.41752         5.47487         5.64504
     2006.42026         8.74100         5.61111
     2006.42299         3.05912         5.57005
     2006.42573         7.24425         5.32989
     2006.42847         5.28037         5.40845
     2006.43121        -2.40450         5.39417
     2006.43394         0.19362         5.27186
     2006.43668         0.14675         5.24240
     2006.43942         2.24887         5.23168
     2006.44216         1.72500         5.31828
     2006.44490         1.66612         5.24150
     2006.44763         5.95325         5.27722
     2006.45037         4.92737         5.30936
     2006.45311         2.43150         5.23883
     2006.45585         9.90463         5.38792
     2006.45859         3.01575         5.23972
     2006.46132         6.42288         5.40220
     2006.46406         4.15900         5.37185
     2006.46680         5.14313         5.35667
     2006.46954         6.77525         5.34864
     2006.47227         3.66638         5.38792
     2006.47501         6.75650         5.40399
     2006.47775         1.52063         5.39417
     2006.48049        -1.88625         5.30043
     2006.48323         2.44388         5.38346
     2006.48596         9.17600         5.44684
     2006.48870         4.53013         5.46559
     2006.49144         3.97326         5.48613
     2006.49418         3.41138         5.36381
     2006.49692         7.52051         5.30936
     2006.49965        -0.49737         5.33078
     2006.50239        -1.55524         5.31828
     2006.50513        -3.92012         5.43256
     2006.50787         1.41101         5.33614
     2006.51060        -2.14987         5.26115
     2006.51334        -1.89374         5.41560
     2006.51608         1.87138         5.34328
     2006.51882         0.65151         5.35667
     2006.52156        -2.00536         5.37721
     2006.52429         5.38376         5.36739
     2006.52703         8.82589         5.37721
     2006.52977         9.80801         5.31918
     2006.53251        -0.60986         5.39060
     2006.53525         2.63026         5.32632
     2006.53798         8.26539         5.33525
     2006.54072         1.25651         5.42274
     2006.54346         5.36464         5.20311
     2006.54620        -1.44524         5.13973
     2006.54893         3.47689         5.27097
     2006.55167         4.40301         5.26650
     2006.55441         5.05914         5.23972
     2006.55715         3.63327         5.16205
     2006.55989         9.00639         5.20401
     2006.56262         7.03152         5.25311
     2006.56536         5.67164         5.18883
     2006.56810         1.02877         5.22097
     2006.57084        10.36889         5.25757
     2006.57357        -1.30998         5.17812
     2006.57631        -1.15886         5.19062
     2006.57905         1.83827         5.12812
     2006.58179         3.25539         5.19687
     2006.58453         5.30652         5.40845
     2006.58726         6.11964         5.29864
     2006.59000         6.24377         5.45577
     2006.59274        -2.04110         5.38613
     2006.59548        -2.37598         5.33078
     2006.59822         6.15115         5.45399
     2006.60095         0.67627         5.25668
     2006.60369         0.75440         5.26829
     2006.60643        -1.93248         5.15044
     2006.60917        -0.36135         5.20133
     2006.61190         2.00777         5.19776
     2006.61464         5.87390         5.15758
     2006.61738         3.50102         5.21472
     2006.62012         1.56415         5.28346
     2006.62286         0.27928         5.18347
     2006.62559        -0.19860         5.15044
     2006.62833         4.11153         5.24597
     2006.63107         0.59865         5.15490
     2006.63381         8.74178         5.27097
     2006.63655         0.36990         5.27900
     2006.63928         1.73903         5.25311
     2006.64202         5.68715         5.27275
     2006.64476        -1.40272         5.23793
     2006.64750         9.94940         5.44863
     2006.65023         7.06253         5.53344
     2006.65297         4.54465         5.54148
     2006.65571         1.24978         5.48166
     2006.65845         0.76591         5.56558
     2006.66119         5.00203         5.50220
     2006.66392         4.67216         5.55576
     2006.66666         5.57128         5.59326
     2006.66940         1.87541         5.44952
     2006.67214        -2.00447         5.44863
     2006.67488         3.38266         5.56469
     2006.67761         0.58078         5.69236
     2006.68035        -0.39009         5.52630
     2006.68309        10.31003         5.74057
     2006.68583         3.21716         5.63165
     2006.68856        10.99028         5.62094
     2006.69130         3.26641         5.42452
     2006.69404         3.77954         5.40845
     2006.69678         1.03366         5.37453
     2006.69952         9.62779         5.36917
     2006.70225         3.74491         5.61379
     2006.70499        -0.56196         5.44595
     2006.70773         4.11016         5.26918
     2006.71047         3.81729         5.31560
     2006.71321         3.01741         5.50309
     2006.71594         7.66954         5.31471
     2006.71868        -0.02834         5.24597
     2006.72142        11.65879         5.42006
     2006.72416         7.02592         5.49505
     2006.72689         8.13904         5.36471
     2006.72963         8.12417         5.36739
     2006.73237         5.72329         5.20311
     2006.73511         4.98842         5.30757
     2006.73785        -1.21446         5.29418
     2006.74058         5.48867         5.33346
     2006.74332         8.46579         5.32632
     2006.74606        10.03692         5.26918
     2006.74880         5.22904         5.29061
     2006.75154         6.04017         5.51916
     2006.75427        -2.83971         5.50309
     2006.75701         6.88942         5.27097
     2006.75975         7.65255         5.32632
     2006.76249        -1.60433         5.54058
     2006.76522         3.83980         5.37274
     2006.76796         2.50092         5.57273
     2006.77070         5.56205         5.39506
     2006.77344         4.66217         5.27186
     2006.77618         0.78330         5.24329
     2006.77891         6.28842         5.22901
     2006.78165         5.32355         5.19954
     2006.78439         3.74567         5.26025
     2006.78713         9.91980         5.48077
     2006.78987         3.00292         5.32275
     2006.79260         7.17605         5.19240
     2006.79534         2.53718         5.36114
     2006.79808         7.09030         5.24775
     2006.80082        -0.04257         5.41917
     2006.80355         0.42655         5.27186
     2006.80629         4.23468         5.24508
     2006.80903         3.76180         5.27543
     2006.81177         3.61393         5.29864
     2006.81451         2.41405         5.40042
     2006.81724         0.80418         5.37364
     2006.81998        -0.05870         5.19419
     2006.82272         2.29543         5.18347
     2006.82546         4.76356         5.21472
     2006.82820         6.39068         5.19062
     2006.83093         4.03981         5.16383
     2006.83367         6.48593         5.24061
     2006.83641         5.98306         5.31650
     2006.83915        -1.24282         5.36381
     2006.84188         3.68431         5.55308
     2006.84462         3.51643         5.33525
     2006.84736         4.19856         5.32543
     2006.85010         4.96468         5.50755
     2006.85284        -1.24019         5.49059
     2006.85557         8.17993         5.53344
     2006.85831         4.61506         5.48523
     2006.86105         1.01819         5.71111
     2006.86379        -4.42569         5.53880
     2006.86653        -6.74056         5.47630
     2006.86926         4.40456         5.21383
     2006.87200         5.44669         5.24775
     2006.87474         2.59481         5.23883
     2006.87748         1.00794         5.18347
     2006.88021        -6.41494         5.09152
     2006.88295        -5.21781         5.31382
     2006.88569        -0.41069         5.30400
     2006.88843         1.31544         5.28436
     2006.89117        -3.42644         5.28436
     2006.89390        -9.70731         5.31828
     2006.89664        -0.73518         5.26650
     2006.89938        -3.25006         5.21294
     2006.90212         1.37807         5.29507
     2006.90485        -2.70981         5.30489
     2006.90759        -2.80068         5.21115
     2006.91033        -2.72056         5.18883
     2006.91307         1.69257         5.23525
     2006.91581        -7.71131         5.25579
     2006.91854        -8.60118         5.23525
     2006.92128        -5.25206         5.26204
     2006.92402        -6.83093         5.14062
     2006.92676        -3.62680         5.20758
     2006.92950        -0.60668         5.25668
     2006.93223        -2.40955         5.26382
     2006.93497         2.87257         5.55398
     2006.93771         5.29370         5.28525
     2006.94045         9.34882         5.40042
     2006.94318         0.24195         5.31471
     2006.94592        -7.56593         5.28882
     2006.94866         9.96420         5.32185
     2006.95140         7.79332         5.50934
     2006.95414         2.17745         5.42631
     2006.95687        -0.91243         5.30221
     2006.95961        -0.00830         5.26739
     2006.96235         0.30583         5.17990
     2006.96509        -3.76405         5.29686
     2006.96783         1.48508         5.34507
     2006.97056        -3.55580         5.27543
     2006.97330        -6.73567         5.33257
     2006.97604        -1.88355         5.31114
     2006.97878         2.83758         5.34417
     2006.98151        -7.33130         5.22097
     2006.98425         3.77883         5.43613
     2006.98699       -11.06605         5.51202
     2006.98973        -3.13192         5.39149
     2006.99247        -8.32780         5.56826
     2006.99520        -0.62367         5.38435
     2006.99794        -1.78454         5.33078
     2007.00342         0.69671         5.51023
     2007.00616        -0.37317         5.34953
     2007.00889        -2.68904         5.24150
     2007.01163        -0.15192         5.31293
     2007.01437        -0.79879         5.28436
     2007.01711       -13.21167         5.21829
     2007.01984        -9.42354         5.21115
     2007.02258        -3.76642         5.11473
     2007.02532        -0.04229         5.17455
     2007.02806        -7.80516         5.22722
     2007.03080        -9.87504         5.05134
     2007.03353       -12.37691         4.95581
     2007.03627        -8.23579         4.97099
     2007.03901        -9.92566         4.96117
     2007.04175       -10.26354         5.16383
     2007.04449       -10.30841         4.96742
     2007.04722        -9.80829         5.11294
     2007.04996       -12.72816         5.19687
     2007.05270        -5.32004         5.16830
     2007.05544        -4.87191         4.94957
     2007.05817        -9.56579         4.97188
     2007.06091        -6.29866         4.94421
     2007.06365        -7.20353         4.97099
     2007.06639        -7.32741         5.05581
     2007.06913        -6.84728         4.90046
     2007.07186         0.21084         4.92457
     2007.07460        -2.81703         4.91832
     2007.07734        -4.24391         4.90850
     2007.08008        -8.53778         4.90493
     2007.08282        -4.10866         4.89868
     2007.08555         0.16747         4.99063
     2007.08829        -2.32841         5.01920
     2007.09103        -2.76428         5.03527
     2007.09377        -2.83616         5.06027
     2007.09650        -7.24303         5.05581
     2007.09924        -7.26590         4.99331
     2007.10198        -2.04478         4.96117
     2007.10472        -4.40265         5.11294
     2007.10746        -1.64653         5.14241
     2007.11019        -8.38840         4.97456
     2007.11293        -3.82528         4.99063
     2007.11567        -9.87915         4.94421
     2007.11841        -0.34903         4.97367
     2007.12115        -4.05790         4.95939
     2007.12388        -5.09978         4.95314
     2007.12662        -2.14865         5.00849
     2007.12936        -2.68552         5.13616
     2007.13210        -7.71640         5.05402
     2007.13483        -4.93427         4.97456
     2007.13757         0.00785         5.03349
     2007.14031        -1.30202         5.05581
     2007.14305        -4.90390         5.07813
     2007.14579        -7.92377         5.13526
     2007.14852        -7.44665         5.14151
     2007.15126        -0.55852         5.12187
     2007.15400        -1.17940         5.07634
     2007.15674        -4.25227         5.03527
     2007.15948        -6.13415         5.01474
     2007.16221        -3.91602         5.21026
     2007.16495        -3.75389         5.14776
     2007.16769        -5.68177         5.08973
     2007.17043        -2.44464         5.07902
     2007.17316         0.71548         5.21918
     2007.17590        -0.64839         5.19062
     2007.17864         9.14873         5.33346
     2007.18138        -6.43714         5.08616
     2007.18412         2.05598         5.15937
     2007.18685         1.17811         5.25490
     2007.18959       -12.30377         5.21561
     2007.19233        -7.37764         5.27900
     2007.19507        -3.35752         4.95314
     2007.19780        -2.29439         5.16740
     2007.20054        -7.67226         5.17901
     2007.20328        -3.62714         5.13973
     2007.20602         1.59099         5.05223
     2007.20876        -2.37789         5.10491
     2007.21149       -11.84976         5.08884
     2007.21423       -10.18964         5.13883
     2007.21697        -1.89351         5.18258
     2007.21971         1.43661         4.99242
     2007.22245        -3.88926         5.02902
     2007.22518         5.24486         5.13616
     2007.22792        -0.59401         5.08438
     2007.23066        -5.95888         5.03081
     2007.23340        -2.90376         5.16026
     2007.23613        -8.60163         5.08973
     2007.23887        -2.27951         4.96117
     2007.24161        -5.70438         5.08080
     2007.24435        -0.42226         5.05581
     2007.24709         1.27887         5.06295
     2007.24982        -0.11801         4.96831
     2007.25256        -1.31688         5.07634
     2007.25530        -4.90576         5.03349
     2007.25804        -4.80663         5.17812
     2007.26078        -7.12051         5.06920
     2007.26351         2.27662         5.09152
     2007.26625         9.41675         5.05670
     2007.26899         8.24287         5.09598
     2007.27173         3.95000         5.12634
     2007.27446         9.25412         5.04152
     2007.27720         5.29225         5.00938
     2007.27994         2.11937         5.01385
     2007.28268         5.11750         5.02992
     2007.28542         2.29462         4.98617
     2007.28815         3.88075         5.19687
     2007.29089         3.54087         5.02634
     2007.29363         1.37300         4.97813
     2007.29637        -0.29688         5.05759
     2007.29911         2.43725         4.98260
     2007.30184         4.70738         5.08973
     2007.30458         5.61250         4.99153
     2007.30732         6.78763         5.11116
     2007.31006         1.18575         5.13883
     2007.31279         0.32888         5.08795
     2007.31553         3.20900         5.00849
     2007.31827         2.01913         5.05670
     2007.32101        -2.26875         4.96296
     2007.32375        -3.17162         4.99778
     2007.32648         1.75150         5.02188
     2007.32922         4.61663         5.00938
     2007.33196        -4.50924         5.34239
     2007.33470        -4.84612         5.15401
     2007.33744        -3.21099         5.06741
     2007.34017        -0.98587         5.03081
     2007.34291        -3.52874         5.03081
     2007.34565        -1.28362         5.01742
     2007.34839         0.71551         5.02992
     2007.35112         5.24963         4.97546
     2007.35386        -4.71524         5.34685
     2007.35660        -6.75012         5.32096
     2007.35934         0.06301         4.98974
     2007.36208        -2.72287         5.09330
     2007.36481         0.93226         5.12098
     2007.36755        -2.72361         5.08616
     2007.37029         0.98151         5.14508
     2007.37303         3.23164         5.19062
     2007.37577        -3.81624         5.21740
     2007.37850        -7.44111         5.11741
