# ================= DQRFIT RESULTS ================
# INPUT FILE: series/P064.rad
# OUTPUT: LDETRENDED
# FILTER FUNCTION: f(t)
# f(t)=+line(t)+annual(t)
# line(t)=+P 1+P 2*t
# annual(t)=+P 3*sin(2*pi*t+P 4)
# heav(t)=(t<0?0:1)
# TOTAL OBSERVATIONS MTOT= 4077
# INITIAL TIME INTERVAL= 2021.8467 - 2007.6030 = 14.2437
# TOTAL OBSERVATIONS AFTER PREFILTER M= 3902
# TIME-SPAN= 2021.8279 - 2007.6030 = 14.2249
# OBSERVATIONS: USED M=  3902 REJECTED MTOT-M=   175 %USED=   95.7076
# N=  4 PARAMETERS
# MAXSIG= 175.00000
# MAXRES= 164.61326
# SCALE FACTOR FOR LENGTHS: SCL=  10.00000
# SCALE FACTOR FOR SIGMAS: SCLSIG=   1.00000
# CHI^2=   7713.719 DOF=  3898 CHI^2/DOF=   1.97889
# RMS=     11.886 SDEV=     11.851 MEAN=    0.92892
#  P #       PARAMETER +-    SIGMA %error PARAMETER NAME
# P 1 =     -1222.08905 +-   77.522   6.34 YZERO                              
# P 2 =         0.60635 +-    0.038   6.35 SLOPE                              
# P 3 =         4.13411 +-    0.187   4.53 ANNUAL AMPLITUDE                   
# P 4 =        -2.96682 +-    0.063   2.13 ANNUAL PHASE                       
#       T            LDETRENDED       SIG_OBS
     2007.60301         3.86629         8.17170
     2007.60574         2.71363         8.11402
     2007.60848         4.74697         8.10558
     2007.61122         2.75931         8.04087
     2007.61396        -5.32435         8.10136
     2007.61670         3.69499         8.67390
     2007.61943         9.25433         8.61482
     2007.62217         8.01067         8.62185
     2007.62491         5.41301         8.43194
     2007.62765        -1.22665         8.72314
     2007.63039         7.17769         8.54026
     2007.63312         3.85303         8.46852
     2007.63586         3.74637         8.36020
     2007.63860         1.44071         8.51635
     2007.64134         1.98805         8.18999
     2007.64407         4.41239         8.58668
     2007.64681         0.49273         8.66265
     2007.64955         6.15907         8.63873
     2007.65229         4.67141         8.55574
     2007.65503         0.67875         8.50228
     2007.65776         6.60509         8.46993
     2007.66050         5.64643         8.43335
     2007.66324         7.15277         8.53042
     2007.66598         6.11811         8.50087
     2007.66872         8.92945         8.54870
     2007.67145         2.88879         8.66406
     2007.67419         5.36213         8.62185
     2007.67693         6.41747         8.45164
     2007.67967        10.00381         8.48399
     2007.68240        11.60515         8.34895
     2007.68514         5.76949         8.55714
     2007.68788         9.00583         8.63311
     2007.69062         8.46817         8.43335
     2007.69336         7.03750         8.42772
     2007.69609         3.12084         8.33066
     2007.69883         8.21818         8.35457
     2007.70157         9.85152         8.39537
     2007.70431         8.53086         8.52479
     2007.70705         2.23020         8.69500
     2007.70978         5.43654         8.65421
     2007.71252         1.15288         8.23078
     2007.71526         5.84022         8.24626
     2007.71800         6.31056         8.18858
     2007.72073         3.73690         8.35176
     2007.72347         9.27024         8.23219
     2007.72621        10.46758         8.12528
     2007.72895         9.40892         8.21812
     2007.73169         7.92626         8.24626
     2007.73442         2.76560         8.27017
     2007.73716         6.86494         8.59372
     2007.73990        12.51228         8.23922
     2007.74264        14.65562         8.20124
     2007.74538        21.38396         8.22093
     2007.74811        -3.07770         8.47415
     2007.75085        17.77664         8.86522
     2007.75359         2.49498         8.62467
     2007.75633         5.60632         8.26032
     2007.75906         9.14866         8.19843
     2007.76180         4.63600         8.27017
     2007.76454        11.30134         8.38552
     2007.76728         5.31468         8.87506
     2007.77002         4.53402         9.02418
     2007.77275         9.57836         8.62185
     2007.77549         8.64470         8.19280
     2007.77823        10.03904         8.21249
     2007.78097        12.45438         8.27720
     2007.78371        16.14772         8.16185
     2007.78644        20.58206         8.17733
     2007.78918         4.57640         8.43054
     2007.79192         7.73774         8.39537
     2007.79466         5.82208         8.56699
     2007.79739        17.39642         8.67109
     2007.80013         0.78376         8.31519
     2007.80287         4.63610         8.27439
     2007.80561         0.35244         8.39396
     2007.80835         4.51878         8.42632
     2007.81108        20.02612         8.54308
     2007.81382        -5.73854         8.33910
     2007.81656         0.49780         8.49384
     2007.81930         6.04414         8.24907
     2007.82203        -2.68252         8.35598
     2007.82477         1.19882         8.49806
     2007.82751        -4.77584         8.35739
     2007.83025         1.21550         8.50791
     2007.83299         5.15984         8.10418
     2007.83572         3.06218         8.14216
     2007.83846         3.21152         8.15904
     2007.84120         8.54586         8.19843
     2007.84394        -2.84580         7.99445
     2007.84668         3.84154         8.08870
     2007.84941        -1.31212         8.16326
     2007.85215         1.48622         8.47274
     2007.85489         3.34656         8.48821
     2007.85763        13.16090         8.16326
     2007.86036         8.69324         7.92974
     2007.86310        19.63758         8.41928
     2007.86584         7.49292         8.20968
     2007.86858         5.79926         8.17873
     2007.87132         8.74460         8.26173
     2007.87405        15.76194         8.21249
     2007.87679         4.65928         8.18858
     2007.87953        -0.16838         8.14216
     2007.88227        -4.87304         7.98038
     2007.88501        -1.20770         8.00148
     2007.88774        -6.03336         7.99023
     2007.89048        -2.91802         7.92833
     2007.89322        -0.22068         8.24344
     2007.89596         5.04366         8.24204
     2007.89869        -2.34500         7.96350
     2007.90143         4.12634         8.01837
     2007.90417        -4.04532         8.03243
     2007.90691        -9.19398         7.95928
     2007.90965        -5.16164         8.22375
     2007.91238        -3.62830         8.18436
     2007.91512         5.40604         8.26595
     2007.91786         3.91838         8.26876
     2007.92060        -2.69528         8.55574
     2007.92334         0.36906         8.47555
     2007.92607        -0.78360         8.20124
     2007.92881        -4.29626         8.17873
     2007.93155        -3.05392         8.16607
     2007.93429        -6.55358         8.14778
     2007.93702        -9.58424         8.12528
     2007.93976       -12.59090         8.10277
     2007.94250         0.64444         8.30393
     2007.94524         3.98478         8.18999
     2007.94798        -7.12488         8.13794
     2007.95071        -5.89054         8.22093
     2007.95345        10.27680         8.36020
     2007.95619         6.05214         8.41928
     2007.95893        10.91648         8.64717
     2007.96167        -0.96218         8.64436
     2007.96440         9.69916         8.52198
     2007.96714        -5.71050         8.55714
     2007.96988       -15.62817         8.52901
     2007.97262        -7.78183         8.70626
     2007.97535        -6.62049         8.71751
     2007.97809        -8.93115         8.80613
     2007.98083       -11.50081         8.58809
     2007.98357       -13.44747         8.67250
     2007.98631        -2.43813         8.86100
     2007.98904        -8.17879         9.13390
     2007.99178        -7.36545         9.01292
     2007.99452         5.00989         9.17892
     2007.99726       -10.81577         8.80332
     2008.00000       -17.83043         8.52198
     2008.00273        -2.50609         8.09152
     2008.00547         3.86925         7.95928
     2008.00821         1.13159         8.11543
     2008.01095         8.95293         8.55574
     2008.01368         8.60527         8.65561
     2008.01642         7.51261         8.55996
     2008.01916         7.86695         8.80895
     2008.02190         0.83429         8.94962
     2008.02464         6.69363         8.70766
     2008.02737         2.26897         8.45023
     2008.03011        -1.88569         8.54026
     2008.03285       -14.57035         8.07463
     2008.03559        -5.77301         8.10699
     2008.03833       -11.12467         7.91005
     2008.04106       -18.26433         8.01555
     2008.04380       -15.30599         8.04509
     2008.04654       -15.17565         7.97335
     2008.04928       -11.45531         7.93115
     2008.05201       -14.98297         7.82986
     2008.05475       -14.20563         7.80876
     2008.05749       -14.80229         7.84534
     2008.06023        -8.31095         7.89176
     2008.06297        -3.16261         7.87488
     2008.06570        -7.65527         7.81298
     2008.06844        -1.73593         7.82002
     2008.07118         7.83841         7.84252
     2008.07392         3.52375         7.81017
     2008.07666         5.96109         8.31378
     2008.07939         0.49443         8.57824
     2008.08213        30.59877         8.92430
     2008.08487        42.45411         9.10999
     2008.08761        39.42645         8.96088
     2008.09034        38.80079         8.86381
     2008.09582        60.76047         9.46167
     2008.15058        83.19927         8.61623
     2008.15331        74.28261         8.46852
     2008.15879        68.46129         9.04669
     2008.16153        59.31263         9.59812
     2008.17248        80.44299         8.57824
     2008.28473         8.41692         9.19017
     2008.28747        16.71026         9.10436
     2008.29021        18.49060         9.04809
     2008.29295       -14.24306         9.07623
     2008.29568       -18.55072         8.77659
     2008.29842         3.35062         8.62607
     2008.30116        43.58196         8.88913
     2008.30390        46.40730         8.69078
     2008.30937        51.32998         9.18173
     2008.31211        42.67632         9.06497
     2008.31485        42.58666         8.98760
     2008.31759        33.57800         9.97513
     2008.33949        15.38072         8.91445
     2008.34223       -13.76694         8.80473
     2008.34496       -12.86760         8.53042
     2008.34770        -8.75526         8.21812
     2008.35044        -7.51392         8.15904
     2008.35318        -7.46358         8.07323
     2008.35592        -3.05424         8.00571
     2008.35865       -12.38190         7.94803
     2008.36139        -3.48256         7.92271
     2008.36413        -3.31222         8.07041
     2008.36687       -16.35288         7.97757
     2008.36961       -16.83754         7.83268
     2008.37234        -5.11420         7.90301
     2008.37508        -4.13286         8.28705
     2008.37782        -6.46052         8.13231
     2008.38056         4.36282         8.04931
     2008.38329         7.04316         8.05494
     2008.38603        -6.15850         8.01555
     2008.38877        -1.50016         8.11543
     2008.39151        -6.03382         8.20687
     2008.39425        -6.06348         8.09714
     2008.39698         1.32086         8.22375
     2008.39972         3.44720         8.13934
     2008.40246         1.63254         8.00852
     2008.40520        -2.64512         8.11121
     2008.40794        -1.96578         8.09574
     2008.41067        -1.43244         8.00430
     2008.41341        -0.11610         8.00148
     2008.41615        -4.76276         8.11262
     2008.41889        -4.23342         8.11824
     2008.42162        -8.61508         8.49384
     2008.42436        -3.72674         8.08730
     2008.42710         0.87260         8.30393
     2008.42984        -2.13006         8.31800
     2008.43258         3.09628         8.52760
     2008.43531        -2.48938         8.29127
     2008.43805         1.03496         8.27017
     2008.44079        -6.67770         8.14778
     2008.44353        -9.22736         8.08589
     2008.44626        -6.59002         8.28142
     2008.44900        -5.03568         8.11824
     2008.45174        -1.83434         8.35035
     2008.45448        -0.66500         8.47555
     2008.45722        -3.65566         8.16748
     2008.45995        -0.30832         8.13090
     2008.46269        -6.62598         8.22656
     2008.46543         0.67136         8.23922
     2008.46817        -2.57130         8.18717
     2008.47091         0.54204         8.31519
     2008.47364        -5.02462         8.22516
     2008.47638         0.67972         8.04791
     2008.47912        -1.53594         8.06338
     2008.48186         5.36340         8.06338
     2008.48459        -8.11726         8.24204
     2008.48733        -0.80392         8.16748
     2008.49007        -2.35958         8.06619
     2008.49281         1.92976         8.02399
     2008.49555         0.52610         8.01837
     2008.49828         1.02044         7.97194
     2008.50102        -2.14522         8.08589
     2008.50376         3.86112         8.21531
     2008.50650         1.56946         8.14356
     2008.50924         6.53380         8.32081
     2008.51197         7.68714         8.14919
     2008.51471         1.54248         8.32644
     2008.51745         3.27582         8.07182
     2008.52019         7.30315         8.22938
     2008.52292         4.87049         8.31378
     2008.52566         9.81583         8.33629
     2008.52840         7.79017         8.08308
     2008.53114         4.36751         8.16045
     2008.53388        11.40185         8.12950
     2008.53661         2.86519         8.20124
     2008.53935         3.49553         8.02540
     2008.54209         3.62487         7.99586
     2008.54483         4.46821         8.28142
     2008.54757         5.50955         8.24204
     2008.55030        14.63089         7.98038
     2008.55304         7.57623         8.19421
     2008.55578         9.96057         8.10699
     2008.55852         5.91891         8.17170
     2008.56125         5.01525         8.05635
     2008.56399         8.27359         8.07886
     2008.56673         4.55393         8.19421
     2008.56947         5.53027         8.08730
     2008.57221         4.39061         8.31237
     2008.57494         9.12195         8.48118
     2008.57768         5.12229         8.47555
     2008.58042         8.82163         8.14638
     2008.58316        13.28097         8.28846
     2008.58590         8.82331         8.22797
     2008.58863         7.03065         8.40803
     2008.59137         4.14799         7.98038
     2008.59411         6.44933         8.02681
     2008.59685         7.50567         8.26314
     2008.59958        11.81601         8.48118
     2008.60232         9.46435         8.52760
     2008.60506        10.85869         8.50228
     2008.60780         0.38003         8.34895
     2008.61054         4.47737         8.36020
     2008.61327         8.78571         8.22938
     2008.61601         9.77905         8.36020
     2008.61875         7.43639         8.29268
     2008.62149         9.07773         8.27580
     2008.62423        12.07007         8.23641
     2008.62696        14.28941         8.36301
     2008.62970        13.53375         8.08589
     2008.63244        10.18109         8.42772
     2008.63518         9.90943         8.72736
     2008.63791         5.29677         8.41084
     2008.64065         8.15711         8.39115
     2008.64339         8.06945         8.15904
     2008.64613        10.39579         8.45727
     2008.64887         2.23113         8.40522
     2008.65160         6.51147         8.20546
     2008.65434         6.12681         8.70204
     2008.65708         4.59315         8.65843
     2008.65982         0.62049         8.81458
     2008.66256        11.44583         8.29690
     2008.66529         3.24117         8.30393
     2008.66803        -0.62949         8.24766
     2008.67077         3.57785         8.30815
     2008.67351         4.45419         8.48821
     2008.67624         0.24553         8.80754
     2008.67898         0.27687         8.28142
     2008.68172         2.40521         8.42350
     2008.68446         2.47755         8.28283
     2008.68720         6.15089         8.28705
     2008.68993         7.23223         8.33769
     2008.69267         4.19557         8.28986
     2008.69541         6.87191         8.27158
     2008.69815        11.38925         8.32925
     2008.70089         5.73359         8.28283
     2008.70362        10.72493         8.29127
     2008.70636         9.81027         8.18436
     2008.70910         6.89561         8.30534
     2008.71184         5.49595         8.45445
     2008.71457         6.34929         8.13372
     2008.71731         2.33663         8.15341
     2008.72005         6.33197         8.09152
     2008.72279         5.19531         8.17029
     2008.72553        -2.55335         8.40944
     2008.72826         3.42499         8.23922
     2008.73100        10.20733         8.35176
     2008.73374         6.16567         8.58387
     2008.73648         4.14601         8.33769
     2008.73921         5.47735         8.28424
     2008.74469         5.88703         8.33629
     2008.74743         8.39137         8.19280
     2008.75017         7.95471         8.18436
     2008.75290        16.46205         8.28846
     2008.75564         7.75339         8.62748
     2008.75838        10.06873         8.63029
     2008.76112         7.24307         8.40240
     2008.76386         6.35641         8.38412
     2008.76659        14.37875         8.68094
     2008.76933         1.50609         8.28846
     2008.77207        -2.73857         8.18999
     2008.77481        -1.63423         8.11121
     2008.77754        -2.52289         8.10136
     2008.78028         1.48945         8.03947
     2008.78302        -5.49421         8.17873
     2008.78576        -3.38987         8.22375
     2008.78850        -0.90853         8.29690
     2008.79123         5.80481         8.44179
     2008.79397        -2.63486         8.26595
     2008.79671         1.54048         8.23782
     2008.79945        -1.26718         8.22093
     2008.80219         6.23816         8.29408
     2008.80492        -5.98450         8.08026
     2008.80766         4.70684         8.08589
     2008.81040         2.40118         8.33207
     2008.81314         1.23352         8.17592
     2008.81587         2.63386         8.16045
     2008.81861         0.45620         8.17029
     2008.82135        -1.06146         8.17592
     2008.82409         1.20888         8.34191
     2008.82683        -2.79978         8.21390
     2008.82956        -6.98644         8.41647
     2008.83230        -7.75910         8.39396
     2008.83504        -0.81176         8.33910
     2008.83778        -2.32742         8.29408
     2008.84052         4.51492         8.34332
     2008.84325        -0.50574         8.26173
     2008.84599         4.11060         8.31800
     2008.84873         0.50494         8.43054
     2008.85147        -5.42672         8.26314
     2008.85420         6.18362         8.57121
     2008.85694         1.73296         8.28142
     2008.85968         1.29630         8.37005
     2008.86242         2.74764         8.40100
     2008.86516        11.15698         8.32081
     2008.86789         6.60032         8.30534
     2008.87063        -3.64534         8.39537
     2008.87337        -3.19100         8.41647
