# ================= DQRFIT RESULTS ================
# INPUT FILE: series/P260.rad
# OUTPUT: LDETRENDED
# FILTER FUNCTION: f(t)
# f(t)=+line(t)
# line(t)=+P 1+P 2*t
# heav(t)=(t<0?0:1)
# TOTAL OBSERVATIONS MTOT=  845
# INITIAL TIME INTERVAL= 2007.9304 - 2005.5578 =  2.3726
# TOTAL OBSERVATIONS AFTER PREFILTER M=  845
# TIME-SPAN= 2007.9304 - 2005.5578 =  2.3726
# OBSERVATIONS: USED M=   845 REJECTED MTOT-M=     0 %USED=  100.0000
# N=  2 PARAMETERS
# MAXSIG= 175.00000
# MAXRES=  14.42490
# SCALE FACTOR FOR LENGTHS: SCL=  10.00000
# SCALE FACTOR FOR SIGMAS: SCLSIG=   1.00000
# CHI^2=    477.870 DOF=   843 CHI^2/DOF=   0.56687
# RMS=      4.448 SDEV=      4.450 MEAN=    0.03729
#  P #       PARAMETER +-    SIGMA %error PARAMETER NAME
# P 1 =     -2344.05176 +-  442.193  18.86 YZERO                              
# P 2 =         1.16899 +-    0.220  18.85 SLOPE                              
#       T            LDETRENDED       SIG_OBS
     2005.55783         3.31175         4.39999
     2005.56057         4.58155         4.45646
     2005.56331         0.60335         4.50916
     2005.56605        -4.96385         4.63038
     2005.56878         0.68995         4.67781
     2005.57152        -1.77225         4.76063
     2005.57426         5.46955         4.48958
     2005.57700        -1.18465         4.59273
     2005.57974        -3.57385         4.57542
     2005.58247         8.24995         4.51895
     2005.58508         7.15590         4.69287
     2005.59354        -1.35699         4.55735
     2005.59616         5.40794         4.36159
     2005.59890         3.09574         4.37062
     2005.60164        -2.78146         4.40827
     2005.60438        -0.44066         4.37288
     2005.60711         1.18614         4.38493
     2005.60985         3.82994         4.48055
     2005.61259        -1.08126         4.50012
     2005.61533         1.39854         4.36084
     2005.61807        -6.44666         4.51594
     2005.62080        -0.16486         4.43763
     2005.62354        -1.88306         4.58445
     2005.62628         3.35174         4.40752
     2005.62902        -2.33346         4.44140
     2005.63175         3.26334         4.41279
     2005.63449        -0.10586         4.45947
     2005.63723         1.30094         4.41053
     2005.63997         3.06574         4.39773
     2005.64271         3.66054         4.40902
     2005.64544         1.26333         4.40902
     2005.64818        -5.76787         4.38644
     2005.65092         1.75293         4.49787
     2005.65366         0.14573         4.45119
     2005.65639        -3.13147         4.35707
     2005.65913         0.84733         4.46474
     2005.66187         2.50013         4.38192
     2005.66461         3.55293         4.42935
     2005.66735         4.77173         4.38568
     2005.67008         4.41553         4.39321
     2005.67282         0.93433         4.36084
     2005.67556         2.66913         4.42032
     2005.67830        -3.30107         4.40451
     2005.68104        -3.15127         4.40074
     2005.68377        -0.58147         4.42333
     2005.68651        -3.01867         4.47678
     2005.68925        -7.26087         4.51895
     2005.69199        -3.58307         4.56864
     2005.69472         1.74673         4.45796
     2005.69746         0.13452         4.43989
     2005.70020         3.10432         4.63113
     2005.70294         0.55412         4.56412
     2005.70568        -1.51408         4.55132
     2005.70841        -6.25728         4.62737
     2005.71115         2.48852         4.44140
     2005.71389         2.03132         4.34352
     2005.71663        -1.65888         4.54982
     2005.71937        -3.04708         4.43387
     2005.72210         0.41672         4.54906
     2005.72484        -2.29548         4.35858
     2005.72758       -11.59268         4.49184
     2005.73032         2.96012         4.46398
     2005.73305         3.47792         4.49787
     2005.73579         2.57272         4.70868
     2005.73853         0.66652         4.48582
     2005.74127         7.08732         4.42258
     2005.74401         7.04512         4.46926
     2005.74674         6.21592         4.37364
     2005.74948         8.60371         4.41053
     2005.75222         4.07351         4.53928
     2005.75496         0.23431         4.54530
     2005.75770        -2.25889         4.41580
     2005.76043         4.61691         4.39622
     2005.76317         5.90971         4.36837
     2005.76591        10.57451         4.43537
     2005.76865        12.18231         4.44968
     2005.77138         5.38111         4.35632
     2005.77412         8.25891         4.38418
     2005.77686         8.27571         4.48281
     2005.77960         5.03151         4.44817
     2005.78234         5.15631         4.38418
     2005.78507         3.69011         4.39095
     2005.78781        12.02491         4.65447
     2005.79055         7.36371         4.37138
     2005.79329        11.33851         4.37439
     2005.79603         6.06331         4.48808
     2005.79876         3.93911         4.51217
     2005.80150         4.49390         4.43989
     2005.80424         4.28970         4.44441
     2005.80698         4.72650         4.36686
     2005.80971         7.49330         4.32696
     2005.81245         4.98010         4.38945
     2005.81519         3.33690         4.33825
     2005.81793         0.39770         4.55433
     2005.82067         9.28550         4.39020
     2005.82340         2.79630         4.36385
     2005.82614         8.07510         4.34277
     2005.82888         7.55590         4.33072
     2005.83162        -3.21930         4.46022
     2005.83436        -0.89350         4.56111
     2005.83709         4.98030         4.73202
     2005.83983         5.60710         4.55735
     2005.84257         5.33890         4.52572
     2005.84531         2.25770         4.58445
     2005.84804        -0.18350         4.64694
     2005.85078         3.37230         4.54831
     2005.85352         1.36910         4.54229
     2005.85626         0.98489         4.51970
     2005.85900         0.49469         4.49711
     2005.86173        -2.60251         4.49862
     2005.86447         1.77929         4.45646
     2005.86721        -1.32791         4.42107
     2005.86995         1.89389         4.46700
     2005.87269        -0.37731         4.34503
     2005.87542        -4.65451         4.36460
     2005.87816        -2.92071         4.35783
     2005.88090        -1.76091         4.37815
     2005.88364         0.57689         4.35707
     2005.88637        -0.87931         4.42559
     2005.88911         0.35749         4.47754
     2005.89185         1.97529         4.37439
     2005.89459         2.01509         4.43010
     2005.89733        -1.78211         4.41655
     2005.90006         2.85169         4.72826
     2005.90280         1.06749         4.46097
     2005.90554        -1.63671         4.38644
     2005.90828        -1.94992         4.45119
     2005.91102         2.02788         4.48205
     2005.91375        -1.44932         4.35180
     2005.91649        -3.70652         4.44667
     2005.91923       -12.11572         4.60478
     2005.92197        -2.06492         4.32470
     2005.92470        -5.03612         4.31642
     2005.92744        -7.36432         4.32394
     2005.93018        -4.55752         4.34804
     2005.93292         0.64528         4.35255
     2005.93566         2.58008         4.38644
     2005.93839         5.03988         4.37665
     2005.94113         3.03068         4.33750
     2005.94387         1.54548         4.34653
     2005.94661         0.05928         4.35632
     2005.94935        -1.13092         4.33223
     2005.95208        -5.27612         4.33448
     2005.95482        -3.39732         4.45871
     2005.95756        -0.73852         4.33147
     2005.96030        -2.11273         4.39923
     2005.96303         0.59307         4.32018
     2005.96577        -1.85613         4.51067
     2005.96851         0.78467         4.53250
     2005.97125       -10.69853         4.72600
     2005.97399        -5.31873         4.49862
     2005.97672        -4.70493         4.43462
     2005.97946         1.06187         4.36234
     2005.98220        -4.15733         4.54831
     2005.98494         8.87447         4.54982
     2005.98767         1.30327         4.50690
     2005.99041        -2.08993         4.64242
     2005.99315        -0.16813         4.41956
     2005.99589         1.19667         4.44667
     2005.99863         9.40847         4.61457
     2006.00410         2.60707         4.48733
     2006.00684        -4.74613         4.47829
     2006.00958        -8.56933         4.43010
     2006.01232        -8.39554         4.43839
     2006.01505       -10.47474         4.45796
     2006.01779         7.19406         4.56789
     2006.02053        -3.48014         4.49485
     2006.02327        -4.45534         4.52271
     2006.02600        -6.70954         4.54530
     2006.02874        -5.43274         4.46926
     2006.03148        -0.56294         4.41429
     2006.03422        -3.95814         4.44140
     2006.03696        -2.18934         4.58069
     2006.03969        -2.42054         4.42333
     2006.04243        -5.85174         4.44893
     2006.04517        -6.80394         4.56337
     2006.04791         3.58486         4.53325
     2006.05065        -2.49434         4.47076
     2006.05338        -9.05754         4.40451
     2006.05612        -1.75574         4.28329
     2006.05886        -4.24294         4.28253
     2006.06160        -2.66814         4.26974
     2006.06433         2.46065         4.36385
     2006.06707        -3.73855         4.19520
     2006.06981        -6.97775         4.22908
     2006.07255       -10.64095         4.21553
     2006.07529        -9.95415         4.21176
     2006.07802       -11.20435         4.21026
     2006.08076       -10.99555         4.38117
     2006.08350        -1.22475         4.25769
     2006.08624        -4.37295         4.33750
     2006.08898        -4.40415         4.35557
     2006.09171        -5.21835         4.25543
     2006.09445        -3.39855         4.38117
     2006.09719        -8.20775         4.27124
     2006.09993        -6.32595         4.26597
     2006.10266        -6.29915         4.27726
     2006.10540       -10.48735         4.29985
     2006.10814        -6.87355         4.36611
     2006.11088        -7.79775         4.46323
     2006.11362        -8.68495         4.30286
     2006.11635        -7.72516         4.31566
     2006.11909       -10.83236         4.31792
     2006.12183        -2.86556         4.33976
     2006.12457        -2.85476         4.29759
     2006.12731        -9.79796         4.28555
     2006.13004        -1.28216         4.29157
     2006.13278        -4.30436         4.27952
     2006.13552         0.35544         4.31265
     2006.13826        -0.09776         4.27651
     2006.14099         0.20304         4.27425
     2006.14373         2.03384         4.28630
     2006.14647         2.64264         4.28856
     2006.14921        -3.64356         4.29006
     2006.15195        -6.11276         4.29006
     2006.15468        -6.39696         4.36686
     2006.15742        10.70384         4.56337
     2006.16016        13.14964         4.59198
     2006.16290        -3.58056         4.48883
     2006.16564        -7.35376         4.40752
     2006.16837         0.33804         4.54756
     2006.17111        -4.78817         4.30437
     2006.17385         1.29163         4.35632
     2006.17659        -0.61357         4.39246
     2006.17932        -1.28777         4.43312
     2006.18206        -3.80497         4.35406
     2006.18480         3.64783         4.30587
     2006.18754        -0.63137         4.29082
     2006.19028         4.89543         4.37966
     2006.19301        -2.12977         4.35557
     2006.19575        -6.77497         4.40074
     2006.19849        -3.44517         4.47603
     2006.20123         1.46363         4.39773
     2006.20397        -4.07957         4.44064
     2006.20670        -2.28377         4.53401
     2006.20944        -4.48297         4.39923
     2006.21218        -4.10417         4.38869
     2006.21492        -4.12937         4.40902
     2006.21765         0.97943         4.36912
     2006.22039        -4.88077         4.44516
     2006.22313        -6.89098         4.44667
     2006.22587        -3.37918         4.54229
     2006.22861        -4.61338         4.66576
     2006.23134        -1.84458         4.47904
     2006.23408         3.83022         4.47528
     2006.23682         0.94302         4.41354
     2006.23956         1.54882         4.34578
     2006.24230        -2.14738         4.26748
     2006.24503         3.11142         4.33750
     2006.24777         0.42722         4.35255
     2006.25051        -1.65398         4.29684
     2006.25325         7.93682         4.34954
     2006.25598         0.37362         4.40752
     2006.25872         0.71342         4.28856
     2006.26146        -1.92378         4.42333
     2006.26420        -0.73198         4.53325
     2006.26694         4.73982         4.43989
     2006.26967         4.73762         4.32620
     2006.27241        -1.20058         4.36310
     2006.27515         3.81321         4.48808
     2006.27789        -1.50099         4.63414
     2006.28062         0.95181         4.33072
     2006.28336         3.19361         4.37514
     2006.28610         4.29941         4.42709
     2006.28884         3.31421         4.34126
     2006.29158         2.22301         4.36084
     2006.29431         1.79581         4.31265
     2006.29705         2.40661         4.30813
     2006.29979         2.60441         4.41429
     2006.30253         1.99821         4.30060
     2006.30527         3.08501         4.33223
     2006.30800         2.41381         4.31943
     2006.31074         2.85261         4.27651
     2006.31348         0.96741         4.41580
     2006.31622         1.36221         4.36761
     2006.32169        -2.58219         4.37815
     2006.32443        -1.15539         4.32169
     2006.32717         0.88940         4.30889
     2006.32991        -4.86380         4.34277
     2006.33264         1.42300         4.36310
     2006.33538         1.18380         4.37439
     2006.33812         0.98660         4.31867
     2006.34086         1.41440         4.35255
     2006.34360        -2.28580         4.33373
     2006.34633        -2.48200         4.39547
     2006.34907        -4.05620         4.38117
     2006.35181        -1.76540         4.47076
     2006.35455        -1.91760         4.33524
     2006.35728         0.77620         4.36234
     2006.36004         2.90998         4.43839
     2006.36276        -9.77320         4.37439
     2006.36550        -3.22640         4.41429
     2006.36824        -1.24560         4.40451
     2006.37097         2.79620         4.45796
     2006.37371         3.45000         4.45194
     2006.37645         0.70280         4.36761
     2006.37919         2.32959         4.47377
     2006.38193         2.57439         4.49636
     2006.38466        -4.09281         4.51067
     2006.38740        -5.20101         4.49335
     2006.39014        -4.37421         4.44215
     2006.39288         0.45259         4.40676
     2006.39561         2.47939         4.53626
     2006.39835        -2.18181         4.54605
     2006.40109         3.76099         4.45269
     2006.40383        -4.49521         4.47227
     2006.40657        -1.81541         4.46173
     2006.40930        -3.72261         4.48657
     2006.41204         1.10419         4.48205
     2006.41478        -4.40401         4.42559
     2006.41752        -2.05921         4.61457
     2006.42026         3.69759         4.61005
     2006.42299         5.78339         4.58746
     2006.42573         4.57919         4.64619
     2006.42847         7.85799         4.60026
     2006.43121         7.52878         4.59951
     2006.43394         0.43558         4.47453
     2006.43668        -1.49362         4.48356
     2006.43942         0.91218         4.51518
     2006.44216         1.58598         4.44441
     2006.44490         6.09178         4.48281
     2006.44763         2.30558         4.41956
     2006.45037        -1.66762         4.43537
     2006.45311         3.27518         4.46398
     2006.45585         7.34298         4.43613
     2006.45859         7.18778         4.42709
     2006.46132         6.00558         4.55283
     2006.46406         1.92738         4.54379
     2006.46680         3.72318         4.55659
     2006.46954         5.88198         4.54379
     2006.47227         6.19278         4.48958
     2006.47501         8.80158         4.59123
     2006.52703        -1.80023         4.52648
     2006.52977         3.87957         4.55810
     2006.53251        -3.46663         4.55810
     2006.53525         2.17317         4.48281
     2006.53798         3.17596         4.54530
     2006.54072         3.22376         4.67706
     2006.54346         6.39456         4.37138
     2006.54620        -0.88564         4.55208
     2006.54893        -1.72984         4.41128
     2006.55167         0.38296         4.39171
     2006.55441        -0.35924         4.42709
     2006.55715         0.81756         4.45119
     2006.55989         5.61136         4.36310
     2006.56262         1.52016         4.36837
     2006.56536         1.48296         4.44968
     2006.56810        -2.08524         4.42107
     2006.57084        -3.48344         4.41730
     2006.57357         0.03736         4.45344
     2006.57631         3.33516         4.40225
     2006.57905         2.09396         4.41429
     2006.58179        -1.08624         4.39095
     2006.58453        -2.65744         4.49561
     2006.58726         0.86436         4.51518
     2006.59000         0.87915         4.55735
     2006.59274        -7.57905         4.51368
     2006.59548        -8.42625         4.54530
     2006.59822        -8.50645         4.56186
     2006.60095        -8.02865         4.41730
     2006.60369        -4.54585         4.34578
     2006.60643         0.65095         4.41580
     2006.60917        -0.01825         4.39171
     2006.61190        -5.08345         4.44516
     2006.61464        -2.52665         4.42258
     2006.61738         1.69315         4.39773
     2006.62012         1.91995         4.45194
     2006.62286        -5.12925         4.42935
     2006.62559        -3.96045         4.38945
     2006.62833        -0.38165         4.52196
     2006.63107        -4.46885         4.41655
     2006.63381        -2.90305         4.35030
     2006.63655        -1.99625         4.40978
     2006.63928        -0.94245         4.47980
     2006.64202        -0.30666         4.44516
     2006.64476         1.92514         4.44215
     2006.64750         6.55594         4.57014
     2006.65023         0.57774         4.56337
     2006.65297        -7.33046         4.62134
     2006.65571        -8.79766         4.61155
     2006.65845        -5.32686         4.65372
     2006.66119        -4.36306         4.69287
     2006.66392        -3.23126         4.62661
     2006.66666        -3.47646         4.61381
     2006.66940        -5.29366         4.67781
     2006.67214        -4.61186         4.64242
     2006.67488        -5.52906         4.75310
     2006.67761        -5.27726         4.77795
     2006.68035        -5.10746         4.63489
     2006.68309        -0.13466         4.84345
     2006.68583        -4.41786         4.75837
     2006.68856        -8.27106         4.54003
     2006.69130        -6.09526         4.51819
     2006.69404         2.19453         4.52346
     2006.69678        -2.17667         4.48582
     2006.69952         5.23613         4.49787
