# ================= DQRFIT RESULTS ================
# INPUT FILE: series/P363.rad
# OUTPUT: LDETRENDED
# FILTER FUNCTION: f(t)
# f(t)=+line(t)+annual(t)
# line(t)=+P 1+P 2*t
# annual(t)=+P 3*sin(2*pi*t+P 4)
# heav(t)=(t<0?0:1)
# TOTAL OBSERVATIONS MTOT= 3677
# INITIAL TIME INTERVAL= 2017.5222 - 2007.4333 = 10.0890
# TOTAL OBSERVATIONS AFTER PREFILTER M= 3676
# TIME-SPAN= 2017.5222 - 2007.4333 = 10.0890
# OBSERVATIONS: USED M=  3676 REJECTED MTOT-M=     1 %USED=   99.9728
# N=  4 PARAMETERS
# MAXSIG= 175.00000
# MAXRES=  18.76815
# SCALE FACTOR FOR LENGTHS: SCL=  10.00000
# SCALE FACTOR FOR SIGMAS: SCLSIG=   1.00000
# CHI^2=   2699.878 DOF=  3672 CHI^2/DOF=   0.73526
# RMS=      4.790 SDEV=      4.790 MEAN=    0.02554
#  P #       PARAMETER +-    SIGMA %error PARAMETER NAME
# P 1 =      -880.52092 +-   54.369   6.17 YZERO                              
# P 2 =         0.43836 +-    0.027   6.16 SLOPE                              
# P 3 =         4.50137 +-    0.112   2.48 ANNUAL AMPLITUDE                   
# P 4 =        -3.11861 +-    0.035   1.13 ANNUAL PHASE                       
#       T            LDETRENDED       SIG_OBS
     2007.43326         1.04276         4.67752
     2007.43600        -8.41444         4.84987
     2007.43874       -16.01864         4.79928
     2007.44147        -2.60784         4.76241
     2007.44421        -4.41104         4.88588
     2007.44695        -4.46325         4.69810
     2007.44969        -8.37845         4.66980
     2007.45243        -7.73765         4.70324
     2007.45516        -5.84485         4.67495
     2007.45790         2.81095         4.67923
     2007.46064        -3.15425         4.65780
     2007.46338        -2.05745         4.66980
     2007.46611        -8.81765         4.68781
     2007.46885         1.99215         4.66294
     2007.47159        -4.44405         4.67580
     2007.47433        -8.18525         4.68352
     2007.47707       -10.00045         4.81300
     2007.47980        -8.14665         4.66380
     2007.48254       -12.25185         4.66980
     2007.48528        -8.62605         4.71439
     2007.48802        -5.03325         4.78127
     2007.49076        -1.66745         4.76841
     2007.49349        -7.02865         4.72811
     2007.49623         0.72715         4.69895
     2007.49897        -1.64105         4.77870
     2007.50171        -4.69625         4.67066
     2007.50444        -8.32845         4.67838
     2007.50718         1.70135         4.73154
     2007.50992        -0.12085         4.69895
     2007.51266        -1.33905         4.69467
     2007.51540        -0.97125         4.74354
     2007.51813        -1.87145         4.75726
     2007.52087        -7.04265         4.73583
     2007.52361         7.37915         4.82243
     2007.52635         3.90995         4.83444
     2007.52908         2.43075         4.71525
     2007.53182        -3.12545         4.86359
     2007.53456        -2.70065         5.07196
     2007.53730         1.54715         4.77956
     2007.54004         4.02795         4.76327
     2007.54277        -1.76425         4.91418
     2007.54551        -1.67845         4.83529
     2007.54825         5.96535         4.85502
     2007.55099        -6.89485         4.86788
     2007.55373         8.06395         4.84987
     2007.55646         4.77875         4.83272
     2007.55920         6.61555         4.77699
     2007.56194         4.99435         4.85073
     2007.56468         6.75515         4.84215
     2007.56741         1.78295         4.78899
     2007.57015         6.60375         4.82843
     2007.57289         5.59355         4.75469
     2007.57563         7.70835         4.76584
     2007.57837        -1.04185         4.81557
     2007.58110         7.39495         4.82329
     2007.58384        10.80975         4.75898
     2007.58658        -0.30145         4.72039
     2007.58932         7.60135         4.74354
     2007.59206         4.65615         4.77098
     2007.59479         7.12295         4.91075
     2007.59753         3.84475         4.90646
     2007.60027         7.22154         4.80528
     2007.60301        14.86234         4.79842
     2007.60574         9.33114         4.79070
     2007.60848         8.96094         4.83272
     2007.61122         3.79274         4.91590
     2007.61396         4.78254         4.82072
     2007.61670         2.41834         5.05652
     2007.61943         2.53214         5.03165
     2007.62217         9.60394         5.22116
     2007.62491         7.30574         5.10883
     2007.62765         1.19654         5.16199
     2007.63039         5.71134         5.14227
     2007.63312         0.83214         4.98192
     2007.63586         2.79494         4.91247
     2007.63860         1.95974         4.95620
     2007.64134        15.46454         4.85759
     2007.64407        14.44034         5.09082
     2007.64681         5.29714         4.96391
     2007.64955         6.85294         5.16199
     2007.65229         6.62474         5.10711
     2007.65503         4.20554         5.02479
     2007.65776         3.91534         5.06252
     2007.66050         8.41514         5.05824
     2007.66324        16.57194         5.02308
     2007.66598         7.58374         5.01365
     2007.66872         0.16154         5.01879
     2007.67145         6.37234         5.05309
     2007.67419         2.80714         5.19114
     2007.67693        13.52294         4.87988
     2007.67967         7.27674         4.98964
     2007.68240         9.57754         5.04366
     2007.68514         8.47434         5.09682
     2007.68788        12.14914         5.00936
     2007.69062        13.01494         4.90303
     2007.69336         9.88274         4.95448
     2007.69609         7.99854         4.95620
     2007.69883         7.57434         5.06424
     2007.70157        10.35914         4.92533
     2007.70431         9.82994         5.09339
     2007.70705        12.37474         4.94676
     2007.70978        15.66554         5.02651
     2007.71252         6.35234         4.89703
     2007.71526        16.11714         4.78299
     2007.71800        13.33294         4.78556
     2007.72073         7.59774         4.85673
     2007.72347        17.94754         4.83015
     2007.72621        11.73334         4.81900
     2007.72895        10.54214         4.79928
     2007.73169         8.23694         4.83015
     2007.73442         5.10674         4.75898
     2007.73716         4.57454         4.93991
     2007.73990        10.02334         4.93305
     2007.74264        11.11314         4.76927
     2007.74538        17.09394         4.79671
     2007.74811        14.04474         4.90218
     2007.75085         9.80654         5.03851
     2007.75359        12.42934         5.06510
     2007.75633        15.11613         4.92533
     2007.75906        15.07193         4.79756
     2007.76180         8.22173         4.79671
     2007.76454         6.25553         4.75469
     2007.76728         9.10333         5.11740
     2007.77002        15.69213         5.21515
     2007.77275         4.35693         5.10797
     2007.77549         8.69073         4.81986
     2007.77823        13.19953         4.79413
     2007.78097        11.32133         4.73840
     2007.78371         8.64813         4.78899
     2007.78644         5.06693         4.88417
     2007.78918         8.12573         4.83958
     2007.79192         7.42353         5.00422
     2007.79466        18.07433         4.92104
     2007.79739        14.76813         5.14484
     2007.80013        13.43893         4.94848
     2007.80287         9.50273         4.76670
     2007.80561         1.53353         4.79671
     2007.80835         9.79833         4.86445
     2007.81108        11.73913         4.96048
     2007.81382         6.94093         5.04194
     2007.81656         1.04973         4.92790
     2007.81930         3.73053         4.92533
     2007.82203         4.69133         4.82500
     2007.82477         6.98813         4.88503
     2007.82751         3.13793         4.89189
     2007.83025         6.24273         4.81729
     2007.83299         1.17953         4.76327
     2007.83572         1.77633         4.75383
     2007.83846         2.54913         4.80700
     2007.84120         7.93293         4.76584
     2007.84394         0.47673         4.78813
     2007.84668        -1.85547         4.81557
     2007.84941         0.60733         4.84215
     2007.85215         4.22513         4.98792
     2007.85489         4.36893         5.11654
     2007.85763         1.11473         5.06424
     2007.86036         4.32453         4.82500
     2007.86310         1.85233         5.07453
     2007.86584         7.70713         4.86016
     2007.86858         2.97193         4.85845
     2007.87132         7.18273         5.03251
     2007.87405         9.45053         4.94934
     2007.87679         5.07533         4.94162
     2007.87953        -3.86587         4.84987
     2007.88227        -5.24307         4.80785
     2007.88501         3.46273         4.75126
     2007.88774        -3.44847         4.81386
     2007.89048        -2.83867         4.78041
     2007.89322        -2.73687         4.89789
     2007.89596         1.67793         4.86702
     2007.89869         2.36373         4.81643
     2007.90143        -1.42947         4.91933
     2007.90417        -3.44067         5.04623
     2007.90691         4.27913         4.84301
     2007.90965        -1.21708         4.93390
     2007.91238         2.16172         4.82672
     2007.91512         3.69452         4.86102
     2007.91786         2.15132         4.84730
     2007.92060       -11.44988         5.09940
     2007.92334        -2.95408         4.97763
     2007.92607         4.21472         4.84473
     2007.92881         2.66652         4.93905
     2007.93155         2.48032         4.95534
     2007.93429         0.66812         4.87045
     2007.93702        -3.07908         4.91933
     2007.93976         1.42772         4.83186
     2007.94250         0.81652         4.91161
     2007.94524         1.61732         5.05824
     2007.94798        -1.80988         4.94848
     2007.95071         2.89092         4.93133
     2007.95345         3.80472         5.02222
     2007.95619         6.86552         4.99135
     2007.95893         9.66832         5.01965
     2007.96167         7.60912         5.02394
     2007.96440        10.23492         4.96134
     2007.96714         5.48072         4.97163
     2007.96988        -4.64348         4.91332
     2007.97262        -4.08968         5.05566
     2007.97535        -1.90388         5.06853
     2007.97809        -1.46708         4.97678
     2007.98083         5.55772         4.96649
     2007.98357         4.95752         4.90818
     2007.98631         2.08432         4.98278
     2007.98904        -4.64988         5.04023
     2007.99178         3.04892         4.97678
     2007.99452        -0.79028         5.02651
     2007.99726         2.14752         4.84473
     2008.00000        -8.18568         4.86445
     2008.00273        -9.03488         4.88760
     2008.00547        14.10392         4.86788
     2008.00821         6.61272         4.87902
     2008.01095        -6.14048         4.84215
     2008.01368       -10.08268         4.78470
     2008.01642         2.61112         4.77441
     2008.01916         1.61492         4.88074
     2008.02190        -1.66828         4.89103
     2008.02464         0.11552         4.93133
     2008.02737         0.12832         4.80099
     2008.03011        -0.07888         4.86445
     2008.03285        -4.77808         4.79413
     2008.03559        -0.62028         4.83015
     2008.03833        -5.97348         4.82072
     2008.04106       -11.90268         4.83015
     2008.04380        -5.88788         4.83444
     2008.04654        -3.88708         4.82415
     2008.04928        -6.00828         4.78813
     2008.05201        -3.70548         4.77784
     2008.05475         2.68032         4.73840
     2008.05749        -6.42288         4.74526
     2008.06023        -0.20308         4.72468
     2008.06297         1.03071         4.73840
     2008.06570        -1.46249         4.76069
     2008.06844         4.12731         4.76670
     2008.07118         0.67811         4.74955
     2008.07392         0.29491         4.75898
     2008.07666         7.97571         4.99478
     2008.07939        -4.80349         4.98192
     2008.08213        -3.70569         4.83444
     2008.08487        -8.01689         4.77699
     2008.08761        -2.33509         4.74955
     2008.09034         0.66971         4.79842
     2008.09308        -1.92449         4.79756
     2008.09582        -0.31169         4.92619
     2008.09856        -1.69689         4.97763
     2008.10130        -2.52509         4.98364
     2008.10403        -5.19529         4.92704
     2008.10677        -1.50649         4.74011
     2008.10951        -4.34669         4.84816
     2008.11225        -1.44289         4.77870
     2008.11498        -5.35309         4.76670
     2008.11772         0.03071         4.83101
     2008.12046        -3.01249         4.78727
     2008.12320         0.72031         4.83701
     2008.12594         1.53511         4.75040
     2008.12867        -1.38009         4.75726
     2008.13141         0.27671         4.78899
     2008.13415         4.37251         4.80357
     2008.13689         1.42831         4.76155
     2008.13963         7.36511         4.75298
     2008.14236        -0.78409         4.76841
     2008.14510         3.01771         4.76584
     2008.14784         6.79451         4.77098
     2008.15058        -0.33369         4.77013
     2008.15331        -4.25689         4.74783
     2008.15605        -2.16909         4.80528
     2008.15879        -2.12229         4.76241
     2008.16153        -4.98849         4.86530
     2008.16427        -1.06769         4.85416
     2008.16700        -4.96089         4.76069
     2008.16974       -12.52209         4.84816
     2008.17248        -6.91229         4.73411
     2008.17522        -4.44849         4.89789
     2008.17796        -5.93169         4.85416
     2008.18069        -6.78389         4.80700
     2008.18343        -1.66409         4.85930
     2008.18617        -3.21029         4.77013
     2008.18891        -4.78549         4.93905
     2008.19164        -1.54569         4.86702
     2008.19438        -6.72689         4.81300
     2008.19712        -2.77109         4.86102
     2008.19986         5.26071         4.80614
     2008.20260        -4.47349         4.79070
     2008.20533        -1.91169         4.78213
     2008.20807        -2.51089         5.02994
     2008.21081         2.13391         4.99564
     2008.21355        -0.34129         4.90818
     2008.21629         0.56451         4.88674
     2008.21902        -6.65670         4.89360
     2008.22176        -7.63390         4.91418
     2008.22450         1.47790         5.01022
     2008.22724        -4.30530         4.92619
     2008.22997        -4.57950         4.99907
     2008.23271         4.35630         4.99221
     2008.23545        -2.89890         5.02308
     2008.23819        -0.25110         4.93648
     2008.24093        -9.09530         4.87559
     2008.24366        -3.09650         4.84644
     2008.24640        -4.52170         4.84730
     2008.24914        -3.28890         4.85416
     2008.25188        -0.94510         4.91675
     2008.25462        -1.21830         4.82758
     2008.25735        -3.67050         4.88417
     2008.26009        -1.60170         4.83701
     2008.26283        -5.68890         4.84816
     2008.26557         1.99290         4.83186
     2008.26830         0.12470         4.80614
     2008.27104        -0.92650         4.85416
     2008.27378        -7.97270         4.84215
     2008.27652        -2.83290         4.86359
     2008.27926        -6.48910         4.86102
     2008.28199         0.56870         4.86102
     2008.28473        -0.44950         4.93905
     2008.28747         1.76930         4.92790
     2008.29021        -0.14490         4.91332
     2008.29295         1.19590         4.85244
     2008.29568         1.47170         4.84387
     2008.29842        -4.29850         4.88846
     2008.30116       -13.90870         4.92361
     2008.30390        -3.46990         4.85759
     2008.30663        -1.61110         4.94591
     2008.30937         2.45970         5.05309
     2008.31211        -2.42550         4.91418
     2008.31485        -1.35670         4.87559
     2008.31759        -8.83990         4.97077
     2008.32032        -3.86110         4.94676
     2008.32306        -3.91130         5.05824
     2008.32580        -1.94250         5.10454
     2008.32854        -6.23170         4.91332
     2008.33128        -8.06590         4.91847
     2008.33401        -2.71710         5.01193
     2008.33675        -0.67630         4.87131
     2008.33949        -3.17650         4.90561
     2008.34223        -3.37070         4.88846
     2008.34496        -3.28390         4.94762
     2008.34770         1.24890         4.91933
     2008.35044        -1.36130         4.85759
     2008.35318        -0.10450         4.84558
     2008.35592        -2.63170         4.91161
     2008.35865        -2.94790         4.85330
     2008.36139         0.28890         4.86788
     2008.36413         3.53770         4.84387
     2008.36687        -5.38450         4.87645
     2008.36961        -5.47370         4.86102
     2008.37234        -4.23891         4.84901
     2008.37508        -3.71711         4.92018
     2008.37782        -8.89931         4.88074
     2008.38056         2.96249         4.89274
     2008.38329         0.73029         5.00422
     2008.38603        -0.60491         4.80700
     2008.38877         2.85989         4.91933
     2008.39151         5.86669         4.97678
     2008.39425         0.25549         4.78556
     2008.39698         0.68529         4.75812
     2008.39972         3.23509         4.79671
     2008.40246         1.49889         4.78127
     2008.40520         2.21269         4.79756
     2008.40794         1.22749         4.81986
     2008.41067         2.90229         4.78470
     2008.41341        -2.52891         4.78813
     2008.41615         1.29389         4.80185
     2008.41889        -0.86131         4.82415
     2008.42162         0.71749         4.88931
     2008.42436         0.05829         4.80014
     2008.42710         1.96009         4.80785
     2008.42984        -1.38511         4.86016
     2008.43258         3.17769         4.96220
     2008.43531         0.72549         4.90904
     2008.43805        -1.92271         5.08482
     2008.44079        -3.64291         4.78299
     2008.44353        -4.41511         4.74097
     2008.44626        -3.93031         4.86102
     2008.44900        -6.18951         4.80957
     2008.45174        -2.74371         4.94934
     2008.45448         3.16409         4.93905
     2008.45722        -1.58111         4.72382
     2008.45995        -3.17031         4.75641
     2008.46269        -8.08751         4.78127
     2008.46543        -7.59171         4.83529
     2008.46817        -2.68091         4.92962
     2008.47091         4.83889         4.89103
     2008.47364        -2.82531         4.79842
     2008.47638        -0.61451         4.78470
     2008.47912        -2.28071         4.86445
     2008.48186        -1.47691         4.86873
     2008.48459         2.57589         4.88760
     2008.48733        -5.18131         4.75812
     2008.49007        -5.89751         4.75126
     2008.49281         4.76429         4.96477
     2008.49555        -3.81091         4.79842
     2008.49828         3.64189         4.77956
     2008.50102        -2.34331         4.84044
     2008.50376         2.48749         4.83358
