# ================= DQRFIT RESULTS ================
# INPUT FILE: series/P379.rad
# OUTPUT: LDETRENDED
# FILTER FUNCTION: f(t)
# f(t)=+line(t)+annual(t)
# line(t)=+P 1+P 2*t
# annual(t)=+P 3*sin(2*pi*t+P 4)
# heav(t)=(t<0?0:1)
# TOTAL OBSERVATIONS MTOT= 2752
# INITIAL TIME INTERVAL= 2014.8282 - 2006.4011 =  8.4271
# TOTAL OBSERVATIONS AFTER PREFILTER M= 2729
# TIME-SPAN= 2014.8282 - 2006.4011 =  8.4271
# OBSERVATIONS: USED M=  2729 REJECTED MTOT-M=    23 %USED=   99.1642
# N=  4 PARAMETERS
# MAXSIG= 175.00000
# MAXRES=  25.71976
# SCALE FACTOR FOR LENGTHS: SCL=  10.00000
# SCALE FACTOR FOR SIGMAS: SCLSIG=   1.00000
# CHI^2=   2258.210 DOF=  2725 CHI^2/DOF=   0.82870
# RMS=      5.286 SDEV=      5.287 MEAN=    0.07662
#  P #       PARAMETER +-    SIGMA %error PARAMETER NAME
# P 1 =      1605.98437 +-   77.005   4.79 YZERO                              
# P 2 =        -0.79653 +-    0.038   4.81 SLOPE                              
# P 3 =         5.24283 +-    0.137   2.61 ANNUAL AMPLITUDE                   
# P 4 =         3.02807 +-    0.037   1.21 ANNUAL PHASE                       
#       T            LDETRENDED       SIG_OBS
     2006.40109        -0.94533         5.18160
     2006.40383         0.22285         5.19343
     2006.40657        -1.81897         5.19525
     2006.40930        -2.88179         5.21073
     2006.41204        -1.33060         5.23895
     2006.41478        -2.55242         5.28265
     2006.41752         1.24676         5.46471
     2006.42026        -0.34706         5.30540
     2006.42299        -2.19288         5.32270
     2006.42573        -0.97570         5.28447
     2006.42847         1.40348         5.33180
     2006.43121        -0.74834         5.31906
     2006.43394        -2.01616         5.15975
     2006.43668        -6.03098         5.14610
     2006.43942         1.35320         5.15247
     2006.44216         2.93438         5.28083
     2006.44490         4.93056         5.19161
     2006.44763        -1.22925         5.16703
     2006.45037        -1.33207         5.17432
     2006.45311         0.34811         5.14155
     2006.45585        -0.88271         5.22712
     2006.45859         4.32147         5.15884
     2006.46132        -1.03335         5.28083
     2006.46406        -1.06017         5.28629
     2006.46680         3.68401         5.27536
     2006.46954        -1.25681         5.23349
     2006.47227         2.51037         5.30723
     2006.47501         6.08955         5.28356
     2006.47775         0.49373         5.29630
     2006.48049        -5.34809         5.29812
     2006.48323         0.35910         5.26626
     2006.48596         5.75628         5.31633
     2006.48870         2.78946         5.32816
     2006.49144         8.48464         5.23895
     2006.49418         4.87382         5.32088
     2006.49692         4.16200         5.21619
     2006.49965         3.06418         5.22074
     2006.50239         2.98036         5.28811
     2006.50513        -0.72846         5.33180
     2006.50787        -1.44328         5.25078
     2006.51060         1.33190         5.23167
     2006.51334        -5.20492         5.24441
     2006.51608         3.71926         5.22985
     2006.51882         2.92645         5.24532
     2006.52156         1.51963         5.27627
     2006.52429         3.33581         5.24532
     2006.52703         0.56399         5.33818
     2006.52977         4.63917         5.26899
     2006.53251         0.83535         5.26717
     2006.53525         4.47853         5.24259
     2006.53798         1.69771         5.22165
     2006.54072         6.71489         5.35456
     2006.54346         8.48707         5.07873
     2006.54620         1.53225         5.11424
     2006.54893         3.50843         5.12516
     2006.55167         0.01862         5.12880
     2006.55441         2.71080         5.10331
     2006.55715         6.36998         5.12698
     2006.55989         7.26616         5.20982
     2006.56262         8.00334         5.11150
     2006.56536         9.22252         5.05688
     2006.56810         4.31470         5.10604
     2006.57084         4.21588         5.12607
     2006.57357         3.20206         5.11059
     2006.57631         3.94524         5.11241
     2006.57905         3.69142         5.07600
     2006.58179         2.82260         5.09148
     2006.58453         7.41678         5.22347
     2006.58726         7.56797         5.24714
     2006.59000         6.23515         5.37914
     2006.59274         3.96033         5.29175
     2006.59548         3.56151         5.24987
     2006.59822         6.59269         5.28629
     2006.60095        -0.47613         5.16612
     2006.60369         4.66805         5.22165
     2006.60643         1.02423         5.15793
     2006.60917         4.59741         5.15247
     2006.61190         2.47159         5.09876
     2006.61464         6.70277         5.07145
     2006.61738         9.84295         5.11424
     2006.62012         5.72113         5.19434
     2006.62286         3.52232         5.12880
     2006.62559         3.68750         5.08510
     2006.62833         7.80268         5.25625
     2006.63107         4.12986         5.09512
     2006.63381         9.69104         5.12880
     2006.63655         7.50722         5.17796
     2006.63928         5.64940         5.14792
     2006.64202         8.56558         5.16157
     2006.64476        11.31876         5.18160
     2006.64750        14.28194         5.28902
     2006.65023         9.93912         5.41920
     2006.65297         6.06930         5.44013
     2006.65571         7.01348         5.41191
     2006.65845         6.03367         5.40645
     2006.66119         9.15185         5.43740
     2006.66392         4.74603         5.43558
     2006.66666         4.94621         5.40827
     2006.66940         5.00539         5.39007
     2006.67214         7.27457         5.40281
     2006.67488         6.75475         5.52479
     2006.67761         4.61393         5.53663
     2006.68035         6.22411         5.45106
     2006.68309        12.63429         5.58761
     2006.68583        11.38047         5.64041
     2006.68856        16.14065         5.32907
     2006.69130         9.09184         5.31360
     2006.69404        11.33802         5.30085
     2006.69678         9.02020         5.27263
     2006.69952        12.63038         5.30814
     2006.70225        15.62256         5.45470
     2006.70499         7.48274         5.23986
     2006.70773        10.86592         5.16703
     2006.71047        11.58710         5.17614
     2006.71321         8.92528         5.24441
     2006.71594        11.78846         5.17250
     2006.71868         5.97264         5.19161
     2006.72142        11.06882         5.36184
     2006.72416         9.41700         5.40554
     2006.72689         9.70919         5.26444
     2006.72963        15.46737         5.27900
     2006.73237        10.97555         5.15975
     2006.73511        10.72873         5.19434
     2006.73785         4.24491         5.22165
     2006.74058         9.29009         5.19343
     2006.74332        16.09627         5.22803
     2006.74606        16.18245         5.24259
     2006.74880         7.96963         5.21619
     2006.75154         9.97781         5.35365
     2006.75427         8.65099         5.35456
     2006.75701         9.64117         5.23713
     2006.75975        12.39535         5.19890
     2006.76249         4.54054         5.26535
     2006.76522        10.91072         5.30085
     2006.76796         3.97790         5.29084
     2006.77070         7.13008         5.22256
     2006.77344        11.44126         5.17887
     2006.77618        14.01844         5.20163
     2006.77891        14.47062         5.16248
     2006.78165        11.25180         5.09330
     2006.78439        11.44998         5.16157
     2006.78713        17.41816         5.32088
     2006.78987         9.06034         5.19070
     2006.79260        10.31252         5.12880
     2006.79534         6.13770         5.18251
     2006.79808         2.09289         5.18524
     2006.80082         9.07607         5.30540
     2006.80355         8.21625         5.17250
     2006.80629         9.95643         5.15702
     2006.80903         7.53261         5.13335
     2006.81177        12.53679         5.19708
     2006.81451         3.38197         5.29994
     2006.81724         4.20315         5.26808
     2006.81998         5.60933         5.12971
     2006.82272         6.17951         5.10968
     2006.82546         9.29769         5.14246
     2006.82820         7.26787         5.10240
     2006.83093         9.48506         5.13062
     2006.83367         9.19224         5.13790
     2006.83641         6.18342         5.14883
     2006.83915         7.32160         5.18706
     2006.84188         6.50378         5.35183
     2006.84462         1.01996         5.22894
     2006.84736         2.19614         5.24987
     2006.85010         4.43332         5.28447
     2006.85284         3.46850         5.44924
     2006.85557         8.58268         5.36640
     2006.85831         3.38786         5.25534
     2006.86105         3.74904         5.37550
     2006.86379         0.19622         5.38642
     2006.86653         6.56741         5.37641
     2006.86926        10.56659         5.12243
     2006.87200         5.70877         5.15338
     2006.87474         4.81595         5.13426
     2006.87748         2.93713         5.13062
     2006.88021         1.86431         5.15065
     2006.88295         0.66749         5.16885
     2006.88569        -1.17633         5.10422
     2006.88843         4.34485         5.11879
     2006.89117         2.08503         5.09694
     2006.89390        -2.10379         5.24714
     2006.89664        10.06739         5.25807
     2006.89938        25.09057         5.08784
     2006.90485         9.55394         5.14155
     2006.90759        17.18012         5.13517
     2006.91033        15.22530         5.15065
     2006.91307         4.28848         5.15429
     2006.91581        -4.40834         5.09603
     2006.91854        -5.32216         5.11515
     2006.92128        -2.77298         5.08966
     2006.92402        -3.08680         5.10877
     2006.92676        -3.56962         5.18615
     2006.92950        -0.24044         5.19981
     2006.93223         2.00574         5.08693
     2006.93497         5.77392         5.25443
     2006.93771        -1.23489         5.15520
     2006.94045         8.10029         5.16066
     2006.94318         0.55347         5.21983
     2006.94592        -1.70935         5.14610
     2006.94866        -0.63517         5.17705
     2006.95140         3.22801         5.10513
     2006.95414        14.21819         5.24077
     2006.95687         5.08237         5.12880
     2006.95961        -2.61145         5.13153
     2006.96235         0.21973         5.13608
     2006.96509         0.92791         5.21619
     2006.96783         1.48209         5.17705
     2006.97056         0.50728         5.11059
     2006.97330        -2.83454         5.14337
     2006.97604         0.26764         5.20436
     2006.97878         0.40082         5.15156
     2006.98151        -2.16300         5.16794
     2006.98425        -0.67082         5.19070
     2006.98699         8.07836         5.30358
     2006.98973        -1.47146         5.23986
     2006.99247        -8.97128         5.37095
     2006.99520        -2.16310         5.32543
     2006.99794        -1.54592         5.28993
     2007.00342         7.10644         5.27627
     2007.00616        -1.40037         5.19434
     2007.00889        -1.84419         5.18524
     2007.01163        -1.69501         5.17068
     2007.01437        12.65717         5.26262
     2007.01711        -4.11565         5.24532
     2007.01984       -15.59647         5.22347
     2007.02258        -5.66529         5.06417
     2007.02532        -2.17711         5.07600
     2007.02806        -0.39393         5.14883
     2007.03080        -1.63075         4.96585
     2007.03353       -10.31157         4.99407
     2007.03627        -9.53239         4.93217
     2007.03901       -10.55021         4.92853
     2007.04175        -9.27502         4.99862
     2007.04449        -8.15084         4.89576
     2007.04722       -14.21766         5.01228
     2007.04996        -6.32048         5.08328
     2007.05270        -4.86430         5.07873
     2007.05544        -3.50912         4.90850
     2007.05817        -8.88394         4.89029
     2007.06091        -6.95176         4.91669
     2007.06365        -4.58358         4.88665
     2007.06639        -5.23540         5.02775
     2007.06913        -3.19522         4.88847
     2007.07186        -0.56804         4.86298
     2007.07460        -4.06186         4.86936
     2007.07734        -6.80167         4.85661
     2007.08008        -4.37349         4.90395
     2007.08282        -1.23631         4.86845
     2007.08555        -2.20913         4.97040
     2007.08829        -3.41695         4.96494
     2007.09103         4.79723         4.98679
     2007.09377        -3.42759         4.87482
     2007.09650        -3.53141         4.87209
     2007.09924        -1.76223         4.89485
     2007.10198        -1.41805         4.88665
     2007.10472        -1.87787         4.99953
     2007.10746        -5.05769         4.97769
     2007.11019        -4.38551         4.88119
     2007.11293         1.04968         4.86845
     2007.11567        -4.76614         4.89120
     2007.11841        -1.46196         4.91578
     2007.12115        -5.79178         4.88392
     2007.12388        -7.94160         4.90122
     2007.12662        -8.15042         4.90486
     2007.12936        -1.93424         5.03048
     2007.13210        -1.08306         4.92489
     2007.13483         5.80812         4.92944
     2007.13757        -4.72270         4.95584
     2007.14031        -2.67452         4.92671
     2007.14305        -4.69234         4.95038
     2007.14579        -6.78915         4.97586
     2007.14852        -0.42397         5.04778
     2007.15126         5.31121         4.95402
     2007.15400        11.10039         4.94127
     2007.15674        17.42357         4.95675
     2007.15948        11.92175         4.95311
     2007.16769        -2.36071         5.07782
     2007.17043        -6.63653         5.05688
     2007.17316        -2.16635         5.06781
     2007.17590        -2.90717         5.06235
     2007.17864         0.15001         5.07964
     2007.18138        -2.84280         5.04778
     2007.18412         0.27638         5.02502
     2007.18685        -1.39344         5.15520
     2007.18959        -4.73326         5.05688
     2007.19233        -7.23408         5.05962
     2007.19507        -2.58990         4.93945
     2007.19780        -3.83972         4.93854
     2007.20054        -7.01354         5.00409
     2007.20328        -4.13136         5.02684
     2007.20602        -4.42318         4.98588
     2007.20876        -2.37100         4.99771
     2007.21149        -8.27182         4.94582
     2007.21423        -1.45664         4.98042
     2007.21697        -3.09845         5.00044
     2007.21971         1.14073         4.98315
     2007.22245        -2.58109         4.96676
     2007.22518         1.31009         4.95220
     2007.22792         0.08827         4.92398
     2007.23066         2.02145         4.97313
     2007.23340        -1.75737         5.06417
     2007.23613       -12.18419         5.02320
     2007.23887        -5.92301         4.92489
     2007.24161        -5.86183         4.92853
     2007.24435        -3.72665         4.95311
     2007.24709        -1.12847         4.96858
     2007.24982        -3.70029         4.93490
     2007.25256        -4.51410         4.97222
     2007.25530        -7.06592         4.95129
     2007.25804        -3.03274         4.99225
     2007.26078        -1.49756         5.01683
     2007.26351         1.70562         4.96676
     2007.26625         3.12580         4.97040
     2007.26899         0.65798         4.92125
     2007.27173         2.01516         4.99316
     2007.27446         5.12934         4.95493
     2007.27720         6.40452         4.92580
     2007.27994         0.77070         4.92762
     2007.28268         4.62388         4.94856
     2007.28542         0.13007         4.92307
     2007.28815         3.97125         4.96039
     2007.29089        -2.96957         4.94218
     2007.29363         1.06861         4.94400
     2007.29637        -3.55421         4.93945
     2007.29911        -0.15603         4.92398
     2007.30184         3.25215         4.90031
     2007.30458         1.10233         4.88938
     2007.30732         0.69651         4.99953
     2007.31006        -0.30031         5.10513
     2007.31279         0.98087         5.02320
     2007.31553        -0.40995         4.92216
     2007.31827        -1.71077         4.93217
     2007.32101        -4.40358         4.93399
     2007.32375        -1.89840         4.96676
     2007.32648         3.05678         4.97222
     2007.32922        -0.77404         4.96767
     2007.33196        -3.97686         5.09876
     2007.33470        -4.33668         5.07600
     2007.33744        -2.07250         4.95857
     2007.34017        -2.65232         4.96403
     2007.34291        -5.29714         4.97040
     2007.34565        -4.99696         4.95948
     2007.34839        -1.20578         4.98133
     2007.35112        -3.32460         4.96676
     2007.35386        -4.49442         5.28174
     2007.35660        -5.08323         5.31269
     2007.35934        -0.76605         5.05415
     2007.36208        -5.37387         5.02320
     2007.36481        -4.55669         5.09967
     2007.36755         0.69049         5.03504
     2007.37029        -2.26233         5.03777
     2007.37303         1.12985         5.18160
     2007.37577        -5.20497         5.18615
     2007.37850        -5.35579         5.03959
     2007.38124        -5.73861         5.03231
     2007.38398        -2.65143         5.04141
     2007.38672        -7.17825         5.02502
     2007.38945        -3.62707         5.07236
     2007.39219        -4.07688         5.14883
     2007.39493        -3.00770         5.04596
     2007.39767        -6.23252         4.98679
     2007.40041         1.13766         5.01774
     2007.40314        -7.15516         4.95129
     2007.40588        -1.06898         4.97131
     2007.40862         1.72420         5.01137
     2007.41136        -4.12762         4.93490
     2007.41410        -1.91044         4.97860
     2007.41683        -4.31826         4.96585
     2007.41957         0.01492         5.00135
     2007.42231         4.09810         5.04050
     2007.42505         1.85029         5.07691
     2007.42778         2.31347         4.95675
     2007.43052        -0.83635         4.99134
     2007.43326        -1.24517         4.94947
     2007.43600        -1.16699         4.97495
     2007.43874         2.82419         5.01956
     2007.44147        -3.16563         5.04141
     2007.44421        -5.26945         5.03868
     2007.44695        -8.04827         5.00135
     2007.44969        -7.29609         4.93308
     2007.45243        -4.70491         4.91760
     2007.45516        -5.12073         4.92944
     2007.45790        -3.21955         4.95675
     2007.46064        -1.00436         4.97586
     2007.46338         1.87082         4.93126
     2007.46611        -0.10500         4.93399
     2007.46885        -1.43782         5.01410
     2007.47159        -0.39464         4.96403
     2007.47433        -5.15846         4.94127
     2007.47707        -6.70728         5.14792
     2007.47980       -10.64910         4.93126
     2007.48254        -7.47292         4.93308
