# ================= DQRFIT RESULTS ================
# INPUT FILE: series/P428.rad
# OUTPUT: LDETRENDED
# FILTER FUNCTION: f(t)
# f(t)=+line(t)
# line(t)=+P 1+P 2*t
# heav(t)=(t<0?0:1)
# TOTAL OBSERVATIONS MTOT=  127
# INITIAL TIME INTERVAL= 2006.0087 - 2005.5797 =  0.4290
# TOTAL OBSERVATIONS AFTER PREFILTER M=  122
# TIME-SPAN= 2006.0068 - 2005.5797 =  0.4271
# OBSERVATIONS: USED M=   122 REJECTED MTOT-M=     5 %USED=   96.0630
# N=  2 PARAMETERS
# MAXSIG= 175.00000
# MAXRES=  85.54822
# SCALE FACTOR FOR LENGTHS: SCL=  10.00000
# SCALE FACTOR FOR SIGMAS: SCLSIG=   1.00000
# CHI^2=    141.024 DOF=   120 CHI^2/DOF=   1.17520
# RMS=      6.800 SDEV=      6.828 MEAN=   -0.01545
#  P #       PARAMETER +-    SIGMA %error PARAMETER NAME
# P 1 =    -10376.80273 +- 9358.373  90.19 YZERO                              
# P 2 =       -23.51893 +-    4.666  19.84 SLOPE                              
#       T            LDETRENDED       SIG_OBS
     2005.57974        -5.17691         6.94454
     2005.58247         3.26949         7.00742
     2005.58521         3.35788         7.01609
     2005.58795         0.72027         6.64317
     2005.59069         0.91966         6.72014
     2005.59342       -10.14595         6.69954
     2005.59616         0.15244         6.70713
     2005.59890         0.87583         6.71363
     2005.60164         6.28823         6.71147
     2005.60438         1.28262         6.68762
     2005.60711        -6.75799         6.64534
     2005.60985        -5.85760         6.84481
     2005.61259        -2.12521         6.84697
     2005.61533        -1.19482         6.71255
     2005.61807         1.50357         6.64859
     2005.62080         2.81596         6.64100
     2005.62354         0.09136         6.88492
     2005.62628        -2.20825         6.84264
     2005.62902         1.88014         6.76784
     2005.63175         1.57053         6.69195
     2005.63449        -0.15608         6.75483
     2005.63723        -1.84469         6.70496
     2005.63997        -3.15430         6.78518
     2005.64271         1.04810         6.80036
     2005.64544        -1.67451         6.77326
     2005.64818         2.09088         6.71472
     2005.65092        -3.66473         6.75158
     2005.65366        -3.67034         6.71797
     2005.65639        -2.47695         6.72881
     2005.65913        -2.09456         6.81337
     2005.66187        -8.81017         6.78085
     2005.66461        -1.76377         6.73748
     2005.66735        -1.98938         6.63558
     2005.67008         0.72401         6.65401
     2005.67282         1.83340         6.75808
     2005.67556         3.30279         6.76784
     2005.67830        -4.70582         6.64642
     2005.68104        -4.43243         6.74074
     2005.68377         0.38297         6.74074
     2005.68651         2.13736         6.79169
     2005.68925        -7.22725         6.89684
     2005.69199        -6.61986         6.65509
     2005.69472        -2.07647         6.73857
     2005.69746        -4.45108         6.71255
     2005.70020        10.39731         6.91202
     2005.70294         7.34370         6.98140
     2005.70568        -7.98990         6.91093
     2005.70841        -1.11851         6.98248
     2005.71115        -4.78612         6.76784
     2005.71389         1.51727         6.63883
     2005.71663         6.28066         6.90877
     2005.80158        -4.66442         7.03669
     2005.80424         1.03918         6.73857
     2005.80698         8.85557         6.63775
     2005.80971         9.45097         6.63775
     2005.81245         8.37536         6.68328
     2005.81519         3.86975         6.63775
     2005.81793         5.21214         6.88275
     2005.82067         8.05053         6.62040
     2005.82340        13.33992         6.71905
     2005.82614        14.11331         6.68111
     2005.82888         7.05270         6.57487
     2005.83162         8.21410         6.82421
     2005.83436        10.07749         6.94454
     2005.83709         1.12088         6.91093
     2005.83983        10.25727         6.77434
     2005.84257        19.16966         6.85131
     2005.84531         8.73105         7.18520
     2005.84804        18.49644         7.10932
     2005.85078         0.04884         6.89250
     2005.85352        -1.15877         6.86649
     2005.85626        -1.40438         6.88058
     2005.85900         7.07601         6.94020
     2005.86173        -0.78560         6.98899
     2005.86447         6.88779         6.74616
     2005.86721        -1.23382         6.79819
     2005.86995         1.92457         6.85239
     2005.87269        -3.90803         6.86866
     2005.87542        -8.62264         6.70388
     2005.87816         1.32475         6.74290
     2005.88090        -2.44586         6.70605
     2005.88364        -0.09647         6.74507
     2005.88637        -5.69008         6.71905
     2005.88911        -1.42169         6.84914
     2005.89185         5.13271         6.76675
     2005.89459        -3.63790         6.67352
     2005.89733        -3.21551         6.80578
     2005.90006        -6.14412         6.75808
     2005.90280       -12.84673         6.86866
     2005.90554       -17.58234         6.68870
     2005.90828        -1.84995         6.73531
     2005.91102        13.17544         6.72664
     2005.91375        -9.21416         6.72881
     2005.91649         0.02523         6.82963
     2005.91923         5.08262         6.90660
     2005.92197        -0.90599         6.73423
     2005.92470        -4.96760         6.80253
     2005.92744        -9.01121         6.81987
     2005.93018       -16.16482         6.78085
     2005.93292        -3.86442         6.83071
     2005.93566        -3.23603         6.70062
     2005.93839        -0.01764         6.77651
     2005.94113         1.19575         6.77976
     2005.94387        -0.42286         6.80686
     2005.94661        -0.21847         6.86215
     2005.94935        -6.29508         6.94562
     2005.95208        -8.81569         6.80903
     2005.95482        -8.06129         6.99116
     2005.95756        -4.96290         6.97489
     2005.96030        -1.25751         6.78085
     2005.96303        -8.96912         6.75916
     2005.96577        -9.07273         7.36407
     2005.96851        -3.54734         7.56680
     2005.97125        -7.30095         7.18954
     2005.97399         6.60844         7.18087
     2005.97672       -15.09616         7.34239
     2005.97946        -6.53077         7.30228
     2005.98220         3.92162         6.85023
     2005.98494        10.91501         6.78627
     2005.98767         3.91040         7.03777
     2005.99041         5.16279         7.12883
     2005.99589        21.32458         6.92828
