# ================= DQRFIT RESULTS ================
# INPUT FILE: series/P443.rad
# OUTPUT: LDETRENDED
# FILTER FUNCTION: f(t)
# f(t)=+line(t)+annual(t)
# line(t)=+P 1+P 2*t
# annual(t)=+P 3*sin(2*pi*t+P 4)
# heav(t)=(t<0?0:1)
# TOTAL OBSERVATIONS MTOT= 3749
# INITIAL TIME INTERVAL= 2022.7488 - 2008.4517 = 14.2971
# TOTAL OBSERVATIONS AFTER PREFILTER M= 3703
# TIME-SPAN= 2022.7488 - 2008.4517 = 14.2971
# OBSERVATIONS: USED M=  3703 REJECTED MTOT-M=    46 %USED=   98.7730
# N=  4 PARAMETERS
# MAXSIG= 175.00000
# MAXRES=  23.30091
# SCALE FACTOR FOR LENGTHS: SCL=  10.00000
# SCALE FACTOR FOR SIGMAS: SCLSIG=   1.00000
# CHI^2=   3505.033 DOF=  3699 CHI^2/DOF=   0.94756
# RMS=      5.293 SDEV=      5.293 MEAN=    0.00567
#  P #       PARAMETER +-    SIGMA %error PARAMETER NAME
# P 1 =       -91.17591 +-   41.248  45.24 YZERO                              
# P 2 =         0.04596 +-    0.020  44.52 SLOPE                              
# P 3 =         7.26665 +-    0.122   1.68 ANNUAL AMPLITUDE                   
# P 4 =        -3.01902 +-    0.024   0.78 ANNUAL PHASE                       
#       T            LDETRENDED       SIG_OBS
     2008.45174        -3.99649         5.44925
     2008.45448        -3.46962         5.48235
     2008.45722        -4.92374         5.33925
     2008.45995        -1.43987         5.33925
     2008.46269        -8.26899         5.33536
     2008.46543        -4.59812         5.33731
     2008.46817        -7.12824         5.31589
     2008.47091        -4.82637         5.43952
     2008.47364        -9.66650         5.42297
     2008.47638         2.44938         5.35872
     2008.47912        -2.84375         5.30518
     2008.48186         0.20213         5.32368
     2008.48459        -1.47200         5.50863
     2008.48733        -5.99713         5.35093
     2008.49007        -3.48425         5.32757
     2008.49281         1.41962         5.31297
     2008.49555        -1.76150         5.45022
     2008.49828        -2.22663         5.41421
     2008.50102        -2.95375         5.46580
     2008.50376         3.49312         5.59040
     2008.50650         3.19599         5.33147
     2008.50924         0.11187         5.31784
     2008.51197         4.53274         5.35970
     2008.51471         1.11562         5.34509
     2008.51745        -0.80951         5.35385
     2008.52019         8.72236         5.31200
     2008.52292        -0.14776         5.43173
     2008.52566        -1.04289         5.50863
     2008.52840         6.01299         5.31589
     2008.53114         5.82086         5.38792
     2008.53388         8.04574         5.34412
     2008.53661         6.29361         5.31200
     2008.53935         0.77648         5.31200
     2008.54209        -4.07264         5.32173
     2008.54483         2.89623         5.43465
     2008.54757         7.69811         5.46483
     2008.55030        10.13498         5.30908
     2008.55304         9.32685         5.31881
     2008.55578         3.57173         5.31784
     2008.55852         8.59660         5.35580
     2008.56125         5.67148         5.31589
     2008.56399        11.94335         5.28669
     2008.56673        13.09823         5.36164
     2008.56947         6.46810         5.30421
     2008.57221         7.85297         5.45509
     2008.57494         6.96885         5.43173
     2008.57768        12.35572         5.44438
     2008.58042        10.82460         5.28961
     2008.58316        18.84747         5.36943
     2008.58590         9.37935         5.23802
     2008.58863         8.83822         5.44244
     2008.59137         2.92309         5.25651
     2008.59411         6.95997         5.27209
     2008.59685         7.61884         5.28766
     2008.59958        13.82072         5.57093
     2008.60232        14.04159         5.58748
     2008.60506         9.64446         5.48527
     2008.60780         4.93134         5.38014
     2008.61054         5.07421         5.33536
     2008.61327         7.54809         5.34120
     2008.61601        13.19696         5.35191
     2008.61875         7.76884         5.36262
     2008.62149        13.33371         5.40837
     2008.62423        13.89858         5.32368
     2008.62696        13.54346         5.38500
     2008.62970        14.75833         5.54465
     2008.63244         9.29721         5.40350
     2008.63518        13.19908         5.48429
     2008.63791        15.19795         5.40545
     2008.64065         9.14383         5.31394
     2008.64339        11.99970         5.33049
     2008.64613        15.63958         5.50279
     2008.64887        10.33645         5.47651
     2008.65160        11.68233         5.33633
     2008.65434         9.21620         5.39863
     2008.65708        11.12007         5.62447
     2008.65982        11.59395         5.42784
     2008.66256        17.56782         5.54951
     2008.66529         9.53770         5.39766
     2008.66803         4.15957         5.39084
     2008.67077         8.19544         5.40155
     2008.67351         6.47432         5.35872
     2008.67624         7.36719         5.72376
     2008.67898         9.29807         5.42784
     2008.68172         7.81494         5.44438
     2008.68446         4.15682         5.39182
     2008.68720         7.16669         5.38500
     2008.68993        11.27956         5.44828
     2008.69267        12.04844         5.35483
     2008.69541         9.81331         5.42297
     2008.69815        17.28119         5.46969
     2008.70089        11.74806         5.39863
     2008.70362        12.50993         5.37430
     2008.70636        13.56981         5.34509
     2008.70910        10.20968         5.46775
     2008.71184         9.54956         5.56412
     2008.71457         8.32243         5.30713
     2008.71731         9.32831         5.35580
     2008.72005        12.47618         5.34509
     2008.72279         8.36005         5.29740
     2008.72553        13.08793         5.43076
     2008.72826        10.48780         5.32563
     2008.73100        11.16668         5.40837
     2008.73374        15.36355         5.50766
     2008.73648        10.27242         5.32660
     2008.73921         5.84130         5.33536
     2008.74469         7.87905         5.29642
     2008.74743        12.60892         5.35385
     2008.75017        11.19380         5.34801
     2008.75290        14.26067         5.34704
     2008.75564        18.22054         5.34899
     2008.75838        14.88942         5.32465
     2008.76112        16.19829         5.30810
     2008.76386         8.34717         5.35872
     2008.76659         8.45304         5.41713
     2008.76933         4.05791         5.41907
     2008.77207         5.76079         5.23510
     2008.77481         6.62266         5.25067
     2008.77754         5.47154         5.26430
     2008.78028         1.83441         5.29253
     2008.78302         9.53029         5.30518
     2008.78576         5.08916         5.28474
     2008.78850         3.72203         5.35191
     2008.79123        12.13091         5.38014
     2008.79397         8.96778         5.32173
     2008.79671         7.03466         5.41907
     2008.79945         0.36453         5.30129
     2008.80219        12.74040         5.29934
     2008.80492        -3.32672         5.36359
     2008.80766         8.38115         5.33633
     2008.81040         9.54103         5.33925
     2008.81314         3.14090         5.31005
     2008.81587        10.81078         5.31297
     2008.81861         1.98665         5.31005
     2008.82135         4.01752         5.31297
     2008.82409         6.32140         5.41907
     2008.82683         6.62927         5.36164
     2008.82956        12.66415         5.29448
     2008.83230         2.35202         5.27306
     2008.83504         7.87089         5.32270
     2008.83778        15.40377         5.30616
     2008.84052         8.76864         5.37040
     2008.84325        11.44152         5.27890
     2008.84599        10.32639         5.35093
     2008.84873         3.16527         5.33731
     2008.85147         2.29214         5.33925
     2008.85420         7.43201         5.39863
     2008.85694        10.56489         5.31394
     2008.85968        12.46776         5.34412
     2008.86242        -0.33936         5.36943
     2008.86516         9.96651         5.34704
     2008.86789         8.90138         5.34704
     2008.87063         4.71926         5.44633
     2008.87337         3.13213         5.35970
     2008.87611        -0.04299         5.36067
     2008.87885         2.45288         5.31589
     2008.88158         4.75276         5.37624
     2008.88432         0.73163         5.31589
     2008.88706        -1.02850         5.45022
     2008.88980        -1.29662         5.45996
     2008.89253        10.37625         5.36943
     2008.89527        -0.15487         5.46483
     2008.89801         8.76200         5.46580
     2008.90075         4.98887         5.38111
     2008.90349         2.13075         5.32855
     2008.90622         6.42562         5.32757
     2008.90896         4.79250         5.35775
     2008.91170         3.60437         5.40934
     2008.91444         4.38425         5.34023
     2008.91718         5.18012         5.32076
     2008.91991        10.21499         5.40253
     2008.92265         4.36287         5.37332
     2008.92539         3.89874         5.41226
     2008.92813         4.90162         5.41518
     2008.93086         3.95249         5.45801
     2008.93360         0.84836         5.42199
     2008.93634         2.72824         5.36067
     2008.93908        -2.59689         5.36554
     2008.94182         8.49199         5.38306
     2008.94455        -5.07014         5.45509
     2008.94729        -2.69126         5.37527
     2008.95003        -2.37639         5.30324
     2008.95277        -7.01152         5.32173
     2008.95551        -5.43764         5.35093
     2008.95824        -5.68177         5.37430
     2008.96098        -2.01389         5.37430
     2008.97193         0.35560         5.34607
     2008.97467         1.36248         5.34120
     2008.97741         3.72335         5.34315
     2008.98015         2.50623         5.32076
     2008.98288         2.95310         5.35288
     2008.98562        -1.70603         5.34899
     2008.98836        -4.65315         5.36651
     2008.99110        -8.13228         5.35191
     2008.99384       -10.86640         5.33341
     2008.99657        -1.03753         5.35775
     2008.99931        -1.92166         5.31784
     2009.00479        -3.06991         5.33633
     2009.00752        -5.34403         5.32368
     2009.01026        -6.74916         5.33633
     2009.01300        -5.90028         5.40350
     2009.01574        -4.81541         5.40545
     2009.04416       -11.60572        10.30958
     2009.04585       -10.44379         5.36164
     2009.04859        -8.40392         5.37430
     2009.05133        -9.68205         5.37527
     2009.05407        -9.43117         5.39571
     2009.05681        -8.69130         5.37040
     2009.05954        -5.62642         5.38306
     2009.06228       -12.17955         5.37624
     2009.06502        -8.15368         5.37819
     2009.06776       -11.30480         5.38987
     2009.07049        -8.98793         5.34217
     2009.07323       -12.74205         5.34315
     2009.07871        -8.35530         5.39474
     2009.08145        -7.68643         5.30616
     2009.08418        -6.69856         5.32076
     2009.08692        -8.09168         5.29837
     2009.08966       -13.15581         5.32660
     2009.09240        -8.51093         5.36456
     2009.09514        -8.62206         5.35191
     2009.09787        -4.95518         5.32173
     2009.10061        -4.84631         5.33341
     2009.10335        -6.03044         5.31297
     2009.10609        -5.57956         5.34120
     2009.10882        -4.60069         5.34315
     2009.11156       -11.31781         5.30129
     2009.11430        -7.17794         5.40837
     2009.11704        -2.98207         5.40058
     2009.11978        -3.68619         5.29934
     2009.12251        -5.19132         5.34217
     2009.12525        -7.89844         5.30908
     2009.12799        -4.76857         5.34509
     2009.13073        -2.94969         5.33828
     2009.13347       -10.10782         5.31881
     2009.13620       -11.89695         5.35580
     2009.13894        -9.06707         5.35970
     2009.14168        -7.13720         5.34607
     2009.14442        -4.47832         5.35775
     2009.14715        -8.55845         5.41323
     2009.14989        -4.97958         5.50960
     2009.15263       -12.68070         5.35483
     2009.15537        -7.56483         5.42102
     2009.15811        -8.42895         5.45120
     2009.16084       -11.30008         5.36554
     2009.16358        -4.39520         5.37040
     2009.16632        -4.65433         5.44536
     2009.16906        -2.94546         5.45509
     2009.17180        -1.40758         5.33536
     2009.17453        -1.18071         5.36651
     2009.17727        -0.58483         5.48235
     2009.18001        -4.93796         5.36164
     2009.18275       -13.01609         5.33147
     2009.18548        -9.11921         5.38500
     2009.18822        -8.33734         5.42881
     2009.19096        -8.57346         5.40545
     2009.19370        -8.59259         5.42005
     2009.19644        -5.85171         5.36262
     2009.19917        -0.55384         5.36262
     2009.20191        -0.66397         5.39084
     2009.20465       -14.01309         5.40934
     2009.20739       -13.76622         5.37624
     2009.21013       -14.49534         5.37040
     2009.21286       -10.32947         5.34801
     2009.21560        -5.99460         5.38598
     2009.21834        -5.65872         5.39669
     2009.22108         0.50815         5.38987
     2009.22381       -10.10697         5.35483
     2009.22655        -8.82110         5.36262
     2009.22929        -1.65122         5.39377
     2009.23203        -4.71435         5.32563
     2009.23477        -3.43148         5.42784
     2009.23750        -6.58960         5.42005
     2009.24024        -6.00573         5.43076
     2009.24298        -0.94685         5.41615
     2009.24572       -19.53998         5.46872
     2009.24846       -10.92011         5.38792
     2009.25119        -8.26423         5.52128
     2009.25393        16.02664         5.62544
     2009.25667         0.37052         5.42297
     2009.25941       -10.78261         5.45120
     2009.26214        -3.72073         5.43854
     2009.26488        -2.62186         5.39669
     2009.26762        -3.60999         5.43952
     2009.27036        -6.95911         5.45606
     2009.27310       -11.75924         5.43270
     2009.27583        -4.71536         5.48235
     2009.27857       -13.46549         5.47456
     2009.28131       -16.62062         5.46288
     2009.28405        -6.05974         5.49208
     2009.28679       -11.12087         5.50084
     2009.28952       -11.88499         5.47748
     2009.29226       -12.78012         5.50474
     2009.29500        -9.13924         5.47845
     2009.29774        -8.09937         5.46969
     2009.30047       -10.67450         5.47553
     2009.30321        -8.22462         5.45704
     2009.30595       -10.17575         5.53686
     2009.30869        -2.24487         5.47845
     2009.31143        -4.90200         5.41810
     2009.31416       -11.04613         5.40155
     2009.31690        -7.90925         5.39377
     2009.31964        -7.94538         5.38792
     2009.32238        -3.16650         5.36164
     2009.32512        -4.83063         5.53005
     2009.32785        -8.03775         5.53102
     2009.33059        -5.46888         5.35677
     2009.33333        -8.19601         5.41615
     2009.33607        -8.40313         5.37430
     2009.33880         0.16174         5.39084
     2009.34154        -7.19338         5.42297
     2009.34428        -0.91351         5.39571
     2009.34702       -18.15164         5.38792
     2009.34976        -7.42676         5.33731
     2009.35249       -11.05989         5.36651
     2009.35523        -8.30601         5.39279
     2009.35797        -3.02714         5.43270
     2009.36071        -4.10726         5.57190
     2009.36344        -6.06939         5.41421
     2009.36618        -8.17352         5.37430
     2009.36892        -4.49864         5.36943
     2009.37166        -4.11377         5.43173
     2009.37440        -6.56489         5.42297
     2009.37713        -3.88502         5.42005
     2009.37987        -7.05815         5.48916
     2009.38261        -9.11027         5.39474
     2009.38535        -6.46240         5.37138
     2009.38809        -8.75452         5.41421
     2009.39082       -11.01665         5.42102
     2009.39356        -9.17177         5.41810
     2009.39630       -11.28490         5.40642
     2009.39904        -5.58503         5.37235
     2009.40177        -4.48915         5.43854
     2009.40451         1.32472         5.41226
     2009.40725         2.51960         5.44244
     2009.40999        -3.23253         5.42784
     2009.41273        -1.08166         5.42978
     2009.41546         0.72522         5.39961
     2009.41820        -2.55391         5.40058
     2009.42094        -9.02903         5.43757
     2009.42368        -0.87616         5.44633
     2009.42642         0.16172         5.41129
     2009.42915         2.92259         5.49208
     2009.43189        -1.93654         5.40058
     2009.43463        -1.12866         5.39766
     2009.43737        -1.46079         5.45606
     2009.44010        -3.23391         5.52031
     2009.44284        -1.86504         5.42005
     2009.44558         0.38683         5.43173
     2009.44832         3.37571         5.45120
     2009.45106        -2.85642         5.43368
     2009.45379        -1.48054         5.45412
     2009.45653         1.01933         5.44730
     2009.45927        -1.38679         5.46385
     2009.46201         2.74208         5.41323
     2009.46475         5.62395         5.46483
     2009.46748         1.89083         5.44925
     2009.47022         2.27970         5.39863
     2009.47296         0.18358         5.41226
     2009.47570         0.35445         5.40447
     2009.47843         7.85432         5.51642
     2009.48117         4.93920         5.50182
     2009.48391        -0.58493         5.49890
     2009.48665        -3.53905         5.47553
     2009.48939        -1.97518         5.48916
     2009.49212         4.10070         5.48137
     2009.49486         3.25957         5.47943
     2009.49760         1.36644         5.49208
     2009.50034         1.46132         5.42589
     2009.50308         1.21519         5.42881
     2009.50581        -1.19893         5.47456
     2009.50855        -0.73306         5.41615
     2009.51129        -0.32119         5.48332
     2009.51403         6.67869         5.41421
     2009.51676         6.34956         5.42491
     2009.51950         1.29144         5.37235
     2009.52224        -2.77569         5.44536
     2009.52498         0.95719         5.44438
     2009.52772        10.10606         5.59040
     2009.53045         0.39193         5.52128
     2009.53319         2.28481         5.40545
     2009.53593         7.13668         5.40155
     2009.53867         0.96656         5.42784
     2009.54141         5.40743         5.41713
     2009.54414        12.24730         5.48429
     2009.54688        -0.11382         5.47845
     2009.54962         0.03305         5.37430
     2009.55236         4.57593         5.39279
     2009.55509         9.75480         5.40350
     2009.55783         7.92668         5.43076
     2009.56057         1.99955         5.68190
     2009.56331        15.54942         5.86782
