# ================= DQRFIT RESULTS ================
# INPUT FILE: series/P656.rad
# OUTPUT: LDETRENDED
# FILTER FUNCTION: f(t)
# f(t)=+line(t)+annual(t)
# line(t)=+P 1+P 2*t
# annual(t)=+P 3*sin(2*pi*t+P 4)
# heav(t)=(t<0?0:1)
# TOTAL OBSERVATIONS MTOT= 3716
# INITIAL TIME INTERVAL= 2022.7488 - 2007.5702 = 15.1786
# TOTAL OBSERVATIONS AFTER PREFILTER M= 2923
# TIME-SPAN= 2022.7488 - 2007.5702 = 15.1786
# OBSERVATIONS: USED M=  2923 REJECTED MTOT-M=   793 %USED=   78.6599
# N=  4 PARAMETERS
# MAXSIG= 175.00000
# MAXRES= 864.49424
# SCALE FACTOR FOR LENGTHS: SCL=  10.00000
# SCALE FACTOR FOR SIGMAS: SCLSIG=   1.00000
# CHI^2= 269337.177 DOF=  2919 CHI^2/DOF=  92.27036
# RMS=    117.210 SDEV=    115.496 MEAN=   20.08813
#  P #       PARAMETER +-    SIGMA %error PARAMETER NAME
# P 1 =      1422.75281 +-  555.844  39.07 YZERO                              
# P 2 =        -0.71725 +-    0.276  38.41 SLOPE                              
# P 3 =        57.16151 +-    1.689   2.96 ANNUAL AMPLITUDE                   
# P 4 =         0.38210 +-    0.039  10.26 ANNUAL PHASE                       
#       T            LDETRENDED       SIG_OBS
     2007.57015       -50.83153        55.75175
     2007.57289       -58.33257        55.83820
     2007.57563       -51.90561        55.83820
     2007.57837       -53.80864        56.36652
     2007.58110       -47.18268        56.33770
     2007.58384       -47.96871        56.64508
     2007.58658       -58.06275        55.80939
     2007.58932       -53.57779        56.51060
     2007.59206       -45.99782        55.87663
     2007.59479       -44.78786        56.61627
     2007.59753       -49.93190        57.25025
     2007.60027       -50.74793        55.05053
     2007.60301       -46.17697        55.00250
     2007.60574       -46.54000        55.36752
     2007.60848       -49.04604        55.84781
     2007.61122       -41.76308        56.03992
     2007.61396       -50.92611        55.32910
     2007.61670       -52.10815        58.11476
     2007.61943       -49.32219        57.98989
     2007.62217       -47.34622        57.78817
     2007.62491       -49.14526        58.32609
     2007.62765       -50.85230        59.68050
     2007.63039       -37.32233        60.59305
     2007.63312       -58.15037        57.07734
     2007.63586       -52.40340        58.58545
     2007.63860       -50.64944        58.83520
     2007.64134       -47.85648        57.40394
     2007.64407       -42.59451        59.77656
     2007.64681       -50.11355        57.51921
     2007.64955       -44.51759        58.91204
     2007.65229       -45.80762        58.93125
     2007.65503       -44.82966        58.09555
     2007.65776       -46.68369        58.29727
     2007.66050       -42.27273        58.91204
     2007.66324       -43.01777        58.73914
     2007.66598       -52.59680        59.33469
     2007.66872       -44.97484        57.74014
     2007.67145       -46.82788        57.50000
     2007.67419       -45.45391        58.70071
     2007.67693       -39.26595        58.73914
     2007.67967       -46.28098        58.38372
     2007.68240       -47.22302        58.35491
     2007.68514       -43.37406        58.94086
     2007.68788       -43.91309        59.08494
     2007.69062       -40.01013        57.97068
     2007.69336       -42.11817        58.16279
     2007.69609       -48.73820        59.41154
     2007.69883       -43.72824        58.47978
     2007.70157       -45.68427        57.37512
     2007.70431       -36.98631        60.78516
     2007.70705       -43.07235        58.70071
     2007.70978       -42.41738        60.00710
     2007.71252       -46.18142        58.14358
     2007.71526       -43.48146        56.31849
     2007.71800       -48.42249        56.39534
     2007.72073       -42.46553        56.48179
     2007.72347       -37.84756        56.51060
     2007.72621       -40.09160        57.74014
     2007.72895       -44.65064        56.41455
     2007.73169       -44.29967        56.78917
     2007.73442       -42.67071        56.02071
     2007.73716       -44.93875        57.82659
     2007.73990       -42.89478        56.86602
     2007.74264       -37.59982        56.41455
     2007.74538       -40.90086        56.00150
     2007.74811       -40.83289        58.20122
     2007.75085       -37.26093        59.09455
     2007.75359       -40.27696        59.25785
     2007.75633       -41.03800        55.92465
     2007.75906       -47.02104        56.04953
     2007.76180       -35.13407        57.31749
     2007.76454       -50.34211        56.52021
     2007.76728       -40.98815        60.80437
     2007.77002       -40.69018        60.39133
     2007.77275       -45.94422        59.07534
     2007.77549       -48.26825        57.10616
     2007.77823       -49.12629        56.95247
     2007.78097       -39.61633        56.18401
     2007.78371       -44.30336        56.03992
     2007.78644       -35.01940        56.67390
     2007.78918       -44.11044        56.80838
     2007.79192       -53.27747        59.41154
     2007.79466       -42.62651        61.48638
     2007.79739       -35.26654        58.93125
     2007.80013       -47.52858        56.08795
     2007.80287       -53.49762        57.05813
     2007.80561       -51.09265        56.97168
     2007.80835       -51.18269        57.66329
     2007.81108       -45.84173        57.42315
     2007.81382       -42.56476        56.61627
     2007.81656       -51.16880        58.17240
     2007.81930       -47.51783        57.21182
     2007.82203       -49.28487        58.21082
     2007.82477       -46.66691        57.70172
     2007.82751       -47.71494        57.35591
     2007.83025       -51.72798        58.22043
     2007.83299       -49.57102        55.94387
     2007.83572       -48.01305        56.29928
     2007.83846       -49.70709        56.73154
     2007.84120       -46.23312        55.22343
     2007.84394       -52.76216        55.38673
     2007.84668       -56.05720        56.30888
     2007.84941       -50.85323        55.92465
     2007.85215       -45.30727        57.52881
     2007.85489       -51.53331        56.64508
     2007.85763       -47.36734        55.73254
     2007.86036       -43.48338        57.03892
     2007.86310       -45.30242        56.15519
     2007.86584       -39.42445        58.78717
     2007.86858       -52.99149        56.75075
     2007.87132       -47.27952        56.78917
     2007.87405       -39.94756        56.66430
     2007.87679       -39.76260        57.11577
     2007.87953       -39.27763        57.99950
     2007.88227       -43.59067        57.93225
     2007.88501       -52.98771        56.00150
     2007.88774       -51.20374        55.75175
     2007.89048       -52.19878        56.64508
     2007.89322       -52.97781        56.85641
     2007.89596       -48.70785        57.34630
     2007.89869       -51.57689        56.33770
     2007.90143       -53.26592        56.40494
     2007.90417       -54.01096        57.26946
     2007.90691       -56.72400        56.48179
     2007.90965       -51.46003        57.38473
     2007.91238       -51.71907        56.40494
     2007.91512       -51.53610        56.38573
     2007.91786       -47.88614        56.63548
     2007.92060       -41.10618        60.66989
     2007.92334       -54.03721        63.30187
     2007.92607       -46.44225        59.15218
     2007.92881       -50.26429        57.91304
     2007.93155       -42.89932        60.13197
     2007.93429       -54.18636        58.95046
     2007.93702       -50.75839        58.77756
     2007.93976       -58.64743        58.22043
     2007.94250       -52.33147        58.22043
     2007.94524       -48.74450        60.22803
     2007.94798       -50.28954        59.43075
     2007.95071       -49.59758        58.50860
     2007.95345       -51.80661        58.75835
     2007.95619       -50.46965        58.62387
     2007.95893       -46.84169        60.25685
     2007.96167       -40.61972        60.75634
     2007.96440       -44.07176        60.51620
     2007.96714       -28.80979        63.24423
     2007.96988       -30.57483        61.57283
     2007.97262       -23.65187        60.10315
     2007.97535       -28.13990        59.35391
     2007.97809       -25.30694        59.51720
     2007.98083       -22.27298        57.42315
     2007.98357       -18.38601        56.01111
     2007.98631       -27.28505        57.81699
     2007.98904       -20.26308        58.71032
     2007.99178       -18.29312        58.43175
     2007.99368       -13.57876        93.77129
     2008.50627       -47.71710        63.67649
     2009.55509       -46.37184        59.18100
     2009.55783       -41.78187        58.23964
     2009.56057       -47.16191        60.20882
     2009.56331       -46.43895        60.23763
     2009.56605       -54.19598        61.50559
     2009.56878       -50.79402        59.51720
     2009.57152       -42.64905        60.11276
     2009.57426       -48.07509        59.70932
     2009.57700       -44.55013        64.02230
     2009.57974       -48.17416        59.02731
     2009.58247       -46.66920        59.68050
     2009.58521       -46.79124        60.82358
     2009.58795       -56.43427        60.76595
     2009.59069       -49.00831        59.07534
     2009.59342       -52.63134        60.32409
     2009.59616       -48.41938        58.00910
     2009.59890       -54.95742        59.60365
     2009.60164       -54.90845        59.22903
     2009.60438       -52.85449        58.84480
     2009.60711       -57.41353        60.27606
     2009.60985       -48.84256        60.14158
     2009.61259       -44.30160        59.49799
     2009.61533       -52.27664        60.72753
     2009.61807       -50.41067        60.38172
     2009.62080       -44.95171        59.73814
     2009.62354       -51.25374        60.11276
     2009.62628       -49.68978        59.57484
     2009.62902       -50.51382        59.60365
     2009.63175       -48.73685        59.75735
     2009.63449       -51.13189        60.09355
     2009.63723       -53.85693        59.85340
     2009.63997       -49.45396        61.27505
     2009.64271       -47.81800        60.37211
     2009.64544       -46.88503        60.05512
     2009.64818       -47.23907        59.77656
     2009.65092       -49.81811        59.87262
     2009.65366       -52.83014        59.66129
     2009.65639       -59.22018        60.05512
     2009.65913       -52.05122        59.02731
     2009.66187       -46.33225        58.90244
     2009.66461       -53.53429        59.93025
     2009.66735       -45.72132        58.94086
     2009.67008       -42.77436        59.66129
     2009.67282       -48.85040        58.82559
     2009.67556       -49.67543        59.17140
     2009.67830       -45.82547        60.66989
     2009.68104       -43.97851        60.95806
     2009.68377       -59.76354        59.59405
     2009.68651       -43.59158        59.35391
     2009.68925       -45.73461        59.44996
     2009.69199       -50.59865        59.04652
     2009.69472       -48.77969        59.65168
     2009.69746       -38.75572        58.48939
     2009.70020       -38.72376        59.83419
     2009.70294       -45.96380        59.63247
     2009.70568       -48.72583        59.02731
     2009.70841       -45.37287        59.55563
     2009.71115       -44.55391        59.29627
     2009.71389       -47.78094        61.77455
     2009.71663       -48.18498        59.24824
     2009.71937       -43.06601        59.01770
     2009.72210       -53.87105        59.84380
     2009.72484       -46.83309        60.18961
     2009.72758       -48.12012        59.94946
     2009.73032       -46.59216        59.40193
     2009.73305       -43.74320        60.50659
     2009.73579       -46.01023        58.92165
     2009.73853       -38.72727        58.85441
     2009.74127       -40.39030        60.09355
     2009.74401       -33.16434        61.64968
     2009.74674       -44.25338        58.76795
     2009.74948       -45.65241        59.46917
     2009.75222       -50.82545        58.87362
     2009.75496       -39.31949        58.46057
     2009.75770       -41.43752        58.21082
     2009.76043       -45.29556        59.62287
     2009.76317       -47.09059        58.52781
     2009.76591       -43.98063        59.39233
     2009.76865       -46.35167        59.27706
     2009.77138       -44.91170        58.54702
     2009.77412       -47.77674        58.35491
     2009.77686       -43.74978        58.28767
     2009.77960       -46.25481        58.67190
     2009.78234       -44.20885        60.49699
     2009.78507       -30.27188        62.84079
     2009.78781       -49.41692        63.47477
     2009.79055       -52.01096        60.59305
     2009.79329       -47.24799        61.53441
     2009.79603       -55.99103        61.02531
     2009.79876       -45.85607        60.65068
     2009.80150       -49.60310        61.61126
     2009.80424       -48.68814        60.73713
     2009.80698       -41.79017        60.55462
     2009.80971       -39.79321        63.08093
     2009.81245       -39.75525        61.05412
     2009.81519       -34.77928        60.63147
     2009.81793       -45.20132        60.68910
     2009.82067       -52.44436        59.99749
     2009.82340       -44.96439        60.13197
     2009.82614       -53.10343        60.95806
     2009.82888       -52.77247        59.99749
     2009.83162       -37.95950        59.68050
     2009.83436       -45.28254        59.36351
     2009.83709       -43.04157        60.84280
     2009.83983       -43.77461        60.66989
     2009.84257       -41.79565        61.09255
     2009.84531       -46.96168        61.51520
     2009.84804       -36.22972        64.75233
     2009.85078       -43.62076        61.80337
     2009.85352       -40.94679        61.61126
     2009.85626       -45.22283        61.92825
     2009.85900       -51.47086        62.65828
     2009.86173       -50.48490        60.74674
     2009.86447       -48.16394        62.76395
     2009.86721       -47.54397        61.39993
     2009.86995       -41.41201        60.42975
     2009.87269       -46.23905        61.31348
     2009.87542       -50.68108        61.90903
     2009.87816       -30.30512        62.09154
     2009.88090       -48.11315        61.86101
     2009.88364       -43.14619        60.90043
     2009.88637       -42.67023        60.18961
     2009.88911       -46.37126        61.42875
     2009.89185       -43.78230        61.26545
     2009.89459       -35.82034        61.08294
     2009.89733       -52.12637        61.83219
     2009.90006       -49.48741        60.84280
     2009.90280       -48.60444        61.39993
     2009.90554       -48.91748        61.96667
     2009.90828       -51.65752        58.82559
     2009.91102       -45.54255        60.60265
     2009.91375       -44.72059        60.79477
     2009.91649       -46.51363        61.37111
     2009.91923       -51.29466        59.36351
     2009.92197       -59.43070        59.72853
     2009.92470       -49.55273        59.92064
     2009.92744       -53.25177        59.26745
     2009.93018       -48.51481        57.96107
     2009.93292       -50.77784        58.08595
     2009.93566       -52.59788        57.33670
     2009.93839       -49.50092        59.96867
     2009.94113       -42.60395        59.01770
     2009.94387       -50.39399        60.66029
     2009.94661       -52.40903        61.93785
     2009.94935       -47.55006        60.57384
     2009.95208       -50.03910        60.54502
     2009.95482       -49.55613        62.58144
     2009.95756       -56.38717        63.77255
     2009.96030       -56.42021        64.66588
     2009.96303       -56.59224        64.52180
     2009.96577       -56.20028        62.00509
     2009.96851       -56.33132        61.77455
     2009.97125       -44.16235        62.81197
     2009.97399       -43.68239        65.68409
     2009.97672       -59.37742        59.93986
     2009.97946       -61.33646        59.91104
     2009.98220       -58.76850        59.83419
     2009.98494       -55.49353        60.43935
     2009.98767       -50.67657        58.73914
     2009.99041       -54.75961        57.44236
     2009.99315       -60.03664        58.23003
     2009.99589       -52.01868        58.04752
     2009.99863       -46.88171        59.80538
     2010.00410       -55.18179        60.40093
     2010.00684       -52.88882        59.12337
     2010.00958       -59.07386        58.50860
     2010.01232       -57.12390        58.31648
     2010.01505       -58.91593        59.43075
     2010.01779       -54.67497        59.43075
     2010.02053       -58.20900        58.40294
     2010.02327       -58.89004        59.53641
     2010.02600       -58.86108        58.97928
     2010.02874       -50.65111        59.65168
     2010.03148       -31.78515        60.66029
     2010.10540       294.18487        82.82074
     2010.10814       323.83683        79.31465
     2010.11088       314.83180        82.53257
     2010.11362       342.44376        79.40110
     2010.12731       318.34258        87.31623
     2010.13004       308.53654        83.70447
     2010.13278       328.29951        83.15694
     2010.13552       307.16847        79.90060
     2010.13826       288.59744        79.02647
     2010.14099       287.57240        76.57701
     2010.14373       280.63236        79.67966
     2010.14647       257.79033        75.21299
     2010.14921       273.14829        78.79594
     2010.15195       277.94725        79.91020
     2010.15468       311.63222        77.85457
     2010.15742       356.96918        79.87178
     2010.16016       340.23714        78.10432
     2010.16290       322.43511        80.85157
     2010.16564       298.89407        80.15035
     2010.16837       324.44704        84.48254
     2010.17111       353.68600        82.01386
     2010.17385       335.59096        80.52497
     2010.17659       333.65093        83.02246
     2010.17932       322.65089        83.51236
     2010.18480       339.10082        79.50676
     2010.18754       334.52378        77.91221
     2010.19028       332.48475        77.13414
     2010.19301       305.29571        78.62303
     2010.19575       355.85967        86.51896
     2010.20397       266.72556       110.20673
     2010.20670       271.93353       103.00242
     2010.20944       288.69649       105.18292
     2010.21176       355.06715       120.78265
     2010.68583       -30.11882        55.86702
     2010.68856       -41.39586        55.11777
     2010.69130       -33.80889        55.90544
     2010.69404       -36.56693        56.00150
     2010.69678       -43.45297        55.18501
     2010.69952       -36.10000        56.75075
     2010.70225       -40.06004        55.34831
     2010.70499       -35.13208        54.88723
     2010.70773       -36.19611        55.30028
     2010.71047       -31.13515        56.33770
     2010.71321       -33.30118        56.76996
     2010.71594       -32.37622        57.67290
     2010.71868       -29.70226        55.16580
     2010.72142       -33.40429        56.53942
     2010.72416       -26.24433        57.76896
     2010.72689       -38.45037        57.65369
     2010.72963       -32.83840        56.23204
     2010.73237       -32.15744        55.04093
     2010.73511       -35.26947        54.95447
     2010.73785       -36.33151        57.68251
     2010.74058       -33.86455        57.07734
     2010.74332       -34.79358        55.66530
     2010.74606       -32.56562        56.33770
     2010.74880       -43.13466        55.90544
     2010.75154       -40.02269        55.90544
     2010.75427       -41.55873        56.85641
     2010.75701       -46.24076        56.89483
     2010.75975       -48.03980        56.70272
