# ================= DQRFIT RESULTS ================
# INPUT FILE: series/P660.rad
# OUTPUT: LDETRENDED
# FILTER FUNCTION: f(t)
# f(t)=+line(t)+annual(t)
# line(t)=+P 1+P 2*t
# annual(t)=+P 3*sin(2*pi*t+P 4)
# heav(t)=(t<0?0:1)
# TOTAL OBSERVATIONS MTOT= 3483
# INITIAL TIME INTERVAL= 2022.7488 - 2007.8166 = 14.9322
# TOTAL OBSERVATIONS AFTER PREFILTER M= 3441
# TIME-SPAN= 2022.7488 - 2007.8166 = 14.9322
# OBSERVATIONS: USED M=  3441 REJECTED MTOT-M=    42 %USED=   98.7941
# N=  4 PARAMETERS
# MAXSIG= 175.00000
# MAXRES=  56.11121
# SCALE FACTOR FOR LENGTHS: SCL=  10.00000
# SCALE FACTOR FOR SIGMAS: SCLSIG=   1.00000
# CHI^2=   6513.956 DOF=  3437 CHI^2/DOF=   1.89524
# RMS=     10.558 SDEV=     10.557 MEAN=    0.22435
#  P #       PARAMETER +-    SIGMA %error PARAMETER NAME
# P 1 =      1102.69890 +-  107.379   9.74 YZERO                              
# P 2 =        -0.54677 +-    0.053   9.76 SLOPE                              
# P 3 =         7.09778 +-    0.254   3.58 ANNUAL AMPLITUDE                   
# P 4 =        -2.97583 +-    0.050   1.68 ANNUAL PHASE                       
#       T            LDETRENDED       SIG_OBS
     2007.81656        12.52034        10.09381
     2007.81930         6.75683         9.83637
     2007.82203        -3.39267         9.84463
     2007.82477         9.91483         9.70696
     2007.82751        -1.15968         9.70421
     2007.83025         7.89582         9.79920
     2007.83299         2.67732         9.40822
     2007.83572         3.34682         9.56379
     2007.83846         3.30131         9.58306
     2007.84120         5.38981         9.21962
     2007.84394        -3.55069         9.62849
     2007.84668         2.51180         9.41648
     2007.84941        -1.63970         9.25404
     2007.85215         6.53980         9.86803
     2007.85489         0.03829         9.66979
     2007.85763        -0.02621         9.81847
     2007.86036         2.68529         9.84738
     2007.86310        -7.15422         9.85564
     2007.86584       -19.64972         9.65603
     2007.86858        -6.65222         9.73725
     2007.87132        -9.76972         9.58719
     2007.87405       -33.08123         9.80195
     2007.87679       -15.38573         9.91897
     2007.87953       -23.66923         9.77855
     2007.88227       -20.17374         9.73863
     2007.88501        -4.85724         9.30084
     2007.88774         0.16926         9.32149
     2007.89048         0.20375         9.55002
     2007.89322         0.86125         9.69320
     2007.89596         6.26375         9.65878
     2007.89869        -4.42675         9.46054
     2007.90143        -4.81526         9.43851
     2007.90417       -13.33476         9.67668
     2007.90691        -7.67326         9.32012
     2007.90965        -7.47077         9.58031
     2007.91238         0.70973         9.32700
     2007.91512        -0.79177         9.17006
     2007.91786        -4.73028         9.17969
     2007.92060       -11.66178         9.92448
     2007.92334       -35.26428        10.30306
     2007.92607         1.42622         9.33939
     2007.92881        -0.55429         9.60646
     2007.93155        -1.08679         9.88868
     2007.93429        -4.02429         9.49220
     2007.93702         5.88520         9.50184
     2007.93976        -0.90930         9.60509
     2007.94250         3.07720         9.22650
     2007.94524         7.25269         9.88180
     2007.94798         1.01919         9.57067
     2007.95071        -4.31931         9.60646
     2007.95345        11.89718         9.62023
     2007.95619        -1.63132         9.52662
     2007.95893        -7.55382         9.96578
     2007.96167       -16.48332         9.95201
     2007.96440        -5.91883        10.00570
     2007.96714       -31.71433        10.48479
     2007.96988       -31.48183         9.71660
     2007.97262       -16.44434         9.81434
     2007.97535        -7.96784        10.11721
     2007.97809       -11.31034        10.04976
     2007.98083        -3.99185         9.51285
     2007.98357        -3.41135         9.36968
     2007.98631        -3.53585         9.34903
     2007.98904       -24.14335         9.45916
     2007.99178       -22.63086         9.43989
     2007.99452       -20.22436        10.00295
     2007.99726         2.56214         9.47155
     2008.00000       -10.93037         9.36004
     2008.00273        -7.23387         9.56516
     2008.00547         2.22863         9.50046
     2008.00821         3.66612         9.56241
     2008.01095         4.53362         9.79645
     2008.01368        21.52412        10.09106
     2008.01642        18.80561        10.06765
     2008.01916        -0.25089        10.13098
     2008.02190        13.42461         9.79645
     2008.02464        16.75011         9.77167
     2008.02737         5.15160         9.52386
     2008.03011         2.55710         9.88731
     2008.03285         0.25460         9.21549
     2008.03559        13.75509         9.17832
     2008.03833        26.52059         9.42612
     2008.04106        16.47709         9.45778
     2008.04380        -5.20442         9.52662
     2008.04654        13.15208         9.60233
     2008.04928        21.31958         9.47981
     2008.05100        18.58152        20.36659
     2008.25566       -13.48858        22.36965
     2008.25735         3.45835         9.81985
     2008.26009         0.17785         9.49908
     2008.26283        -5.97266         9.46467
     2008.26557        -2.14616         9.56379
     2008.26830        -1.61566         9.68631
     2008.27104         4.66283         9.69044
     2008.27378        -9.80167         9.62298
     2008.27652         0.06883         9.49771
     2008.27926        -5.54268         9.46191
     2008.28199        -4.75918         9.74276
     2008.28473        -1.62468        10.06903
     2008.28747        -3.90419         9.53763
     2008.29021        -4.73369        10.00157
     2008.29295        -1.32319         9.90245
     2008.29568        -3.72669         9.95339
     2008.29842        -1.65020         9.35178
     2008.30116       -10.27470         9.42061
     2008.30390        -1.31220         9.70559
     2008.30663        -4.64971         9.84601
     2008.30937       -13.58321        10.37052
     2008.31211       -10.12071         9.73587
     2008.31485        -4.47622         9.53901
     2008.31759        -3.96272        10.23836
     2008.32032        -4.73222        10.30995
     2008.32306        -3.69872        10.19431
     2008.32580        -3.01623        10.31270
     2008.32854        -4.78773         9.62711
     2008.33128       -14.69323         9.71109
     2008.33401        -5.71374         9.74689
     2008.33675        -4.24524         9.83912
     2008.33949        -3.26474         9.70559
     2008.34223        -2.35525         9.76478
     2008.34496        -4.04375        10.03324
     2008.34770        -2.71425         9.83912
     2008.35044         0.86324         9.71798
     2008.35318         3.07274         9.99193
     2008.35592        -2.05076        10.05251
     2008.35865       -22.57626         9.98092
     2008.36139        -9.52477         9.65052
     2008.36413        -6.93827         9.63400
     2008.36687        -6.69577         9.52386
     2008.36961        -6.48728         9.71247
     2008.37234        -5.57778         9.73725
     2008.37508        -9.95928         9.96440
     2008.37782         8.48421         9.96302
     2008.38056         6.53071         9.37931
     2008.38329        -0.07779        10.00295
     2008.38603        -3.95529         9.74964
     2008.38877        -9.99680         9.90933
     2008.39151        -2.61230         9.87354
     2008.39425        -4.99880         9.64501
     2008.39698        -2.27731         9.55002
     2008.39972         3.53619         9.78681
     2008.40246        -4.01531         9.79782
     2008.40520        -9.61882         9.79920
     2008.40794        -7.01832         9.86390
     2008.41067         0.75518         9.68907
     2008.41341        -4.19632         9.69733
     2008.41615         6.41717         9.85840
     2008.41889        -4.20933         9.89694
     2008.42162       -18.10883         9.89970
     2008.42436       -15.37334         9.64639
     2008.42710        -7.75884         9.71798
     2008.42984         6.16866         9.94926
     2008.43258        -8.89285        10.20807
     2008.43531       -11.25635         9.79094
     2008.43805         8.92215         9.95889
     2008.44079       -18.43536         9.62849
     2008.44353       -14.65686         9.81434
     2008.44626         4.95264         9.84876
     2008.44900        -2.70986         9.58581
     2008.45174        -3.19737         9.64777
     2008.45448        -5.23787         9.94513
     2008.45722        -4.23837         9.95476
     2008.45995        -7.36688        10.09243
     2008.46269       -11.22938         9.72348
     2008.46543        -7.18388         9.80471
     2008.46817        -9.97939         9.82260
     2008.47091       -10.96489        10.05526
     2008.47364        -1.04639         9.83637
     2008.47638         8.51311         9.71109
     2008.47912       -15.14840        10.07867
     2008.48186         3.27110         9.85977
     2008.48459        -1.81640         9.79645
     2008.48733        -4.58791         9.85427
     2008.49007        -0.71641        10.09106
     2008.49281       -11.19991         9.82536
     2008.49555       -14.27742         9.96715
     2008.49828         0.28908         9.89970
     2008.50102        -6.35342        10.34574
     2008.50376        -0.80692         9.92998
     2008.50650         0.43857        10.05802
     2008.50924         8.77907        10.20257
     2008.51197        11.94657        10.13786
     2008.51471        -5.20794         9.84601
     2008.51745         7.09856         9.90796
     2008.52019        15.29306         9.93136
     2008.52292        17.61455        10.41871
     2008.52566         4.94805        10.26589
     2008.52840        11.51355         9.98367
     2008.53114         7.26204        10.28241
     2008.53388        10.76054        10.10758
     2008.53661         9.20804        10.96938
     2008.53935        10.62054        10.20807
     2008.54209        12.38903        10.10345
     2008.54483         5.98053        10.11446
     2008.54757         6.23703        10.08693
     2008.55030        11.24052         9.73174
     2008.55304        14.85802         9.99606
     2008.55578         7.40652         9.88868
     2008.55852        11.63601        10.27278
     2008.56125         5.43651         9.83499
     2008.56399         7.79601         9.85289
     2008.56673        12.46851         9.94375
     2008.56947        15.04800         9.84876
     2008.57221        13.49350        10.49993
     2008.57494        -7.27900        10.30857
     2008.57768        13.79449        10.14199
     2008.58042         9.60199        10.01534
     2008.58316        13.36849         9.92172
     2008.58590         2.34898        10.08968
     2008.58863         4.10248         9.97128
     2008.59137        -0.76302         9.81159
     2008.59411        11.71448         9.81572
     2008.59685         5.01297        10.36639
     2008.59958        11.52647        10.79179
     2008.60232         2.62197        10.53022
     2008.60506        -8.30654        10.04425
     2008.60780        16.40396         9.93136
     2008.61054        12.31546         9.87492
     2008.61327        15.66895        10.05802
     2008.61601        11.21845         9.94100
     2008.61875        11.09995        10.13649
     2008.62149        12.03644         9.91759
     2008.62423        19.74094        10.12272
     2008.62696        14.53144        10.22872
     2008.62970        19.23394        10.31270
     2008.63244        14.30743        10.28379
     2008.63518       -10.59607        10.19981
     2008.63791        16.02843        10.32234
     2008.64065        21.69092        10.25626
     2008.64339        23.06742        10.13236
     2008.64613        12.98892        10.81519
     2008.64887        -1.44259        10.72295
     2008.65160        15.80791        10.19155
     2008.65434        10.27141        10.33060
     2008.65708         7.99391        10.32234
     2008.65982         5.86440        10.29205
     2008.66256        17.97190        10.40356
     2008.66529         4.17840        10.56739
     2008.66803        -2.85111        10.18329
     2008.67077        10.56339        10.14475
     2008.67351         3.86889        10.12134
     2008.67624        11.99338        11.19791
     2008.67898         6.04888        10.36501
     2008.68172        14.99438        10.09794
     2008.68446        11.25587        10.13098
     2008.68720        11.59837        10.04287
     2008.68993         7.75287        10.31958
     2008.69267         8.57537        10.10069
     2008.69541         9.91886        10.21496
     2008.69815        16.96636         9.98780
     2008.70089        14.71886         9.84325
     2008.70362        11.82135        10.00983
     2008.70636        13.38385        10.15438
     2008.70910        11.33735         9.94100
     2008.71184        18.38084        10.26589
     2008.71457         4.30734         9.73863
     2008.71731         8.17284         9.88868
     2008.72005         3.38134         9.85564
     2008.72279        11.38683         9.70559
     2008.72553         1.67333         9.74276
     2008.72826        13.16383         9.71109
     2008.73100        11.44132         9.78543
     2008.73374         3.96982        10.33335
     2008.73648        15.87032         9.95752
     2008.73921         8.77381         9.96715
     2008.74469         8.82181         9.77167
     2008.74743         4.16931         9.79094
     2008.75017         6.53080         9.88042
     2008.75290         5.62130         9.81159
     2008.75564        15.70980         9.97128
     2008.75838         7.39529        10.40632
     2008.76112         5.44779         9.77993
     2008.76386         1.47829         9.76341
     2008.76659        -7.16822        10.03599
     2008.76933         5.28328         9.89694
     2008.77207         0.12878         9.57755
     2008.77481        -7.27873         9.39583
     2008.77754        -4.94823         9.49082
     2008.78028        -4.74173         9.61885
     2008.78302         4.36277         9.47017
     2008.78576        -0.67574         9.70696
     2008.78850        -0.03424         9.81434
     2008.79123         8.78426         9.66566
     2008.79397        -0.99125         9.36830
     2008.79671        14.58225         9.62849
     2008.79945         2.92575         9.43438
     2008.80219        -0.72176         9.54314
     2008.80492        -1.74026         9.61335
     2008.80766         5.54224         9.28708
     2008.81040        11.44974         9.41786
     2008.81314         9.91423         9.74000
     2008.81587         3.02073         9.55828
     2008.81861        -0.69777         9.53350
     2008.82135        -2.43528         9.51836
     2008.82409         6.68522         9.85564
     2008.82683         0.84672         9.82123
     2008.82956        -4.51779         9.67530
     2008.83230         3.84971         9.83224
     2008.83504        14.28121         9.72899
     2008.83778        -9.61729        10.18742
     2008.84052        -3.66780         9.94375
     2008.84325        -7.47430        10.47377
     2008.84599        -4.38680         9.92035
     2008.84873       -11.15831        10.00019
     2008.85147        -5.10881         9.66842
     2008.85420       -13.41231         9.77855
     2008.85694       -12.31282         9.79232
     2008.85968         0.20468         9.62161
     2008.86242        -3.99782         9.68631
     2008.86516        -4.46933         9.96165
     2008.86789       -24.44083         9.71660
     2008.87063        -3.96233         9.75652
     2008.87337        -5.63983         9.55002
     2008.87611        -2.48034         9.71247
     2008.87885        -7.51284         9.58857
     2008.88158        -6.85034         9.62161
     2008.88432         0.19615         9.60646
     2008.88706        -5.06035         9.95063
     2008.88980        -8.31685         9.91071
     2008.89253         0.94164         9.67255
     2008.89527        -7.56586         9.72486
     2008.89801         2.18864         9.86390
     2008.90075        -3.93686         9.55553
     2008.90349        -2.13037         9.72486
     2008.90622         0.88613         9.63675
     2008.90896        -2.73837         9.70696
     2008.91170         1.35112         9.82260
     2008.91444         0.48262         9.77442
     2008.91718        -1.28888         9.40272
     2008.91991        -0.82039         9.82398
     2008.92265         1.25211         9.61335
     2008.92539        10.15561         9.71660
     2008.92813         0.64711         9.46880
     2008.93086         2.09860         9.60784
     2008.93360         6.76910         9.67530
     2008.93634        -0.53340         9.77993
     2008.93908         1.29409         9.52386
     2008.94182        -4.34941         9.72348
     2008.94455        -7.29591         9.69870
     2008.94729         6.14058         9.94237
     2008.95003       -10.36992         9.33939
     2008.95277         1.42958         9.30084
     2008.95551        -7.62593         9.37931
     2008.95824        -4.92843         9.27193
     2008.96098        -2.50793         9.30360
     2008.96372         0.49257         9.35040
     2008.96646       -16.33094         9.54314
     2008.96919        -9.44944         9.21824
     2008.97193        -6.55794         9.75652
     2008.97467       -17.81145         9.28019
     2008.97741        -0.51495         9.20310
     2008.98015        -9.55545         9.61610
     2008.98288        -9.10096         9.56103
     2008.98562         2.01354         9.30773
     2008.98836       -20.16096         9.27744
     2008.99384       -42.62097        10.10895
     2008.99657       -11.62447         9.74413
     2008.99931        -0.90797         9.77717
     2009.00479       -25.54198        10.09932
     2009.00752        -1.50648         9.47981
     2009.01026         3.66801         9.18520
     2009.01300         3.82751         9.65190
     2009.01574        -7.62199        10.08968
     2009.01848        -6.09550         9.75102
     2009.02121       -20.30000        10.51645
     2009.02395        -2.06050         9.88318
     2009.02669       -11.76400         9.65465
     2009.02943       -10.79951         9.66566
     2009.03216       -13.30401         9.83775
     2009.03490        -8.45751         9.76616
     2009.03764         2.16098         9.77855
     2009.04038        -5.57452         9.86803
     2009.04312        -1.07002         9.63951
     2009.04585       -10.87053         9.55553
     2009.04859        -1.44003         9.70834
     2009.05133        -3.52453         9.50734
     2009.05407        -2.79403         9.63675
     2009.05681         2.01446         9.59545
     2009.05954        -1.35804        10.04838
     2009.06228        -1.20954         9.54176
     2009.06502         4.23995         9.59407
     2009.06776        -3.64755         9.65327
     2009.07049        -3.64005         9.42199
     2009.07323        -6.81656         9.51010
     2009.07597        -5.70406         9.70421
     2009.07871         0.44344         9.71109
     2009.08145         6.76494         9.47293
     2009.08418        -0.21357         9.48532
     2009.08692        -3.70507         9.54314
     2009.08966         5.22943         9.43438
     2009.09240         1.64892         9.45641
     2009.09514         4.75542         9.33939
