# ================= DQRFIT RESULTS ================
# INPUT FILE: series/P664.rad
# OUTPUT: LDETRENDED
# FILTER FUNCTION: f(t)
# f(t)=+line(t)+annual(t)
# line(t)=+P 1+P 2*t
# annual(t)=+P 3*sin(2*pi*t+P 4)
# heav(t)=(t<0?0:1)
# TOTAL OBSERVATIONS MTOT= 3155
# INITIAL TIME INTERVAL= 2022.7488 - 2007.7618 = 14.9870
# TOTAL OBSERVATIONS AFTER PREFILTER M= 3054
# TIME-SPAN= 2022.7488 - 2007.7618 = 14.9870
# OBSERVATIONS: USED M=  3054 REJECTED MTOT-M=   101 %USED=   96.7987
# N=  4 PARAMETERS
# MAXSIG= 175.00000
# MAXRES= 105.34320
# SCALE FACTOR FOR LENGTHS: SCL=  10.00000
# SCALE FACTOR FOR SIGMAS: SCLSIG=   1.00000
# CHI^2=   8000.728 DOF=  3050 CHI^2/DOF=   2.62319
# RMS=     11.634 SDEV=     11.635 MEAN=   -0.15729
#  P #       PARAMETER +-    SIGMA %error PARAMETER NAME
# P 1 =     17750.01187 +-  106.047   0.60 YZERO                              
# P 2 =        -8.81552 +-    0.053   0.60 SLOPE                              
# P 3 =         2.92191 +-    0.329  11.26 ANNUAL AMPLITUDE                   
# P 4 =         2.83405 +-    0.154   5.45 ANNUAL PHASE                       
#       T            LDETRENDED       SIG_OBS
     2007.76180         6.85336        10.10971
     2007.76454         0.13449        10.14534
     2007.76728         1.69563        10.72031
     2007.77002         4.30377        10.99888
     2007.77275         0.50690        10.71059
     2007.77549         2.13104        10.30730
     2007.77823         1.24117        10.37695
     2007.78097         6.23231        10.26519
     2007.78371         4.37844        10.19555
     2007.78644         7.04958        10.15344
     2007.78918        12.17671        10.13238
     2007.79192         4.33985        10.50814
     2007.79466         6.33699        10.55834
     2007.79739         6.57712        10.26357
     2007.80013         9.35226        10.20527
     2007.80287        -0.11061        10.18097
     2007.80561         3.68953        10.12266
     2007.80835         2.04166        10.30892
     2007.81108         0.69180        10.39800
     2007.81382         0.16593        10.26357
     2007.81656         3.35607        10.47736
     2007.81930         7.42821        10.24900
     2007.82203         0.02434        10.24414
     2007.82477       -13.95052        10.42715
     2007.82751        -3.39039        10.38019
     2007.83025         3.52975        10.25547
     2007.83299         2.61588        10.29920
     2007.83572        -0.18098        10.04006
     2007.83846         0.30716        10.28139
     2007.84120         0.62529        10.20689
     2007.84394        -3.55857        10.13886
     2007.84668        -1.95744        10.15668
     2007.84941        -5.22930         9.99309
     2007.85215        -0.83017        10.20365
     2007.85489        -6.59403        10.32026
     2007.85763        -7.27190        10.10809
     2007.86036        -1.71276         9.98176
     2007.86310         1.54238        10.14048
     2007.86584        -9.96749        10.49518
     2007.86858        -4.24035        10.09027
     2007.87132        -2.67122        10.03844
     2007.87405        -2.48908        10.08865
     2007.87679        -5.87295        10.08217
     2007.87953       -12.81281        10.16963
     2007.88227        -5.92168        10.37695
     2007.88501        -6.57354         9.91373
     2007.88774        -2.21740        10.12104
     2007.89048        -5.84827         9.95422
     2007.89322        -3.50413        10.23118
     2007.89596        -1.18200        10.27167
     2007.89869        -6.27186        10.03197
     2007.90143        -4.85673        10.09675
     2007.90417        -4.23959        10.07570
     2007.90691        -6.92946        10.08055
     2007.90965        -9.80432        10.19393
     2007.91238        -2.73718        10.04816
     2007.91512        -4.99605        10.02549
     2007.91786        -3.55391        10.08379
     2007.92060        12.26022        10.93248
     2007.92334       -13.77264        10.55187
     2007.92607        -3.35651        10.21498
     2007.92881        -3.50137        10.28139
     2007.93155        -1.70523        10.15992
     2007.93429        -2.77910        10.24252
     2007.93702        -7.20896        10.31216
     2007.93976        -5.08183        10.24576
     2007.94250        -4.61069        10.21822
     2007.94524        -2.98756        10.62313
     2007.94798       -10.72642        10.40610
     2007.95071        -5.00329        10.41420
     2007.95345        -0.18215        10.47736
     2007.95619        -3.45801        10.29111
     2007.95893         3.02512        10.42391
     2007.96167         4.58226        10.36399
     2007.96440         0.53639        10.37047
     2007.96714        -4.76847        10.91466
     2007.96988        -9.88034        10.47250
     2007.97262       -19.38020        10.39962
     2007.97535        -9.81607        10.36885
     2007.97809        -3.85593        10.16154
     2007.98083        -2.14579        10.19393
     2007.98357        -3.22666         9.98176
     2007.98631        -0.93652        10.42553
     2007.98904        -2.82639        10.48546
     2007.99178        -4.44925        10.34941
     2007.99452        -3.76012        10.56644
     2007.99726        -7.69398        10.12914
     2008.00000       -13.47785        10.10161
     2008.00273       -11.21371        10.25223
     2008.00547        -3.84057        10.15830
     2008.00821         0.80656         9.88620
     2008.01095        -3.50830        10.07246
     2008.01368        -7.60317        10.20689
     2008.01642        -2.57703        10.37695
     2008.01916        -8.73790        10.50004
     2008.02190        -8.10076        10.79319
     2008.02464        -5.73962        10.32674
     2008.02737        -9.46749        10.26033
     2008.03011       -15.18235        10.23604
     2008.03285       -16.46222        10.05302
     2008.03559       -11.62008        10.02387
     2008.03833       -10.45695        10.19393
     2008.04106       -17.23681        10.21012
     2008.04380       -13.53668        10.24576
     2008.04654       -11.24154        10.25385
     2008.04928       -16.19540        10.38828
     2008.05201       -13.84327         9.97690
     2008.05475       -23.67813         9.98176
     2008.05749       -34.95400        10.16154
     2008.06023       -11.65486        10.01739
     2008.06297        -9.89773         9.98338
     2008.06570        -9.57159         9.93317
     2008.06844        -7.55146        10.09351
     2008.07118        -8.07332        10.16316
     2008.07392       -11.65618        10.14210
     2008.07666       -10.40405        10.54701
     2008.07939        12.78909        10.80777
     2008.08213         6.84222        10.34293
     2008.08487        34.03636        10.12266
     2008.08761        38.47849        10.17287
     2008.09034        35.46063        10.73326
     2008.09308        40.81676        10.40124
     2008.09582        37.14490        10.32998
     2008.09856        31.85604        10.35103
     2008.10130        23.49717        10.40772
     2008.10403        17.83831        10.05626
     2008.10677        27.42544        10.15344
     2008.10951        16.09658        10.38342
     2008.11225        18.07971        10.30082
     2008.11498        46.35985        10.36399
     2008.11772        33.81999        10.25385
     2008.12046        21.59612        10.17935
     2008.12320        16.10126        10.71545
     2008.12594       -17.81061        10.65066
     2008.13141       -16.23634        10.52919
     2008.13415       -13.64920        10.40772
     2008.13963       -15.26093        10.49842
     2008.14236         8.49721        10.73326
     2008.14510        17.05034        10.66362
     2008.14784        35.45748        10.76404
     2008.15058        45.36361        10.99564
     2008.15331        51.03475        11.05719
     2008.15605        36.37588        11.34386
     2008.15879        60.53402        11.53660
     2008.16153        34.94415        11.66293
     2008.16427        27.25629        11.15113
     2008.16700        34.63443        11.01670
     2008.16974        39.60156        11.41837
     2008.17248        42.58170        11.28232
     2008.17522        43.03483        11.56737
     2008.17796        29.59897        11.25154
     2008.18069        23.90610        11.25640
     2008.18343        21.75324        11.15275
     2008.18617        36.20337        11.21267
     2008.18891        83.87651        11.04261
     2008.19164        85.03565        11.24183
     2008.19438        40.51578        11.48639
     2008.19712        44.68392        11.42646
     2008.19986        57.59705        11.09606
     2008.20260        48.57119        10.73326
     2008.20533        54.77132        10.58588
     2008.20807        67.05046        12.18283
     2008.21081        77.45460        11.69532
     2008.21355        71.72673        11.10254
     2008.21629        68.14587        10.74298
     2008.21902        64.14900        11.04423
     2008.22724        68.80941        11.69532
     2008.22997        59.13754        11.89130
     2008.23271        32.83468        11.43618
     2008.23545        19.70082        11.54146
     2008.23819        -4.52205        11.26450
     2008.24093        15.47709        11.06529
     2008.24366        13.37522        11.01184
     2008.24640        -8.57064        11.36978
     2008.25188       -35.80937        12.04840
     2008.25462       -43.58424        11.75849
     2008.25735       -35.74810        11.62730
     2008.26009       -34.92196        11.61272
     2008.26188       -14.96817        21.08591
     2008.35158        -8.98143        33.47606
     2008.35318       -12.05035        10.64256
     2008.35592        -9.55122        10.69925
     2008.35865       -11.53708        10.87903
     2008.36139        -4.03595        10.70735
     2008.36413        -8.83781        10.59883
     2008.36687       -17.18668        10.71869
     2008.36961       -13.19554        10.66200
     2008.37234       -16.16041        10.59721
     2008.37508       -14.70327        10.57940
     2008.37782       -12.00313        10.48060
     2008.38056        -8.71300        10.61665
     2008.38329        -4.27686        10.61665
     2008.38603        -3.30973        10.34131
     2008.38877        -7.84959        10.59883
     2008.39151        -7.78246        10.99078
     2008.39425       -15.08032        10.46441
     2008.39698       -11.43218        10.51137
     2008.39972       -11.61305        10.73812
     2008.40246        -8.26391        10.63447
     2008.40520       -10.41378        10.74298
     2008.40794        -9.76464        10.72840
     2008.41067        -6.10851        10.38180
     2008.41341        -5.07937        10.72517
     2008.41615       -10.85024        10.63609
     2008.41889       -12.16910        10.59074
     2008.42162        -0.65096        10.65714
     2008.42436        -8.63883        10.29273
     2008.42710        -7.08669        10.38019
     2008.42984       -11.25356        10.59883
     2008.43258        -5.83542        10.80129
     2008.43531        -9.42829        10.70897
     2008.43805        -9.62815        10.77537
     2008.44079       -18.66002        10.54377
     2008.44353       -10.51188        10.66524
     2008.44626        -5.10474        10.78671
     2008.44900        -8.39361        10.66200
     2008.45174        -3.48147        10.65714
     2008.45448        -8.77334        10.75108
     2008.45722        -9.01220        10.44011
     2008.45995       -11.85607        10.65876
     2008.46269       -14.12393        10.53081
     2008.46543        -8.30780        10.58912
     2008.46817        -8.80566        10.73002
     2008.47091       -16.22452        10.54377
     2008.47364        -5.99239        10.53405
     2008.47638        -3.69325        10.51623
     2008.47912        -3.66612        10.45307
     2008.48186        -1.17398        10.77051
     2008.48459        -0.77285        10.72355
     2008.48733        -0.28871        10.50328
     2008.49007        -7.45657        10.59721
     2008.49281        -5.57444        10.52919
     2008.49555       -10.04630        10.62475
     2008.49828        -4.64717        10.54215
     2008.50102        -8.85803        10.34779
     2008.50376        -3.16390        10.50814
     2008.50650       -10.63176        10.52919
     2008.50924        -0.62563        10.61179
     2008.51197        11.15751        10.82234
     2008.51471         3.59365        10.69115
     2008.51745         1.25578        10.36399
     2008.52019         5.91592        10.74622
     2008.52292         7.39705        10.80291
     2008.52566         1.84719        10.87417
     2008.52840         0.36532        10.60693
     2008.53114        -1.48854        10.79643
     2008.53388         1.21259        10.82720
     2008.53661         0.21573        11.04747
     2008.53935         4.45387        10.64580
     2008.54209        -6.81200        10.51461
     2008.54483        -1.23086        10.99564
     2008.54757         0.12027        10.87093
     2008.55030         1.36841        10.76728
     2008.55304        12.35654        10.79481
     2008.55578        -1.27032        10.63123
     2008.55852         1.13281        10.71383
     2008.56125         0.67595        10.55349
     2008.56399        -0.34091        10.56482
     2008.56673         3.67422        10.69115
     2008.56947         4.70936        10.53081
     2008.57221         5.26149        10.57616
     2008.57494         4.79663        10.87903
     2008.57768         1.46176        10.86121
     2008.58042         5.78590        10.59074
     2008.58316         9.68304        10.67658
     2008.58590        12.97317        10.69763
     2008.58863         4.01431        10.75108
     2008.59137         3.80644        10.36075
     2008.59411         0.09958        10.45307
     2008.59685        -0.95429        10.82558
     2008.59958         9.19785        11.17542
     2008.60232         0.95998        10.98754
     2008.60506         0.17412        10.56158
     2008.60780         0.66526        10.49518
     2008.61054         0.21839        10.71869
     2008.61327         8.07453        11.07015
     2008.61601         1.74766        10.83206
     2008.61875         2.82480        10.79319
     2008.62149         6.25393        11.04261
     2008.62423         6.84007        10.86607
     2008.62696         3.25920        10.86121
     2008.62970         7.38134        10.85636
     2008.63244         0.51148        10.78347
     2008.63518         6.23161        10.73164
     2008.63791         0.70775        10.68629
     2008.64065         5.99888        10.67820
     2008.64339        11.23902        10.65876
     2008.64613         8.05415        10.95029
     2008.64887         1.33529        10.84988
     2008.65160         3.66842        10.62637
     2008.65434         6.36556        10.87255
     2008.65708        13.13570        11.16894
     2008.65982        -1.31917        10.97621
     2008.66256        10.27997        10.99078
     2008.66529         5.19910        10.92438
     2008.66803         0.45424        10.78023
     2008.67077         1.40537        10.94220
     2008.67351         6.02051        10.95839
     2008.67624         4.56065        11.68560
     2008.67898         4.01278        10.98107
     2008.68172         4.47892        10.93896
     2008.68446         6.58405        10.99402
     2008.68720         4.21519        10.94867
     2008.68993         6.59932        11.06043
     2008.69267         6.69646        10.99726
     2008.69541         2.27959        10.88551
     2008.69815         6.15973        10.94058
     2008.70089        15.01587        10.97459
     2008.70362         7.58500        10.97297
     2008.70636         9.46714        10.97621
     2008.70910         2.46727        11.07015
     2008.71184         5.67741        11.24021
     2008.71457        10.15954        10.74460
     2008.71731         7.21968        10.80453
     2008.72005         8.64081        10.79319
     2008.72279         2.85595        10.73650
     2008.72553         3.36809        10.86445
     2008.72826         2.42922        10.89523
     2008.73100         2.64636        10.84988
     2008.73374         2.04249        10.96811
     2008.73648         6.65063        10.84178
     2008.73921         6.01576        10.79643
     2008.74469         6.30803        10.95515
     2008.74743         8.91317        10.95839
     2008.75017        10.06331        10.91790
     2008.75290         8.92044        10.89361
     2008.75564         6.33758        10.92114
     2008.75838         0.12471        11.01346
     2008.76112         9.79085        10.71545
     2008.76386         4.79698        10.69763
     2008.76659         3.67212        10.95191
     2008.76933         2.26626        10.81101
     2008.77207         1.91639        10.59883
     2008.77481        -0.32847        10.21336
     2008.77754        -1.04934        10.33484
     2008.78028        -2.16620        10.27491
     2008.78302        -5.15807        10.69925
     2008.78576         5.60107        10.69925
     2008.78850         4.37420        10.66038
     2008.79123         7.68334        10.76728
     2008.79397        -6.56552        10.60531
     2008.79671         1.88961        10.59721
     2008.79945         3.05975        10.48708
     2008.80219         2.32988        10.44173
     2008.80492         2.57502        10.55672
     2008.80766         4.57915        10.69601
     2008.81040         3.25929        10.61827
     2008.81314         1.56042        10.57292
     2008.81587         7.76756        10.56806
     2008.81861        -1.87130        10.51299
     2008.82135        -3.22817        10.63609
     2008.82409         3.81497        10.87903
     2008.82683         0.65610        10.69925
     2008.82956         2.89024        10.60693
     2008.83230        -3.42363        10.79643
     2008.83504       -10.16049        10.84826
     2008.83778         1.31364        10.99888
     2008.84052         0.87678        11.12683
     2008.84325        -0.83308        11.02804
     2008.84599        -5.15595        10.83854
     2008.84873       -10.77981        10.81424
     2008.85147        -3.76368        10.80291
     2008.85420        -7.07454        10.80453
     2008.85694       -10.20441        10.69439
     2008.85968        -7.96427        10.54863
     2008.86242         0.53787        10.55025
     2008.86516        -4.72100        10.90980
     2008.86789        -5.24286        11.06367
     2008.87063        -2.49173        10.94705
     2008.87337       -11.17859        10.77537
     2008.87611        -3.16646        10.73812
     2008.87885        -8.48832        10.61017
     2008.88158       -10.79419        10.78833
     2008.88432        -8.39505        10.88065
     2008.88706        -7.82791        10.90332
     2008.88980        -7.21278        10.70897
     2008.89253        -6.66764        10.82882
     2008.89527        -3.72051        10.92762
     2008.89801         0.75263        11.13817
     2008.90075        -2.18724        10.88551
     2008.90349        -0.91110        10.59074
     2008.90622        -4.37097        10.67010
     2008.90896         4.11117        10.49194
     2008.91170       -11.88769        10.66362
     2008.91444        -2.20856        10.94381
     2008.91718        -2.25442        10.53891
     2008.91991         9.01471        10.70087
     2008.92265        -0.89015        10.42230
     2008.92539         1.47898        10.47088
     2008.92813         2.31912        10.46117
     2008.93086        -3.81775        10.74298
     2008.93360        -2.85561        10.40448
