# ================= DQRFIT RESULTS ================
# INPUT FILE: series/P665.rad
# OUTPUT: LDETRENDED
# FILTER FUNCTION: f(t)
# f(t)=+line(t)+annual(t)
# line(t)=+P 1+P 2*t
# annual(t)=+P 3*sin(2*pi*t+P 4)
# heav(t)=(t<0?0:1)
# TOTAL OBSERVATIONS MTOT= 3827
# INITIAL TIME INTERVAL= 2022.7488 - 2007.7563 = 14.9925
# TOTAL OBSERVATIONS AFTER PREFILTER M= 3432
# TIME-SPAN= 2022.7488 - 2007.7563 = 14.9925
# OBSERVATIONS: USED M=  3432 REJECTED MTOT-M=   395 %USED=   89.6786
# N=  4 PARAMETERS
# MAXSIG= 175.00000
# MAXRES= 172.52984
# SCALE FACTOR FOR LENGTHS: SCL=  10.00000
# SCALE FACTOR FOR SIGMAS: SCLSIG=   1.00000
# CHI^2=  20586.364 DOF=  3428 CHI^2/DOF=   6.00536
# RMS=     14.584 SDEV=     14.585 MEAN=    0.10194
#  P #       PARAMETER +-    SIGMA %error PARAMETER NAME
# P 1 =     13752.43636 +-  133.715   0.97 YZERO                              
# P 2 =        -6.83270 +-    0.066   0.97 SLOPE                              
# P 3 =         1.51422 +-    0.343  22.67 ANNUAL AMPLITUDE                   
# P 4 =         2.10676 +-    0.177   8.39 ANNUAL PHASE                       
#       T            LDETRENDED       SIG_OBS
     2007.75633         4.71843        14.29425
     2007.75906         1.52514        14.32366
     2007.76180        -1.40915        14.31140
     2007.76454         4.49755        14.22318
     2007.76728         0.63326        15.05393
     2007.77002         0.87097        15.42642
     2007.77275        -1.14233        14.83828
     2007.77549         4.50038        14.64468
     2007.77823        -8.17391        14.38982
     2007.78097        -2.70220        14.41188
     2007.78371         3.97150        14.09575
     2007.78644         6.17821        14.15702
     2007.78918         3.54192        14.38247
     2007.79192        -0.52238        14.63488
     2007.79466         4.61433        14.67409
     2007.79739        11.50804        14.54176
     2007.80013         9.95774        14.30650
     2007.80287        -0.40055        14.37022
     2007.80561        -9.23884        14.27220
     2007.80835         0.79786        14.53196
     2007.81108         0.58557        14.66919
     2007.81382        -0.50272        14.36532
     2007.81656         1.43999        14.70840
     2007.81930         1.23569        14.48540
     2007.82203        -4.85860        14.38982
     2007.82477        -6.94989        14.67409
     2007.82751        -6.30319        14.56381
     2007.83025        -7.06848        14.41188
     2007.83299        -4.36577        14.36042
     2007.83572        -1.76507        14.25994
     2007.83846        -0.54136        14.17662
     2007.84120        -2.88765        14.17907
     2007.84394        -7.99295        14.07125
     2007.84668        -1.88424        14.11046
     2007.84941        -3.46853        13.95117
     2007.85215         0.19318        14.24034
     2007.85489        -9.08812        14.47069
     2007.85763        -5.90241        14.18888
     2007.86036        -7.70370        14.10556
     2007.86310         3.75800        14.25014
     2007.86584       -11.38929        14.32121
     2007.86858        -3.50458        14.19133
     2007.87132        -4.80788        14.08595
     2007.87405       -11.16917        14.13006
     2007.87679       -11.03646        14.17417
     2007.87953       -10.54176        14.26729
     2007.88227        -6.11605        14.35306
     2007.88501        -6.54734        14.16192
     2007.88774        -5.44063        14.22073
     2007.89048        -7.94393        14.09330
     2007.89322        -4.32722        14.54421
     2007.89596        -1.19051        14.27220
     2007.89869        -3.88481        14.20848
     2007.90143        -4.68110        14.19623
     2007.90417        -2.71939        14.73291
     2007.90691        -5.37169        14.44864
     2007.90965        -9.27198        14.35061
     2007.91238        -4.46427        14.23299
     2007.91512        -2.54057        14.32856
     2007.91786        -5.12086        14.26484
     2007.92060       -10.18915        14.76231
     2007.92334       -32.01944        14.72065
     2007.92607        -0.46574        14.50745
     2007.92881        -5.78503        14.90935
     2007.93155       -13.78332        14.63243
     2007.93429        -7.29662        14.38002
     2007.93702        -7.61091        14.50990
     2007.93976        -5.00920        14.51480
     2007.94250        -9.20850        14.52461
     2007.94524        -4.43679        14.76966
     2007.94798        -7.72208        14.67654
     2007.95071        -5.05338        14.80152
     2007.95345        -1.94067        14.67164
     2007.95619        -2.02096        14.75251
     2007.95893        -1.73225        14.68389
     2007.96167        -0.38455        14.88239
     2007.96440        -4.14384        14.75251
     2007.96714         0.56887        14.83828
     2007.96988       -10.50643        14.57607
     2007.97262       -14.48572        14.67164
     2007.97535       -14.09901        14.61038
     2007.97809        -2.51431        14.63488
     2007.98083        -4.25760        14.52461
     2007.98357        -1.61389        14.35552
     2007.98631        -2.74219        14.73781
     2007.98904       -14.80848        14.60302
     2007.99178       -19.22077        14.55156
     2007.99452       -21.73506        14.59322
     2007.99726        -8.16436        14.34081
     2008.00000       -11.09165        14.32121
     2008.00273       -12.05994        14.22318
     2008.00547         1.32876        14.02224
     2008.00821        -7.48853        14.15457
     2008.01095        -0.17082        14.13251
     2008.01368        -4.28812        14.17907
     2008.01642        -4.29841        14.21338
     2008.01916        -9.08270        14.56627
     2008.02190       -11.59700        14.48540
     2008.02464       -16.35329        14.47314
     2008.02737       -26.80458        14.18152
     2008.03011       -26.90387        14.38982
     2008.03285       -15.87617        14.05164
     2008.03559       -11.35446        14.13251
     2008.03833       -14.56075        14.13006
     2008.04106       -20.07705        14.39963
     2008.04380       -22.77134        14.23789
     2008.04654       -16.78963        14.32121
     2008.04928       -11.31393        13.94627
     2008.05201       -14.47922        14.07370
     2008.05475       -19.68251        14.16192
     2008.05749       -23.74181        14.03939
     2008.06023        -9.26210        13.98793
     2008.06297        -5.82239        13.82374
     2008.06570       -16.87768        13.99773
     2008.06844        -7.62898        14.13741
     2008.07118         0.65573        14.30405
     2008.07392        24.72144        14.34571
     2008.07666        24.72814        14.83093
     2008.07939        23.70085        14.65204
     2008.08213        26.07956        14.25994
     2008.08487        36.30026        14.19868
     2008.08761        36.20597        14.15702
     2008.09582        42.62609        14.92650
     2008.09856        42.91380        14.97306
     2008.10130        37.96051        14.60057
     2008.10403        38.20521        14.15947
     2008.10677        38.19792        14.08840
     2008.10951        32.04563        14.13006
     2008.11225       -20.38867        14.09575
     2008.11498       -15.33296        14.00018
     2008.11772       -15.39125        14.00753
     2008.12046       -10.85755        13.95852
     2008.12320        -7.70884        14.30650
     2008.12594        -8.65813        13.96587
     2008.12867        -7.92843        13.95117
     2008.13141        -8.84872        13.93892
     2008.13415        -7.86701        13.99283
     2008.13689        -9.07331        14.07615
     2008.13963        -2.26860        13.98548
     2008.14236       -13.68689        14.13741
     2008.14510         5.83482        14.08595
     2008.14784        51.51052        14.09820
     2008.16427        43.53176        14.44374
     2008.16700        37.47047        14.28445
     2008.16974        40.37318        14.29425
     2008.17248        32.35988        14.16927
     2008.17522        30.26059        14.76231
     2008.17796        42.06830        14.23054
     2008.18069        30.33601        14.24279
     2008.18343        30.49671        14.19378
     2008.18617        34.53342        14.16927
     2008.19438         5.41454        14.52951
     2008.19712       -17.97175        14.60547
     2008.19986         1.99895        14.15947
     2008.20260         7.36466        14.46824
     2008.20533        10.99437        14.46579
     2008.20807         6.40707        15.21077
     2008.21081       -22.05222        14.60302
     2008.21355       -15.07951        14.43638
     2008.21629        -6.47080        14.81868
     2008.21902       -17.81110        14.77947
     2008.22176       -19.05439        14.75496
     2008.22450       -12.40068        14.73536
     2008.22724       -14.34698        14.41678
     2008.22997        -7.03427        14.89464
     2008.23271        -2.96856        14.95101
     2008.23545        -9.94386        14.94120
     2008.23819       -16.58015        14.61283
     2008.24005        -9.38442        25.46891
     2008.29685         2.62465        53.34919
     2008.29842        -9.94960        14.53931
     2008.30116       -11.83189        14.59077
     2008.30390        -7.83318        14.63243
     2008.30663        -3.74548        14.56627
     2008.30937       -16.98477        14.79907
     2008.31211       -10.95706        14.77211
     2008.31485       -14.23336        14.74516
     2008.31759       -12.28965        15.10539
     2008.32032        -5.30794        15.02207
     2008.32306       -10.09323        15.00002
     2008.32580       -13.21253        15.17401
     2008.32854       -14.99782        14.74026
     2008.33128       -18.72011        14.74516
     2008.33401       -13.84941        14.76476
     2008.33675       -13.74670        14.71575
     2008.33949        -4.24799        14.67409
     2008.34223       -15.31029        14.66429
     2008.34496       -16.27758        14.71330
     2008.34770        -9.60587        14.85788
     2008.35044        -8.11317        14.63733
     2008.35318       -10.65146        14.58587
     2008.35592       -11.61075        14.63243
     2008.35865       -10.81504        14.61283
     2008.36139        -4.89434        14.72065
     2008.36413       -10.79363        14.64959
     2008.36687        -8.64592        14.55646
     2008.36961       -23.73022        14.85543
     2008.37234       -10.56951        14.58342
     2008.37508       -12.53880        14.53931
     2008.37782        -9.68210        14.51970
     2008.38056        -7.08739        14.34816
     2008.38329        -4.96568        14.52461
     2008.38603        -6.95398        14.57362
     2008.38877       -11.56827        14.89464
     2008.39151        -9.08556        14.88239
     2008.39425       -23.29785        14.60302
     2008.39698       -11.89815        14.60793
     2008.39972        -2.52044        14.50500
     2008.40246        -5.60473        14.58097
     2008.40520       -11.37403        14.65939
     2008.40794        -8.87532        14.60793
     2008.41067        -5.55761        14.49275
     2008.41341        -5.08591        14.67409
     2008.41615        -9.93220        14.54176
     2008.41889        -7.43549        14.62263
     2008.42162        -6.69179        14.76231
     2008.42436        -6.50308        14.46089
     2008.42710        -8.47037        14.46089
     2008.42984        -8.22566        14.71085
     2008.43258        -3.68496        14.76966
     2008.43531        -9.04725        14.75006
     2008.43805        -4.85454        14.67164
     2008.44079       -12.08884        14.55891
     2008.44353        -8.03413        14.42903
     2008.44626        -6.26242        14.64959
     2008.44900        -8.19272        14.44864
     2008.45174        -6.95001        14.64713
     2008.45448        -3.31830        14.61283
     2008.45722        -6.55560        14.47069
     2008.45995        -4.03989        14.40208
     2008.46269        -9.33718        14.38492
     2008.46543        -6.02447        14.48295
     2008.46817        -5.93977        14.31631
     2008.47091       -11.98606        14.58097
     2008.47364        -2.51235        14.51480
     2008.47638        -3.05965        14.43148
     2008.47912        -5.22594        14.35552
     2008.48186        -6.83123        14.38737
     2008.48459        -7.24553        14.63978
     2008.48733        -4.42882        14.46089
     2008.49007        -3.32411        14.80887
     2008.49281        -9.39441        14.44864
     2008.49555       -12.51570        14.31876
     2008.49828       -10.07499        14.42658
     2008.50102        -5.62528        14.32121
     2008.50376        -4.79658        14.36287
     2008.50650        -5.59787        14.47804
     2008.50924        -4.69016        14.39718
     2008.51197         1.55054        14.52461
     2008.51471        -3.32775        14.63733
     2008.51745        -1.48604        14.34081
     2008.52019         0.77166        14.61283
     2008.52292        -4.94863        14.67654
     2008.52566         2.10008        14.77456
     2008.52840         8.78078        14.85543
     2008.53114         2.25249        14.80152
     2008.53388         4.23620        14.90200
     2008.53661        -2.32809        15.05393
     2008.53935         1.59561        14.56381
     2008.54209        -3.45868        14.45354
     2008.54483         1.66103        15.03433
     2008.54757         3.48373        14.87749
     2008.55030         4.18644        14.32121
     2008.55304         1.36715        14.61038
     2008.55578         1.76585        14.37757
     2008.55852         3.30856        14.62508
     2008.56125         0.26127        14.39718
     2008.56399         0.37997        14.38002
     2008.56673         4.92968        14.42658
     2008.56947         3.25739        14.42168
     2008.57221         5.67010        14.71085
     2008.57494         0.41880        14.96326
     2008.57768         3.60151        14.81622
     2008.58042        10.02322        14.34816
     2008.58316         6.53192        14.33101
     2008.58590         5.89163        14.47559
     2008.58863         3.46134        14.74026
     2008.59137        -1.92496        14.24034
     2008.59411         2.09375        14.27710
     2008.59685         4.88946        14.76966
     2008.59958         9.06816        15.07599
     2008.60232         7.36287        15.16421
     2008.60506         0.45858        14.55156
     2008.60780         0.84028        14.49765
     2008.61054         1.38999        14.56872
     2008.61327         1.59070        14.60302
     2008.61601         9.27941        14.76476
     2008.61875         2.09111        14.78192
     2008.62149        10.75382        14.98286
     2008.62423         2.76553        14.93630
     2008.62696         2.35223        14.68879
     2008.62970         9.15194        14.80887
     2008.63244         8.28165        14.75006
     2008.63518         8.53835        14.55401
     2008.63791         3.77206        14.69615
     2008.64065         5.47877        14.66674
     2008.64339         2.91147        14.60793
     2008.64613        13.70518        15.00737
     2008.64887         8.83989        14.82358
     2008.65160         2.73660        14.63978
     2008.65434         5.18130        15.07354
     2008.65708         6.53601        14.97061
     2008.65982         1.05372        14.80152
     2008.66256        13.05542        14.86524
     2008.66529         6.66313        14.86279
     2008.66803        -0.04916        14.92160
     2008.67077         0.85754        14.80642
     2008.67351         1.52925        14.82603
     2008.67624         2.25296        15.78666
     2008.67898         8.56966        14.78437
     2008.68172         4.13937        14.78927
     2008.68446         8.38808        14.88974
     2008.68720         3.59979        14.79907
     2008.68993         5.95949        14.94366
     2008.69267        -1.10180        15.13480
     2008.69541        11.85991        14.70840
     2008.69815        12.70161        14.82358
     2008.70089         5.55432        14.74271
     2008.70362        -0.22197        14.84808
     2008.70636         3.38473        14.71820
     2008.70910         9.64244        14.88974
     2008.71184         1.81315        15.18626
     2008.71457         8.81385        14.65449
     2008.71731         5.73556        14.64223
     2008.72005         6.13027        14.62018
     2008.72279         4.24198        14.47804
     2008.72553        -1.78932        14.70595
     2008.72826         3.44139        14.79417
     2008.73100         5.42110        14.63733
     2008.73374        -0.99820        14.71085
     2008.73648         3.64951        14.56627
     2008.73921         4.10222        14.46089
     2008.74469         3.72563        14.75496
     2008.74743         3.28134        14.85298
     2008.75017         6.15904        14.61038
     2008.75290         9.63875        14.52706
     2008.75564         7.32746        14.66184
     2008.75838         5.14017        14.69860
     2008.76112         6.03287        14.70350
     2008.76386         3.06258        14.64468
     2008.76659        -0.60171        14.65449
     2008.76933         1.83699        14.64223
     2008.77207         3.92670        14.32121
     2008.77481        -2.05059        14.34081
     2008.77754        -6.59089        14.34571
     2008.78028        -7.51818        14.29670
     2008.78302        -5.51847        14.38737
     2008.78576        -2.47377        14.27465
     2008.78850        -0.69606        14.45109
     2008.79123         6.39465        14.71085
     2008.79397        -5.97964        14.30650
     2008.79671        -1.75094        14.32856
     2008.79945         3.59977        14.28445
     2008.80219         7.91948        14.20358
     2008.80492        -2.00182        14.30405
     2008.80766         0.50889        14.31876
     2008.81040         2.16360        14.32121
     2008.81314         1.89930        14.25749
     2008.81587         1.36201        14.13251
     2008.81861        -1.88128        14.20848
     2008.82135        -1.85958        14.24769
     2008.82409         0.16713        14.60547
     2008.82683         2.40984        14.66919
     2008.82956         2.50755        14.27710
     2008.83230        -5.35175        14.46579
     2008.83504        -0.08404        14.71085
     2008.83778         3.33167        14.67899
     2008.84052        -7.24763        14.78682
     2008.84325        -0.04992        14.51970
     2008.84599        -1.06921        14.57607
     2008.84873        -9.10551        14.60057
     2008.85147        -4.52380        14.46579
     2008.85420        -5.32809        14.55646
     2008.85694         2.45161        14.61038
     2008.85968        -0.03068        14.25994
     2008.86242        -4.04197        14.24279
     2008.86516        -3.13726        14.51480
     2008.86789        -1.11856        14.50745
     2008.87063        -6.93085        14.87749
     2008.87337        -6.01414        14.46334
     2008.87611        -1.73444        14.34571
     2008.87885        -4.49673        14.29915
     2008.88158        -6.04802        14.64223
     2008.88432        -5.28632        14.65939
     2008.88706        -2.66161        14.57852
     2008.88980        -5.74090        14.78437
     2008.89253         1.59180        14.62508
     2008.89527        -4.81049        14.78437
     2008.89801        -1.56778        14.95101
     2008.90075        -2.36507        14.72800
     2008.90349        -3.95637        14.56136
     2008.90622        -6.01766        14.59567
