# ================= DQRFIT RESULTS ================
# INPUT FILE: series/P667.rad
# OUTPUT: LDETRENDED
# FILTER FUNCTION: f(t)
# f(t)=+line(t)+annual(t)
# line(t)=+P 1+P 2*t
# annual(t)=+P 3*sin(2*pi*t+P 4)
# heav(t)=(t<0?0:1)
# TOTAL OBSERVATIONS MTOT= 3363
# INITIAL TIME INTERVAL= 2022.7488 - 2007.7563 = 14.9925
# TOTAL OBSERVATIONS AFTER PREFILTER M= 2986
# TIME-SPAN= 2022.7488 - 2007.7563 = 14.9925
# OBSERVATIONS: USED M=  2986 REJECTED MTOT-M=   377 %USED=   88.7898
# N=  4 PARAMETERS
# MAXSIG= 175.00000
# MAXRES= 325.64026
# SCALE FACTOR FOR LENGTHS: SCL=  10.00000
# SCALE FACTOR FOR SIGMAS: SCLSIG=   1.00000
# CHI^2= 161749.923 DOF=  2982 CHI^2/DOF=  54.24209
# RMS=     57.384 SDEV=     57.148 MEAN=    5.30982
#  P #       PARAMETER +-    SIGMA %error PARAMETER NAME
# P 1 =     20031.53368 +-  496.569   2.48 YZERO                              
# P 2 =        -9.95129 +-    0.247   2.48 SLOPE                              
# P 3 =        22.00268 +-    1.392   6.32 ANNUAL AMPLITUDE                   
# P 4 =         0.19913 +-    0.088  44.23 ANNUAL PHASE                       
#       T            LDETRENDED       SIG_OBS
     2007.75633       -22.24005        46.38429
     2007.75906       -33.63280        45.97185
     2007.76180       -27.67156        47.36382
     2007.76454       -30.01331        46.40638
     2007.76728       -29.07007        50.15513
     2007.77002       -19.31882        51.58392
     2007.77275       -27.84258        49.27870
     2007.77549       -28.67233        46.92929
     2007.77823       -33.32109        47.96774
     2007.78097       -26.50384        46.55368
     2007.78371       -21.10460        47.84254
     2007.78644       -23.76635        47.00294
     2007.78918       -25.34111        46.02341
     2007.79192       -26.47186        47.87200
     2007.79466       -27.85762        48.48329
     2007.79739       -24.00237        46.70834
     2007.80013       -24.11413        46.04550
     2007.80287       -32.68688        45.94976
     2007.80561       -21.29064        46.18543
     2007.80835       -22.57239        47.27544
     2007.81108       -20.40715        47.47429
     2007.81382       -25.11290        47.11341
     2007.81656       -30.18266        47.22389
     2007.81930       -26.24141        46.43584
     2007.82203       -29.21916        45.86874
     2007.82477       -33.00592        47.26808
     2007.82751       -39.92367        47.30490
     2007.83025       -28.55743        47.57740
     2007.83299       -30.57118        46.15597
     2007.83572       -26.28994        45.78036
     2007.83846       -26.67769        46.36956
     2007.84120       -31.50845        45.59624
     2007.84394       -33.87020        46.14861
     2007.84668       -33.40896        45.14698
     2007.84941       -28.81871        45.78773
     2007.85215       -28.18947        46.04550
     2007.85489       -32.14522        46.79672
     2007.85763       -35.57098        46.58314
     2007.86036       -42.02973        47.70261
     2007.86310       -25.34349        46.53895
     2007.86584       -37.65924        47.64369
     2007.86858       -44.53400        46.17070
     2007.87132       -37.89575        46.13388
     2007.87405       -34.89951        46.87774
     2007.87679       -35.89826        46.70834
     2007.87953       -40.04802        46.16334
     2007.88227       -34.93477        48.15187
     2007.88501       -34.99653        46.11178
     2007.88774       -35.24528        46.36956
     2007.89048       -40.43504        46.31064
     2007.89322       -32.25479        47.33436
     2007.89596       -28.56755        47.07659
     2007.89869       -33.19130        46.95139
     2007.90143       -35.72306        46.12651
     2007.90417       -34.82081        46.55368
     2007.90691       -38.92857        46.24435
     2007.90965       -41.99932        46.87037
     2007.91238       -31.85207        46.87037
     2007.91512       -31.02883        45.94239
     2007.91786       -40.21858        46.21489
     2007.92060       -36.74334        48.71160
     2007.92334       -57.60109        47.54058
     2007.92607       -34.85585        47.78362
     2007.92881       -37.27560        47.17970
     2007.93155       -33.58936        47.35646
     2007.93429       -33.75811        46.93666
     2007.93702       -33.75987        46.87037
     2007.93976       -34.93262        46.27381
     2007.94250       -36.39338        47.11341
     2007.94524       -26.22813        48.39491
     2007.94798       -34.14489        47.70261
     2007.95071       -36.21964        47.01030
     2007.95345       -26.53340        47.59950
     2007.95619       -30.30415        47.17970
     2007.95893       -28.53391        48.32863
     2007.96167       -24.76066        48.44646
     2007.96440       -43.41742        48.49065
     2007.96714       -36.98717        49.68377
     2007.96988       -45.88893        46.89247
     2007.97262       -46.57268        47.79099
     2007.97535       -42.70144        47.70997
     2007.97809       -35.07619        47.79835
     2007.98083       -33.83295        47.24598
     2007.98357       -36.68070        47.15024
     2007.98631       -33.89246        48.07822
     2007.98904       -29.56321        47.51848
     2007.99178       -24.52897        48.08558
     2007.99452       -35.52972        47.95301
     2007.99726       -39.31048        45.47104
     2008.00000       -39.49523        47.44484
     2008.00273       -40.25298        47.37855
     2008.00547       -33.19774        46.36956
     2008.00821       -27.65049        46.40638
     2008.01095        17.89175        47.20916
     2008.08213       167.76512        48.88836
     2008.08487       188.17837        50.75169
     2008.08761       189.30661        51.49554
     2008.09034       231.10386        52.82123
     2008.09308       237.86411        52.59292
     2008.09582       244.63535        53.29258
     2008.09856       244.85260        55.09699
     2008.10130       241.31184        54.19847
     2008.10677       245.44633        52.70339
     2008.10951       220.54958        51.12730
     2008.11225       215.65982        54.12482
     2008.11498       187.52407        63.97909
     2008.11772       247.36531        65.41525
     2008.12046       204.58156        55.73774
     2008.12320       197.79880        57.43167
     2008.12594       236.67305        59.59696
     2008.12867       241.61629        64.06010
     2008.13689       252.29903        54.82449
     2008.13963       261.89027        55.98078
     2008.14510       248.20076        54.74347
     2008.14784       247.47001        57.61579
     2008.15058       282.79925        60.94474
     2008.16427       277.30048        98.04186
     2008.16700       237.43672        84.33574
     2008.16974       204.43997        80.66064
     2008.17248       235.32821        85.58777
     2008.17796       280.36571        85.05750
     2008.18069       239.57595        79.05509
     2008.18343       225.64320        77.20649
     2008.18617       262.88044        73.57558
     2008.18891       211.64969        89.49855
     2008.19712       244.83242        88.26124
     2008.20260       181.58991        75.36526
     2008.20533       199.61916        72.99375
     2008.20807       193.71740        76.33006
     2008.21621       195.42743        64.54619
     2008.40794       -25.96370        49.75742
     2008.41067       -28.73446        48.93255
     2008.41341       -26.25721        49.18296
     2008.41615       -28.90797        49.05775
     2008.41889       -28.04472        47.51848
     2008.42162       -36.83848        48.80735
     2008.42436       -31.74023        48.45383
     2008.42710       -35.16299        47.75416
     2008.42984       -30.96574        47.55531
     2008.43258       -24.73950        49.07248
     2008.43531       -27.58725        48.47592
     2008.43805       -28.05301        49.69850
     2008.44079       -40.18976        47.45957
     2008.44353       -32.15451        47.17233
     2008.44626       -30.62627        47.89410
     2008.44900       -29.49702        47.54794
     2008.45174       -27.95378        47.23862
     2008.45448       -29.67953        48.77052
     2008.45722       -27.37229        47.87200
     2008.45995       -27.74304        47.43747
     2008.46269       -30.37980        47.03976
     2008.46543       -31.71755        48.12241
     2008.46817       -24.84931        47.60686
     2008.47091       -28.22006        47.23125
     2008.47364       -18.65482        47.10605
     2008.47638       -21.90757        46.81145
     2008.47912       -26.75733        46.77463
     2008.48186       -26.01908        46.45057
     2008.48459       -23.17184        48.68951
     2008.48733       -23.80359        46.12651
     2008.49007       -31.28535        47.13551
     2008.49281       -28.18010        46.87774
     2008.49555       -36.51586        46.09705
     2008.49828       -27.68061        46.28118
     2008.50102       -27.17737        46.52422
     2008.50376       -23.52212        47.59213
     2008.50650       -23.68888        46.59787
     2008.50924       -32.81163        46.89983
     2008.51197       -24.39239        46.95875
     2008.51471       -18.57214        48.62322
     2008.51745       -17.17990        47.01030
     2008.52019       -16.21565        48.04139
     2008.52292       -20.07641        47.87937
     2008.52566       -24.81316        47.37119
     2008.52840       -24.12892        48.00457
     2008.53114       -11.24067        47.97511
     2008.53388       -12.50842        48.36545
     2008.53661       -19.22018        48.68214
     2008.53935       -27.41193        47.47429
     2008.54209       -27.66969        46.50213
     2008.54483       -15.92644        49.24188
     2008.54757       -16.40020        48.18869
     2008.55030       -17.98195        47.87200
     2008.55304       -19.89671        48.86627
     2008.55578       -19.85746        47.83518
     2008.55852       -26.38722        47.51112
     2008.56125       -17.67897        47.29754
     2008.56399       -16.55473        47.76889
     2008.56673       -17.84448        47.48902
     2008.56947       -24.70924        46.61996
     2008.57221       -18.50699        46.77463
     2008.57494       -20.18475        49.18296
     2008.57768       -15.84750        47.43747
     2008.58042       -12.89126        47.12078
     2008.58316       -18.15401        48.34336
     2008.58590       -11.32477        47.20916
     2008.58863       -23.23552        48.17396
     2008.59137       -15.62328        46.28118
     2008.59411       -19.15103        47.85727
     2008.59685       -34.17179        47.62159
     2008.59958       -18.86754        50.61912
     2008.60232       -22.09230        49.77952
     2008.60506       -22.50005        47.00294
     2008.60780       -17.58581        47.32700
     2008.61054       -22.83656        48.17396
     2008.61327        -8.69632        49.58803
     2008.61601       -19.98907        49.31553
     2008.61875       -18.71983        48.74843
     2008.62149       -22.80458        48.68951
     2008.62423       -13.70833        49.78688
     2008.62696       -21.52909        48.63795
     2008.62970       -11.11984        49.16823
     2008.63244       -24.66360        47.85727
     2008.63518       -24.46135        47.02503
     2008.63791       -17.37811        47.04713
     2008.64065       -16.18686        47.40065
     2008.64339       -14.87162        48.31390
     2008.64613       -17.59337        49.07248
     2008.64887       -25.68713        47.58477
     2008.65160       -15.56988        47.88673
     2008.65434       -13.34364        48.56430
     2008.65708       -20.61139        50.43499
     2008.65982       -22.92915        48.93991
     2008.66256       -17.46890        47.78362
     2008.66529       -21.57366        48.71160
     2008.66803       -20.09641        49.03566
     2008.67077       -27.15317        48.92518
     2008.67351       -16.15992        48.63795
     2008.67624       -19.45868        51.82696
     2008.67898       -21.23443        49.17559
     2008.68172       -20.93519        48.05612
     2008.68446       -18.76094        49.08721
     2008.68720       -21.68570        48.98410
     2008.68993       -15.22245        48.97674
     2008.69267       -27.73621        48.07822
     2008.69541       -22.34896        47.22389
     2008.69815       -17.66972        49.15350
     2008.70089       -20.63047        47.93092
     2008.70362       -15.60923        48.19606
     2008.70636       -17.27698        48.57903
     2008.70910       -21.16074        48.77789
     2008.71184       -22.16849        49.41863
     2008.71457       -18.15424        48.00457
     2008.71731       -24.46300        47.24598
     2008.72005       -16.67975        47.24598
     2008.72279       -23.54151        46.89983
     2008.72553       -22.45826        48.18869
     2008.72826       -20.65202        48.75579
     2008.73100       -21.31277        48.28444
     2008.73374       -15.72353        48.63795
     2008.73648       -17.46328        46.87037
     2008.73921       -19.35904        47.52585
     2008.74469       -20.86155        48.06349
     2008.74743       -18.11130        47.94565
     2008.75017       -15.04606        47.97511
     2008.75290       -20.55381        48.41701
     2008.75564       -17.19357        47.90146
     2008.75838       -34.61932        49.99310
     2008.76112       -25.00308        48.24025
     2008.76386       -26.65683        48.59376
     2008.76659       -20.07059        48.84417
     2008.76933       -30.18934        47.40801
     2008.77207       -30.26410        46.55368
     2008.77481       -28.28685        45.75090
     2008.77754       -28.31261        46.70098
     2008.78028       -25.82736        46.00868
     2008.78302       -30.73812        46.68625
     2008.78576       -29.66787        46.03077
     2008.78850       -26.31963        46.82618
     2008.79123       -22.21338        46.78936
     2008.79397       -36.12214        46.47267
     2008.79671       -25.64289        46.66415
     2008.79945       -27.71364        46.34746
     2008.80219       -23.01840        45.92766
     2008.80492       -26.61815        46.03813
     2008.80766       -25.49091        46.93666
     2008.81040       -25.72166        46.81882
     2008.81314       -25.19242        45.83192
     2008.81587       -24.15817        46.81882
     2008.81861       -33.37593        46.40638
     2008.82135       -30.85368        46.76726
     2008.82409       -26.66344        47.73943
     2008.82683       -26.27019        47.53321
     2008.82956       -27.90495        46.33273
     2008.83230       -26.71270        48.36545
     2008.83504       -29.18846        48.38755
     2008.83778       -55.69121        48.99147
     2008.84052       -28.49097        49.52174
     2008.84325       -33.81872        48.60849
     2008.84599       -37.46448        47.88673
     2008.84873       -39.80923        48.32126
     2008.85147       -31.30899        48.15923
     2008.85420       -36.72574        48.40228
     2008.85694       -41.57950        48.59376
     2008.85968       -35.37225        47.23862
     2008.86242       -34.06501        48.05612
     2008.86516       -37.07276        48.66005
     2008.86789       -33.68952        47.93092
     2008.87063       -29.64727        48.99147
     2008.87337       -37.07603        46.98821
     2008.87611       -33.50778        47.19443
     2008.87885       -34.35254        47.45220
     2008.88158       -26.03429        47.62896
     2008.88432       -31.79805        48.11504
     2008.88706       -36.59480        48.35809
     2008.88980       -33.99855        47.80572
     2008.89253       -28.80531        47.67315
     2008.89527       -26.88406        47.84254
     2008.89801       -21.63982        49.35972
     2008.90075       -31.78257        48.96937
     2008.90349       -33.96033        48.28444
     2008.90622       -33.61408        47.50375
     2008.90896       -25.59484        47.69524
     2008.91170       -36.18759        47.59213
     2008.91444       -25.17935        48.14450
     2008.91718       -26.70010        46.89247
     2008.91991       -25.98286        47.06922
     2008.92265       -28.24561        47.45220
     2008.92539       -26.67537        47.29017
     2008.92813       -28.44912        46.78936
     2008.93086       -33.31688        47.53321
     2008.93360       -24.36463        46.97348
     2008.93634       -29.71539        47.25335
     2008.93908       -30.84514        46.60523
     2008.94182       -32.93890        46.51685
     2008.94455       -36.85965        47.37119
     2008.94729       -28.54841        47.36382
     2008.95003       -32.45316        46.09705
     2008.95277       -31.29892        45.47104
     2008.95551       -24.29167        44.86711
     2008.95824       -36.16843        45.84665
     2008.96098       -29.30618        46.13388
     2008.96372       -32.16794        46.31064
     2008.96646       -37.39069        48.40228
     2008.96919       -38.71745        45.80246
     2008.97193       -36.02720        46.84828
     2008.97467       -35.88696        46.95875
     2008.97741       -34.57371        46.90720
     2008.98015       -31.35446        47.22389
     2008.98288       -33.06822        47.15024
     2008.98562       -34.39797        45.21326
     2008.98836       -41.80273        45.92766
     2008.99110       -35.15448        46.26645
     2008.99384       -37.03524        49.01356
     2008.99657       -38.08399        47.84254
     2008.99931       -47.29875        46.86301
     2009.00479       -37.78026        47.48902
     2009.00752       -28.25201        45.35320
     2009.01026       -30.84777        46.12651
     2009.01300       -31.62952        46.40638
     2009.01574       -48.75128        46.24435
     2009.01848       -41.02303        47.17233
     2009.02121       -40.63379        47.82045
     2009.02395       -35.71854        48.27707
     2009.02669       -41.85030        47.74680
     2009.02943       -45.53205        47.24598
     2009.03216       -43.47181        47.03976
     2009.03490       -41.71156        47.45220
     2009.03764       -37.47232        48.55694
     2009.04038       -41.04707        48.90309
     2009.04312       -41.50683        48.32863
     2009.04585       -48.11458        46.83355
     2009.04859       -44.97234        46.32537
     2009.05133       -45.74009        47.53321
     2009.05407       -42.93985        46.95875
     2009.05681       -44.66160        48.13714
     2009.05954       -57.53736        46.80409
     2009.06228       -40.90011        47.60686
     2009.06502       -47.80686        47.44484
     2009.06776       -47.12062        47.15024
     2009.12525        18.08953        46.39902
     2009.12799        49.57077        46.84828
     2009.13073        41.58402        49.96364
     2009.13347        40.81226        47.20179
     2009.13620        25.67451        48.01930
     2009.13894        28.90275        47.80572
     2009.14168        18.85400        48.74106
     2009.14442        28.86524        47.75416
     2009.14715       105.18349        50.43499
     2009.20739       120.53688        77.84724
     2009.21013        72.77013        96.37738
     2009.22108        71.64611        89.32179
     2009.22381        79.25035        88.53374
     2009.22655        18.24160        86.16960
     2009.22929        95.73884        92.65073
     2009.23203        81.63009        99.60322
     2009.24024       162.19682        85.22689
     2009.24298       163.05307        71.07151
     2009.24572       184.81832        84.86601
     2009.24846       171.84956        77.58210
     2009.25119       167.27481        80.79321
     2009.25393       195.69005        68.08871
