# ================= DQRFIT RESULTS ================
# INPUT FILE: series/P668.rad
# OUTPUT: LDETRENDED
# FILTER FUNCTION: f(t)
# f(t)=+line(t)+annual(t)
# line(t)=+P 1+P 2*t
# annual(t)=+P 3*sin(2*pi*t+P 4)
# heav(t)=(t<0?0:1)
# TOTAL OBSERVATIONS MTOT= 4211
# INITIAL TIME INTERVAL= 2022.7488 - 2007.7563 = 14.9925
# TOTAL OBSERVATIONS AFTER PREFILTER M= 4124
# TIME-SPAN= 2022.7488 - 2007.7563 = 14.9925
# OBSERVATIONS: USED M=  4124 REJECTED MTOT-M=    87 %USED=   97.9340
# N=  4 PARAMETERS
# MAXSIG= 175.00000
# MAXRES=  43.24438
# SCALE FACTOR FOR LENGTHS: SCL=  10.00000
# SCALE FACTOR FOR SIGMAS: SCLSIG=   1.00000
# CHI^2=   7611.389 DOF=  4120 CHI^2/DOF=   1.84742
# RMS=      8.115 SDEV=      8.116 MEAN=   -0.00731
#  P #       PARAMETER +-    SIGMA %error PARAMETER NAME
# P 1 =     10875.13447 +-   67.841   0.62 YZERO                              
# P 2 =        -5.39918 +-    0.034   0.62 SLOPE                              
# P 3 =         5.16176 +-    0.183   3.55 ANNUAL AMPLITUDE                   
# P 4 =         3.10388 +-    0.050   1.62 ANNUAL PHASE                       
#       T            LDETRENDED       SIG_OBS
     2007.75633         2.72562         8.12530
     2007.75906         2.25640         8.01248
     2007.76180        12.72118         8.06277
     2007.76454         6.78696         8.06413
     2007.76728         4.91574         8.42840
     2007.77002        -1.78247         8.63772
     2007.77275         4.73331         8.45558
     2007.77549         8.52309         8.00705
     2007.77823         0.73487         8.04510
     2007.78097         7.25266         8.05326
     2007.78371         4.99344         7.88064
     2007.78644         6.28922         8.23403
     2007.78918         9.42800         8.12666
     2007.79192        -0.72022         8.14569
     2007.79466        12.95257         8.27345
     2007.79739       -10.45965         8.25170
     2007.80013        14.63013         8.05190
     2007.80287         7.39191         7.98394
     2007.80561        11.73069         7.98258
     2007.80835         4.77048         8.15520
     2007.81108         4.06326         8.15928
     2007.81382         7.75004         8.04646
     2007.81656         7.14582         8.28568
     2007.81930         2.32561         8.11035
     2007.82203         3.25639         8.12258
     2007.82477        -7.13983         8.23811
     2007.82751        -3.84805         8.16471
     2007.83025         3.12973         8.06957
     2007.83299         6.19652         8.02064
     2007.83572         2.30830         7.95268
     2007.83846         1.49408         7.89967
     2007.84120         4.12586         7.94181
     2007.84394        -1.14935         7.86841
     2007.84668        -2.83957         7.86161
     2007.84941         2.25221         7.97443
     2007.85215         3.25499         8.03559
     2007.85489        -4.89723         8.05326
     2007.85763        -2.19044         7.89695
     2007.86036        -0.96566         7.92685
     2007.86310         9.54912         7.97579
     2007.86584        -3.25110         8.03559
     2007.86858        -0.91632         7.91462
     2007.87132       -12.45553         8.09675
     2007.87405         2.97525         8.02336
     2007.87679       -13.29997         8.10627
     2007.87953       -12.50319         8.05326
     2007.88227       -13.21040         8.20141
     2007.88501         0.90738         7.86433
     2007.88774        -3.73984         8.04646
     2007.89048        -0.40606         7.90783
     2007.89322         4.29272         8.19598
     2007.89596         3.77851         8.10627
     2007.89869        -2.13371         7.98802
     2007.90143        -3.25993         8.04239
     2007.90417         6.33685         8.26937
     2007.90691        -0.54837         8.03695
     2007.90965        -2.37658         8.14161
     2007.91238         2.89420         8.09268
     2007.91512         1.91798         7.96355
     2007.91786        -6.70224         8.13073
     2007.92060         4.37855         8.45558
     2007.92334        -6.14967         8.44471
     2007.92607         6.01811         8.13209
     2007.92881        -4.88211         8.17151
     2007.93155         3.46467         8.07229
     2007.93429        -4.65554         8.00841
     2007.93702        -5.63276         8.07773
     2007.93976         2.91602         8.14569
     2007.94250        -3.57320         8.15112
     2007.94524         3.18658         8.28296
     2007.94798        -1.33563         8.19462
     2007.95071         1.43215         8.23539
     2007.95345         1.42593         8.37131
     2007.95619         3.54471         8.19734
     2007.95893        -0.66050         8.33597
     2007.96167        -4.18872         8.23539
     2007.96440        -6.27794         8.21772
     2007.96714        -7.02316         8.38762
     2007.96988        -5.02638         8.19869
     2007.97262        -9.69259         8.35228
     2007.97535       -13.18181         8.29520
     2007.97809        -1.46603         8.40665
     2007.98083         0.09275         8.26665
     2007.98357         6.37354         8.02608
     2007.98631         8.18432         8.20005
     2007.98904         2.18110         8.22588
     2007.99178        -1.01812         8.17559
     2007.99452        -1.08634         8.15656
     2007.99726         0.21645         8.02064
     2008.00000        -9.21277         8.06685
     2008.00273       -11.71399         8.01248
     2008.00547        -3.60621         7.96763
     2008.00821        -0.36043         8.10899
     2008.01095         3.37136         8.00161
     2008.01368         5.84914         7.94045
     2008.01642         3.50392         7.89967
     2008.01916        -1.87530         7.97850
     2008.02190        -5.11151         8.01112
     2008.02464        -1.85873         8.08860
     2008.02737        -4.61495         7.96627
     2008.03011        -5.33217         8.16607
     2008.03285        -4.26839         7.96763
     2008.03559        -0.24160         7.87113
     2008.03833        -5.99682         8.00025
     2008.04106        -3.80004         8.01112
     2008.04380        -3.65026         8.01656
     2008.04654        -0.89248         8.03151
     2008.04928        -6.99069         7.88744
     2008.05201        -8.42691         7.89152
     2008.05475       -14.45813         7.86977
     2008.05749       -24.95535         7.81268
     2008.06023        -5.51956         7.70802
     2008.06297        -5.78178         7.68492
     2008.06570       -10.04800         7.76239
     2008.06844        -8.05022         7.88608
     2008.07118        -5.77044         7.90103
     2008.07392         3.01835         7.75967
     2008.07666         7.16313         8.17015
     2008.07939        -0.49509         8.06821
     2008.08213        -5.10731         7.81132
     2008.08487       -14.10153         7.84394
     2008.08761       -10.07074         7.82084
     2008.09034        -2.65496         7.82627
     2008.09308        -5.68618         7.76239
     2008.09582        -4.10840         8.02200
     2008.09856        -7.15961         8.14433
     2008.10130       -11.71283         8.16064
     2008.10403        -6.29005         7.79229
     2008.10677        -5.75227         7.86569
     2008.10951       -10.00049         7.84938
     2008.11225        -7.81770         7.82627
     2008.11498        -6.40992         7.82356
     2008.11772        -2.78414         7.83987
     2008.12046        -2.95436         7.77598
     2008.12320        -3.28657         8.04782
     2008.12594        -6.20779         7.83715
     2008.12867        -2.72601         7.85482
     2008.13141        -1.04023         7.83035
     2008.13415        -2.20245         7.96083
     2008.13689        -0.29366         7.89831
     2008.13963         2.32812         7.84258
     2008.14236       -21.96310         7.87113
     2008.14510        -1.20732         7.81268
     2008.14784        -6.37354         8.07908
     2008.15058        13.61925         8.28976
     2008.15331       -11.54097         8.07501
     2008.15605        -8.63019         8.12122
     2008.15879         4.98659         7.89695
     2008.16153        -6.23962         8.08588
     2008.16427       -10.98184         8.08724
     2008.16700        -6.47006         7.84666
     2008.16974       -12.85728         7.86977
     2008.17248       -14.47250         7.81268
     2008.17522       -12.71071         8.13209
     2008.17796       -12.56193         7.90647
     2008.18069       -16.14515         7.89423
     2008.18343       -12.88337         7.97443
     2008.18617        -9.58659         7.83035
     2008.18891       -16.09380         8.02200
     2008.19164       -17.36602         8.12802
     2008.19438       -13.00024         8.12530
     2008.19712        -4.03346         8.26122
     2008.19986        -4.55967         7.88336
     2008.20260        -5.64289         7.94860
     2008.20533        -2.12411         7.93365
     2008.20807        -3.03433         8.36724
     2008.21081        -7.80555         8.30879
     2008.21355       -13.95076         8.25986
     2008.21629        -9.02398         8.21229
     2008.21902       -10.80420         8.21229
     2008.22176        -5.83742         8.28704
     2008.22450       -10.29163         8.36452
     2008.22724       -13.67085         8.28704
     2008.22997       -19.02307         8.58335
     2008.23271       -11.98829         8.54257
     2008.23545       -11.11651         8.38762
     2008.23819       -10.62872         8.35500
     2008.24093       -12.40394         8.25850
     2008.24366        -4.69216         8.12938
     2008.24640        -8.45638         8.08588
     2008.24914        -7.51260         8.22860
     2008.25188        -8.55981         8.42976
     2008.25462        -6.16703         8.16336
     2008.25735       -17.23225         8.30471
     2008.26009        -5.08147         8.28296
     2008.26283        -9.05968         8.30879
     2008.26557       -10.68890         8.25578
     2008.26830        -8.32812         8.18918
     2008.27104        -5.64634         8.18918
     2008.27378         0.08944         8.26394
     2008.27652        -5.44477         8.25578
     2008.27926        -7.78099         8.34957
     2008.28199        -5.91121         8.33869
     2008.28473        -9.13243         8.41888
     2008.28747        -3.29665         8.25034
     2008.28918         4.41659        16.89350
     2008.30209       -15.09670        14.87916
     2008.30390        -6.35895         8.19326
     2008.30663        -8.26817         8.19190
     2008.30937       -31.41539         8.33597
     2008.31211        -7.45761         8.22860
     2008.31485        -7.40882         8.29792
     2008.31759       -13.63504         8.52898
     2008.32032       -12.78726         8.49364
     2008.32306       -10.70848         8.38762
     2008.32580        -5.30170         8.58335
     2008.32854        -5.14391         8.20549
     2008.33128        -1.97813         8.29384
     2008.33401        -3.44135         8.35772
     2008.33675        -4.16057         8.23539
     2008.33949        -2.69778         8.34957
     2008.34223        -4.47500         8.22044
     2008.34496        -8.24522         8.27073
     2008.34770         0.87856         8.36588
     2008.35044        -3.89666         8.09811
     2008.35318        -6.67887         8.24491
     2008.35592        -5.30809         8.20685
     2008.35865        -4.21031         8.28025
     2008.36139        -1.07353         8.28976
     2008.36413         0.86726         8.23947
     2008.36687        -8.95396         8.22860
     2008.36961        -7.90918         8.17967
     2008.37234        -9.23340         8.27753
     2008.37508        -6.32262         8.33054
     2008.37782        -7.63783         8.27209
     2008.38056        -8.04705         8.15792
     2008.38329       -10.99927         8.36995
     2008.38603        -1.64849         8.09404
     2008.38877        -3.67371         8.32646
     2008.39151         1.59308         8.34413
     2008.39425       -11.43814         8.39306
     2008.39698        -1.66036         8.17151
     2008.39972        -0.02658         8.18782
     2008.40246        -1.22779         8.14161
     2008.40520         3.88399         8.10899
     2008.40794        -1.24223         8.25034
     2008.41067        -2.61545         8.15656
     2008.41341        -7.04967         8.13889
     2008.41615         1.42012         8.18510
     2008.41889        -5.61510         8.15248
     2008.42162        -6.18832         8.23947
     2008.42436         0.29746         8.12666
     2008.42710        -1.91076         8.12122
     2008.42984        -9.02297         8.22860
     2008.43258         3.22981         8.25986
     2008.43531         2.36459         8.23675
     2008.43805         0.33137         8.30335
     2008.44079        -7.74184         8.14976
     2008.44353        -7.21906         8.10083
     2008.44626        -3.12628         8.15112
     2008.44900        -0.59050         8.07365
     2008.45174        -8.38672         8.23267
     2008.45448        -9.13393         8.32510
     2008.45722        -0.33215         8.12666
     2008.45995        -4.45237         8.13753
     2008.46269        -9.07359         8.10219
     2008.46543        -5.58981         8.10899
     2008.46817         0.16598         8.09540
     2008.47091        -8.13124         8.31830
     2008.47364        -2.81046         8.29656
     2008.47638        -1.41168         8.07773
     2008.47912         0.90411         8.07093
     2008.48186         2.00289         8.18782
     2008.48459         1.25467         8.24083
     2008.48733        -1.69355         8.14161
     2008.49007         1.73523         8.43248
     2008.49281         0.07802         8.29928
     2008.49555        -7.60720         8.11442
     2008.49828         2.14458         8.14433
     2008.50102        -8.57764         8.15520
     2008.50376        -2.81785         8.14161
     2008.50650        -8.71207         8.28976
     2008.50924         3.52071         8.16336
     2008.51197         8.96649         8.25578
     2008.51471         9.24427         8.22180
     2008.51745         4.02306         8.11714
     2008.52019         4.05684         8.27345
     2008.52292         7.66962         8.34821
     2008.52566         5.02140         8.41753
     2008.52840        10.60218         8.39306
     2008.53114        13.42597         8.33597
     2008.53388        10.52975         8.36859
     2008.53661         7.72753         8.77500
     2008.53935        12.49631         8.37947
     2008.54209         4.57510         8.09268
     2008.54483         3.70588         8.41073
     2008.54757         4.03566         8.37539
     2008.55030         5.07044         8.21229
     2008.55304         0.41022         8.34957
     2008.55578         5.27701         8.11714
     2008.55852         6.29779         8.22860
     2008.56125         2.99057         8.07908
     2008.56399         5.54735         8.07093
     2008.56673         2.97213         8.20005
     2008.56947         1.62392         8.07773
     2008.57221        15.19270         8.26122
     2008.57494         7.82548         8.42160
     2008.57768        -2.17774         8.36724
     2008.58042        11.85405         7.97579
     2008.58316         6.90383         8.12666
     2008.58590         6.77961         8.14025
     2008.58863         3.29539         8.36452
     2008.59137         4.05717         8.09132
     2008.59411        -0.32604         8.16064
     2008.59685         2.37074         8.34141
     2008.59958         7.67052         8.64587
     2008.60232         4.91630         8.71655
     2008.60506         2.02708         8.25986
     2008.60780         7.17287         8.21500
     2008.61054         3.90565         8.33597
     2008.61327        10.43843         8.38490
     2008.61601        15.40421         8.34277
     2008.61875         9.06000         8.25306
     2008.62149        15.15078         8.35228
     2008.62423        12.96456         8.46238
     2008.62696         5.70134         8.30063
     2008.62970         1.45312         8.42704
     2008.63244        -2.51409         8.25170
     2008.63518         9.35369         8.22316
     2008.63791        27.82147         8.53306
     2008.64065        11.69225         8.26801
     2008.64339         5.86604         8.31015
     2008.64613        16.65882         8.45286
     2008.64887        -0.66640         8.40529
     2008.65160        15.38938         8.24355
     2008.65434         6.54816         8.41073
     2008.65708        13.10395         8.44607
     2008.65982         7.49573         8.23403
     2008.66256         2.00151         8.35908
     2008.66529         4.11729         8.39850
     2008.66803         9.26907         8.32782
     2008.67077         1.48286         8.32374
     2008.67351         9.03964         8.27889
     2008.67624         7.97642         8.77907
     2008.67898         7.12520         8.32510
     2008.68172         8.21299         8.29928
     2008.68446         0.26677         8.36316
     2008.68720         8.27355         8.30063
     2008.68993         8.84233         8.34413
     2008.69267        10.13011         8.22588
     2008.69541         8.99890         8.28296
     2008.69815        11.71768         8.28025
     2008.70089        12.95046         8.34005
     2008.70362        11.23724         8.20277
     2008.70636        15.65302         8.24627
     2008.70910         8.96681         8.39306
     2008.71184        -3.20441         8.58199
     2008.71457        -0.26963         8.23267
     2008.71731        -1.59585         8.47189
     2008.72005         8.65094         8.25306
     2008.72279        -0.13828         8.11850
     2008.72553         2.40850         8.22724
     2008.72826        12.77028         8.26258
     2008.73100        11.51306         8.28161
     2008.73374        13.57385         8.28568
     2008.73648        13.02563         8.42024
     2008.73921         9.16941         8.15792
     2008.74469         5.87998         8.26665
     2008.74743        -2.78024         8.39170
     2008.75017         0.34954         8.17151
     2008.75290        11.78432         8.32102
     2008.75564         4.28110         8.38898
     2008.75838        -4.59311         8.44743
     2008.76112         4.61767         8.25578
     2008.76386         3.23545         8.16064
     2008.76659         3.17423         8.23539
     2008.76933         9.62101         8.26801
     2008.77207         4.73280         8.07908
     2008.77481         5.95758         7.98938
     2008.77754         8.47236         7.98938
     2008.78028         5.21814         7.92278
     2008.78302         1.98093         8.01384
     2008.78576         3.68171         8.03151
     2008.78850         2.99049         8.14297
     2008.79123         8.48527         8.26394
     2008.79397         2.99305         8.09947
     2008.79671         1.49484         8.11306
     2008.79945         7.65762         8.07229
     2008.80219         5.15640         8.03559
     2008.80492         3.27818         8.15248
     2008.80766         6.91696         8.00433
     2008.81040         5.06975         8.03151
     2008.81314         5.34853         7.96219
     2008.81587        11.11231         7.94996
     2008.81861         2.46409         8.05326
     2008.82135        -0.59012         8.08588
     2008.82409         2.05966         8.29384
     2008.82683        -4.53056         8.22452
     2008.82956        -7.56078         8.10899
     2008.83230        -6.99900         8.41073
     2008.83504        -2.63921         8.34821
     2008.83778        -0.28643         8.39170
