# ================= DQRFIT RESULTS ================
# INPUT FILE: series/P690.rad
# OUTPUT: LDETRENDED
# FILTER FUNCTION: f(t)
# f(t)=+line(t)+annual(t)
# line(t)=+P 1+P 2*t
# annual(t)=+P 3*sin(2*pi*t+P 4)
# heav(t)=(t<0?0:1)
# TOTAL OBSERVATIONS MTOT= 4114
# INITIAL TIME INTERVAL= 2022.7488 - 2005.0897 = 17.6591
# TOTAL OBSERVATIONS AFTER PREFILTER M= 3924
# TIME-SPAN= 2022.7488 - 2005.0897 = 17.6591
# OBSERVATIONS: USED M=  3924 REJECTED MTOT-M=   190 %USED=   95.3816
# N=  4 PARAMETERS
# MAXSIG= 175.00000
# MAXRES=  62.77545
# SCALE FACTOR FOR LENGTHS: SCL=  10.00000
# SCALE FACTOR FOR SIGMAS: SCLSIG=   1.00000
# CHI^2=  14628.015 DOF=  3920 CHI^2/DOF=   3.73164
# RMS=     11.043 SDEV=     11.043 MEAN=    0.13102
#  P #       PARAMETER +-    SIGMA %error PARAMETER NAME
# P 1 =      2929.31655 +-   79.362   2.71 YZERO                              
# P 2 =        -1.45465 +-    0.039   2.71 SLOPE                              
# P 3 =         7.22460 +-    0.246   3.41 ANNUAL AMPLITUDE                   
# P 4 =         2.33383 +-    0.033   1.42 ANNUAL PHASE                       
#       T            LDETRENDED       SIG_OBS
     2005.08966        -4.87240        10.64005
     2005.09240        -2.86241        10.84288
     2005.09514         1.31957        10.70186
     2005.09787        19.46655        10.65357
     2005.10061        19.35153        10.57244
     2005.10335        25.54152        10.57051
     2005.10609         3.01750        10.95685
     2005.10882         1.07748        10.84868
     2005.11156        -1.50254        10.63039
     2005.11430         2.90445        10.61300
     2005.11704         5.05443        10.62653
     2005.11978         5.19641        10.70186
     2005.12251         5.40939        10.56857
     2005.12525         1.84738        10.58016
     2005.12799        -4.70464        10.69027
     2005.13073        -0.36566        10.76754
     2005.13347         1.90932        10.66902
     2005.13620         2.00331        10.71152
     2005.13894         1.18229        10.69414
     2005.14168        -0.76773        10.70573
     2005.14442        -1.05475        10.71152
     2005.14715         0.62224        10.85834
     2005.14989         3.42822        10.88345
     2005.15263         3.18220        10.86027
     2005.15537         2.64519        10.89890
     2005.15811         6.68017        10.80425
     2005.16084         5.38715        10.84481
     2005.16358         3.47813        10.82550
     2005.16632         3.61512        10.77527
     2005.16906         9.28610        10.84288
     2005.17180         5.14308        10.84868
     2005.17453         2.29306        10.91436
     2005.17727        -2.78795        10.89697
     2005.18001         1.52803        10.93754
     2005.18275        -1.75399        10.83709
     2005.18548         2.14699        11.12492
     2005.18822         3.74598        10.79459
     2005.19096         5.78796        10.77720
     2005.19370         2.68994        10.87186
     2005.19644         2.84392        10.83902
     2005.19917         3.44591        10.73277
     2005.20191         3.20589        10.98583
     2005.20465         4.33187        10.94526
     2005.20739         2.48685        10.77141
     2005.21013        -0.19916        10.95106
     2005.21286         6.88482        11.06696
     2005.21560        18.53380        10.83129
     2005.21834        22.44879        10.87186
     2005.22108        21.72477        10.89504
     2005.22381        22.33575        10.93560
     2005.22655        17.15373        10.96844
     2005.22929         8.36272        10.93560
     2005.23203         2.61870        10.92595
     2005.23477        17.90768        10.92788
     2005.23750        31.96966        11.10946
     2005.24024        27.02565        11.54217
     2005.24298        30.03163        11.13071
     2005.24572        30.69261        11.49388
     2005.24846        34.03959        11.26207
     2005.25119        37.74258        11.11719
     2005.25393        34.95356        11.57501
     2005.25941        42.31652        11.56342
     2005.26214        31.78751        11.42240
     2005.26488        19.63449        11.30264
     2005.26762         9.59147        11.16162
     2005.27036        -0.86255        11.13071
     2005.27310        -2.14856        11.05537
     2005.27583        -1.71058        10.99163
     2005.27857        -4.64060        11.01094
     2005.28131        -4.73161        11.16355
     2005.28405       -10.83363        11.29877
     2005.28679       -10.27665        11.15003
     2005.28952         4.32133        10.88538
     2005.29226         6.67232        10.83129
     2005.29500         5.27430        11.05151
     2005.29774         6.04128        10.99935
     2005.30047         1.13426        10.88152
     2005.30321        -1.91775        10.86220
     2005.30595         7.26023        10.75595
     2005.30869         4.91621        10.83902
     2005.31143         3.93819        10.83902
     2005.31416         1.91518        10.85834
     2005.31690         1.88016        10.88924
     2005.31964         5.29614        10.91436
     2005.32238         2.47012        11.33354
     2005.32512         4.44611        10.86220
     2005.32785         3.74409        10.88924
     2005.33059         6.31607        10.89697
     2005.33333         3.14405        10.82356
     2005.33607         3.80404        11.05730
     2005.33880         3.54802        10.77913
     2005.34154         3.04600        10.85640
     2005.34428         4.47398        10.84095
     2005.34702         1.61897        10.85254
     2005.34976         2.47595        10.95492
     2005.35249         2.27193        10.84868
     2005.35523         6.56292        11.05344
     2005.35797         2.42490        11.10367
     2005.36071        -3.55512        11.14230
     2005.36344        -1.30914        11.28525
     2005.36618         0.34385        11.15582
     2005.36892         3.36883        11.64649
     2005.37166         6.84181        11.08628
     2005.37440         3.33679        11.36445
     2005.37713         5.67678        11.33354
     2005.37987         2.85876        11.27173
     2005.38261        10.88874        11.31423
     2005.38535         3.73172        11.08435
     2005.38809         8.83871        11.20025
     2005.39082         0.32069        11.20025
     2005.39356       -16.68633        11.33354
     2005.39630        -5.82135        11.24082
     2005.39904        -3.66036        11.05151
     2005.40177         2.04062        11.13457
     2005.40451         2.24460        11.09014
     2005.40725        -0.33742        11.49002
     2005.40999         0.04057        11.15003
     2005.41273        -4.32345        11.15003
     2005.41546         0.35353        10.78686
     2005.41820        -5.46148        10.91049
     2005.42094        -1.51750        10.86799
     2005.42368        -0.33152        10.86027
     2005.42642         1.35446        10.93947
     2005.42915        -1.60355        10.78493
     2005.43189         3.57443        11.03219
     2005.43463        -1.76459        10.88152
     2005.43737         2.72839        11.05924
     2005.44010        -2.94862        11.30650
     2005.44284        -0.63864        11.33934
     2005.44558        -9.21266        11.38184
     2005.44832         0.48132        11.27366
     2005.45106        -4.28769        10.92015
     2005.45379         1.01229        10.93367
     2005.45653         1.92127        11.05537
     2005.45955         3.49367        12.36703
     2005.46201         1.92624        10.91629
     2005.46475        -0.42978        10.99935
     2005.46748         0.97420        10.89697
     2005.47022        -4.39382        11.12492
     2005.47296        -9.51083        11.04378
     2005.47570        -2.68885        10.86993
     2005.47843        -2.58187        10.85640
     2005.48117        -1.01989        11.15196
     2005.48448        -2.93607        13.99935
     2005.48665        -2.19392        10.80425
     2005.48939        -6.78094        10.74823
     2005.49252        -5.39537        12.97166
     2005.49486         0.55303        10.75402
     2005.49760        -1.53499        10.85640
     2005.50034         2.20999        10.82163
     2005.50308         2.43198        10.75402
     2005.50581         0.11396        10.75595
     2005.50855        -1.61706        10.70766
     2005.51129        -8.57408        10.84481
     2005.51403        -1.99109        10.79845
     2005.51676        -3.61311        10.78686
     2005.51950         3.78387        10.87186
     2005.52224        -0.08815        10.91049
     2005.52498         4.97484        10.79459
     2005.52772         1.52582        10.80038
     2005.53045        -2.82220        10.79072
     2005.53319         1.79478        10.73664
     2005.53593         4.12777        10.75402
     2005.53867         4.83875        10.92015
     2005.54141         1.74573        10.88152
     2005.54414         7.48071        10.94333
     2005.54688         5.34770        10.75788
     2005.54962         4.00768        10.75595
     2005.55236         2.25266        10.71345
     2005.55509         4.02165        11.14617
     2005.55783         5.30563        10.82550
     2005.56057         1.95061        11.03992
     2005.56331         5.95159        11.13457
     2005.56605         2.79158        11.33354
     2005.56878         6.83856        11.28525
     2005.57152        -0.04546        11.55569
     2005.57426         6.85652        11.15776
     2005.57700         7.18451        11.07855
     2005.57974         3.08049        11.10367
     2005.58247         5.45147        11.10560
     2005.58521         4.25645        11.01094
     2005.58795         3.44744        10.80231
     2005.59069         6.13442        10.81197
     2005.59342         4.08340        10.83709
     2005.59616        13.35938        10.76561
     2005.59890         7.05137        10.77141
     2005.60164        10.75135        10.82356
     2005.60438        12.60933        10.96844
     2005.60711         4.77231        11.03026
     2005.60985         8.09730        11.14230
     2005.61259         9.51228        11.10753
     2005.61533         5.20526        10.81970
     2005.61807         8.79825        10.78879
     2005.62080        12.65423        10.90083
     2005.62354         5.63321        11.19639
     2005.62731         5.26969        21.23180
     2005.62902         6.75518        10.77913
     2005.63175         9.59116        10.78686
     2005.63449        13.53614        10.90083
     2005.63723        10.35512        10.93754
     2005.63997        13.80811        11.03992
     2005.64271        10.07009        10.85834
     2005.64544         2.29607        10.82163
     2005.64818         8.20305        10.75016
     2005.65092        10.88804        10.91629
     2005.65366         6.63002        10.95685
     2005.65639         7.23400        10.81584
     2005.65913         9.22298        10.87379
     2005.66187         7.03197        10.79845
     2005.66461        12.15895        10.86606
     2005.66735        11.91793        10.85834
     2005.67008         8.71091        10.84674
     2005.67282         8.07590        10.79459
     2005.67556        13.33788        10.75402
     2005.67830         3.32486        10.78300
     2005.68104         6.33384        10.84674
     2005.68377         8.21683        10.99356
     2005.68651        12.47681        10.93367
     2005.68925        10.08379        10.92208
     2005.69216         3.56602        11.57694
     2005.69472         8.41376        10.92788
     2005.69746         7.78774        10.92981
     2005.70020        11.64472        11.19639
     2005.70294        10.18071        11.08821
     2005.70568         8.08769        11.13264
     2005.70841         9.42767        11.12685
     2005.71115         4.08765        10.82550
     2005.71475        14.93388        17.57887
     2005.71663         9.06862        11.07855
     2005.71937        12.01560        10.74436
     2005.72279        10.13058        15.82485
     2005.72484         8.17657        11.04378
     2005.72798         9.47613        12.45589
     2005.73077        11.38820        13.06439
     2005.73305        11.14551        10.98776
     2005.73699        10.17424        34.64197
     2005.73853        12.08648        11.07469
     2005.74127        13.39346        10.98583
     2005.74492        22.45377        18.87894
     2005.75062         1.77907        25.42948
     2005.75222         4.99639        11.01674
     2005.75496         2.02638        11.09594
     2005.75770         1.81036        11.08821
     2005.76043         7.89034        10.76754
     2005.76317        10.86332        10.76947
     2005.76591        10.92031        10.87379
     2005.76865        11.30829        10.78300
     2005.77138         8.98927        10.83515
     2005.77412         8.90325        10.86027
     2005.77686         9.80124        11.00128
     2005.77960         8.63522        11.04185
     2005.78234         7.85120        11.15196
     2005.78507        10.72118        10.84288
     2005.78781        13.11517        10.80811
     2005.79163         4.78473        22.92208
     2005.79329        11.07813        10.76947
     2005.79603        14.90211        11.12685
     2005.79876         8.88210        11.17321
     2005.80150         8.54908        11.09401
     2005.80424         7.97306        10.87379
     2005.80698         7.36104        10.76754
     2005.80971        11.60603        10.84481
     2005.81245        10.40101        10.80231
     2005.81519        12.94499        10.74243
     2005.81793         5.23697        11.08242
     2005.82067         9.37796        10.76175
     2005.82340         9.90694        10.75595
     2005.82614        14.54192        10.77720
     2005.82888        14.32791        10.73277
     2005.83162        22.31789        11.14617
     2005.83436        10.48687        11.19639
     2005.83709         8.51785        11.16548
     2005.83983        21.94684        11.15582
     2005.84257        29.96182        11.24855
     2005.84531        27.72980        11.54410
     2005.85626        27.81473        11.75466
     2005.85900         3.46471        11.21957
     2005.86173        17.86370        11.16162
     2005.86447        32.87768        10.97231
     2005.86721        39.87666        10.97424
     2005.86995        44.01464        11.30650
     2005.87269        30.17063        11.11139
     2005.87542        -8.04739        10.96265
     2005.87816        -4.46741        10.81584
     2005.88090        -6.04243        10.90663
     2005.88364         0.11956        10.76947
     2005.88637        -0.53946        10.96651
     2005.88911         3.03752        11.22923
     2005.89185         1.61851        10.96651
     2005.89459         4.65549        10.88538
     2005.89733         2.01447        10.94913
     2005.90006         4.97045        10.98390
     2005.90280         8.56444        10.96458
     2005.90554        11.09242        10.82356
     2005.90828         3.77140        10.88924
     2005.91102        16.87138        10.86413
     2005.91375        13.43337        10.81584
     2005.91649        12.97735        10.89890
     2005.91923        23.00033        10.82743
     2005.92197        26.53231        10.72891
     2005.92470        18.08330        10.82356
     2005.92744         8.62028        10.76561
     2005.93018        -7.04074        10.74436
     2005.93292        -8.22876        10.72504
     2005.93566        -5.19877        10.70959
     2005.93839        -0.26779        10.93754
     2005.94113        -1.28081        10.83515
     2005.94387        -0.60483        10.80811
     2005.94661         0.38116        10.88345
     2005.94935        -6.22086        10.68448
     2005.95208        -9.05488        10.90277
     2005.95482        -7.80589        11.06503
     2005.95756        -2.95291        10.82163
     2005.96030        -2.28793        10.70186
     2005.96303        -2.33695        10.49517
     2005.96577        13.65204        11.17707
     2005.96851        -2.69598        11.36832
     2005.97125         1.03900        11.03606
     2005.97399        11.27898        11.18673
     2005.97672        31.73397        11.25821
     2005.97946        -6.82505        10.96844
     2005.98220        -0.90807        11.03026
     2005.98494        23.42691        10.86799
     2005.98767        22.11990        11.04185
     2005.99041        26.58388        11.19253
     2005.99315        51.87686        11.47263
     2005.99589        50.84684        11.36638
     2006.00410        53.72579        11.53058
     2006.01505        48.28172        11.98841
     2006.02327        53.51867        12.07533
     2006.06196        65.70895        15.40373
     2006.06433        51.98041        12.70315
     2006.06707        22.87339        11.46683
     2006.06981        38.94037        11.86091
     2006.10540        31.13915        11.79523
     2006.10814        14.64513        11.52865
     2006.11088       -23.41689        10.89311
     2006.11362       -36.83890        10.69221
     2006.11635       -28.91292        10.67096
     2006.11909       -26.91894        10.75016
     2006.12183       -16.96196        10.66516
     2006.12457       -22.06397        10.83902
     2006.12731       -21.57599        10.77720
     2006.13004       -18.86901        10.77141
     2006.13278       -18.81103        10.74629
     2006.13552       -17.21604        10.77913
     2006.13826       -11.68406        10.80231
     2006.14099         4.62292        10.68255
     2006.14373        -6.01810        10.64971
     2006.14647        -5.49211        10.60528
     2006.14921        -8.13313        10.63232
     2006.15195       -15.08715        10.66902
     2006.15468       -13.14917        10.70766
     2006.15742        23.02982        10.97424
     2006.16290        48.74878        12.85769
     2006.18206        39.49966        12.19703
     2006.18480        -7.67736        10.83902
     2006.18754        -8.58237        10.65550
     2006.19028        -6.86639        10.73277
     2006.19301        -4.49541        10.81970
     2006.19575        -9.78043        10.90083
     2006.19849        -7.55244        11.00128
     2006.20123         6.39654        10.87379
     2006.20397        11.86252        11.42240
     2006.20670        13.12050        11.54410
     2006.20944        -1.19551        11.23696
     2006.21218         5.39147        11.25434
     2006.21492        12.89445        11.48615
     2006.21765         9.79943        11.35093
     2006.22039         5.04642        11.82807
     2006.22313        -2.74860        11.41275
     2006.22587         7.69438        11.50547
     2006.22861        -1.85663        11.40502
     2006.23134       -10.65465        11.44559
     2006.23408        -4.64667        11.66194
     2006.23682       -17.25569        10.90470
     2006.23956       -16.32670        10.86027
     2006.24230       -20.32772        10.77334
     2006.24503       -11.91074        10.76561
     2006.24777       -10.23276        10.64005
     2006.25051       -19.70577        10.74823
     2006.25325        -6.79179        10.68448
     2006.25598        -6.45881        10.92788
     2006.25872       -14.55683        10.88345
     2006.26146       -19.71084        11.33934
     2006.26420       -14.60586        11.40309
     2006.26694        -8.09688        10.99163
     2006.26967       -15.19690        10.89311
     2006.27241        -8.67991        11.00708
     2006.27515        -5.45493        11.28718
     2006.27789        -7.31895        11.28525
     2006.28062        -8.72397        10.83129
