# ================= DQRFIT RESULTS ================
# INPUT FILE: series/P699.rad
# OUTPUT: LDETRENDED
# FILTER FUNCTION: f(t)
# f(t)=+line(t)+annual(t)+jumps(t)
# line(t)=+P 1+P 2*t
# annual(t)=+P 3*sin(2*pi*t+P 4)
# jumps(t)=+P 5*heav(t-2006.0000  )
# heav(t)=(t<0?0:1)
# TOTAL OBSERVATIONS MTOT= 2567
# INITIAL TIME INTERVAL= 2014.4473 - 2005.0924 =  9.3549
# TOTAL OBSERVATIONS AFTER PREFILTER M= 2472
# TIME-SPAN= 2014.4473 - 2005.0924 =  9.3549
# OBSERVATIONS: USED M=  2472 REJECTED MTOT-M=    95 %USED=   96.2992
# N=  5 PARAMETERS
# MAXSIG= 175.00000
# MAXRES=  68.54286
# SCALE FACTOR FOR LENGTHS: SCL=  10.00000
# SCALE FACTOR FOR SIGMAS: SCLSIG=   1.00000
# CHI^2=  16951.698 DOF=  2467 CHI^2/DOF=   6.87138
# RMS=     16.288 SDEV=     16.288 MEAN=    0.33802
#  P #       PARAMETER +-    SIGMA %error PARAMETER NAME
# P 1 =      5094.98925 +-  312.870   6.14 YZERO                              
# P 2 =        -2.52384 +-    0.156   6.18 SLOPE                              
# P 3 =        10.29488 +-    0.466   4.53 ANNUAL AMPLITUDE                   
# P 4 =         1.74796 +-    0.012   0.68 ANNUAL PHASE                       
# P 5 =       -12.62852 +-    1.307  10.35 OFFSET 2006.0000                   
#       T            LDETRENDED       SIG_OBS
     2005.09240       -10.50315        15.88527
     2005.09514        -7.05424        15.69129
     2005.09787         2.21767        15.63362
     2005.10061         4.22258        15.29547
     2005.10335        17.43049        15.43965
     2005.10609        -3.15560        16.36235
     2005.10882        -9.72169        16.29944
     2005.11156       -11.29878        15.72799
     2005.11430        -3.25987        15.60741
     2005.11704        -3.78096        15.52877
     2005.11978        -8.09405        15.62314
     2005.12251        -9.96414        15.68605
     2005.12525       -10.97923        15.69654
     2005.12799       -11.59232        15.61003
     2005.13073        -6.22641        15.80663
     2005.13347        -8.82350        15.64149
     2005.13620         0.84041        15.67819
     2005.13894        -5.37268        15.76207
     2005.14168        -8.07377        15.77518
     2005.14442        -7.26486        15.61790
     2005.14715        -6.79795        15.79615
     2005.14989        -4.88904        15.97702
     2005.15263        -1.88713        15.69654
     2005.15537        -3.27422        15.86430
     2005.15811        -1.70831        15.60217
     2005.16084         0.83460        15.75421
     2005.16358        -2.42349        15.82760
     2005.16632         3.66442        15.80925
     2005.16906        -5.98567        15.82236
     2005.17180        -3.59276        15.77255
     2005.17453        -3.49585        15.92983
     2005.17727         0.87506        15.79615
     2005.18001        -1.23503        15.96915
     2005.18275        -4.07512        15.83285
     2005.18548        -4.25021        15.99013
     2005.18822        -2.93530        15.72799
     2005.19096        -4.10639        15.94032
     2005.19370         1.11552        15.99275
     2005.19644        -6.50657        15.92197
     2005.19917        -4.73266        15.79353
     2005.20191        -2.03775        16.23653
     2005.20465        -0.90484        16.23129
     2005.20739        -4.12493        16.05304
     2005.21013       -11.87402        16.22867
     2005.21286        -1.42411        15.97440
     2005.21560        20.06480        15.98750
     2005.21834        15.20271        16.09236
     2005.22108        13.90162        16.25226
     2005.22381        14.12453        16.12643
     2005.22655        13.83844        16.06352
     2005.22929        27.81634        15.69916
     2005.23203        26.82425        15.77780
     2005.23477        29.28716        15.90362
     2005.23750        16.25207        16.22605
     2005.24024         9.45498        16.26274
     2005.24298        26.03789        16.19459
     2005.24572        17.07180        16.24702
     2005.24846         7.88671        16.01372
     2005.25119        11.76362        16.00061
     2005.25393        19.03153        16.83419
     2005.25667        16.34944        16.75555
     2005.25941        16.26635        16.67954
     2005.26214         5.12626        16.18673
     2005.26488         4.04517        16.82109
     2005.26762         9.61708        16.32828
     2005.27036        13.25299        16.80798
     2005.27310         8.49990        16.32566
     2005.27583         8.50281        16.60090
     2005.27857         3.71172        16.20507
     2005.28131         5.64963        16.24964
     2005.28405        -0.63146        16.64808
     2005.28679         6.01945        16.26274
     2005.28952        -2.06164        16.57468
     2005.29226        -1.45173        16.81847
     2005.29500         3.56318        16.42527
     2005.29774         7.78609        17.47118
     2005.30047        32.93800        16.58517
     2005.30321        13.51091        16.52750
     2005.30595        -6.45518        16.24439
     2005.30869         3.01573        15.89838
     2005.31143        -3.92936        15.86168
     2005.31416        -7.11845        15.89838
     2005.31690        -2.07654        16.07139
     2005.31964         0.13737        16.13430
     2005.32238        -2.31972        16.39905
     2005.32512         2.68519        15.88265
     2005.32785       -13.54290        15.96129
     2005.33059        -4.60899        15.89838
     2005.33333         1.04392        15.89576
     2005.33607        -1.88217        16.21818
     2005.33880         1.91074        15.89051
     2005.34154         1.20465        15.79353
     2005.34428         0.11056        15.72537
     2005.34702         0.41447        15.81974
     2005.34976        -5.74062        15.82498
     2005.35249        -1.56471        15.82236
     2005.35523         1.21020        16.22867
     2005.35797        -3.66489        16.25488
     2005.36071        -8.23598        16.28371
     2005.36344        -5.86007        16.44624
     2005.36618        -2.71716        16.51177
     2005.36892        -7.22225        16.92070
     2005.37194        -3.14062        18.25233
     2005.37440        -1.55543        16.69264
     2005.37770         6.46292        22.47530
     2005.37987         7.55839        16.65070
     2005.38261        14.58530        16.43575
     2005.38535         9.45921        16.31517
     2005.38809        11.81812        16.39643
     2005.39082        -0.74697        16.29682
     2005.39356       -17.45306        16.49604
     2005.39630       -13.77415        16.33090
     2005.39904        -9.60824        16.40430
     2005.40177       -10.11733        16.20770
     2005.40451        -1.65542        16.37022
     2005.40725         0.07949        16.46459
     2005.41027       -10.76588        18.43321
     2005.41273       -11.37069        16.34925
     2005.41546         2.98322        16.06352
     2005.41820        -9.29887        16.01634
     2005.42094       -13.71596        15.90100
     2005.42368        -6.45505        16.22080
     2005.42642        -9.19014        16.09498
     2005.42915       -11.57623        15.95605
     2005.43189        -3.16432        16.00061
     2005.43463        -9.04141        15.94294
     2005.43737        -6.44450        16.36235
     2005.44010       -15.45059        16.66905
     2005.44284        -2.14268        16.77915
     2005.44558       -15.98777        16.55371
     2005.44832        -7.01186        16.33876
     2005.45106        -9.60695        16.14478
     2005.45379        -5.29304        15.98226
     2005.45653        -7.31413        16.28634
     2005.45927        -6.64722        15.94294
     2005.46201        -2.03831        16.01372
     2005.46475        -7.46740        16.03993
     2005.46748        -6.36349        15.95605
     2005.47022        -7.73258        16.29420
     2005.47296       -13.63267        15.93508
     2005.47570       -10.91976        15.90624
     2005.47843        -8.74585        15.88789
     2005.48117        -8.33194        15.96129
     2005.48391       -12.07403        15.94556
     2005.48665        -8.58812        15.80663
     2005.48939       -11.14621        15.69916
     2005.49212        -8.17030        16.17886
     2005.49486        -5.25039        15.88789
     2005.49760       -11.65248        16.11595
     2005.50034        -9.01757        16.03207
     2005.50308        -9.03867        15.84857
     2005.50581        -9.94176        15.79615
     2005.50855        -6.87985        15.91411
     2005.51129       -12.51294        16.06877
     2005.51403       -12.78803        15.87741
     2005.51676        -8.63812        15.81450
     2005.51950        -0.86821        15.96653
     2005.52224        -5.58230        16.08711
     2005.52498        -3.22939        15.86430
     2005.52772        -7.20848        15.90100
     2005.53045        -8.01957        15.80925
     2005.53319        -2.61266        16.04255
     2005.53593        -4.57975        15.83547
     2005.53867        -3.66484        16.11595
     2005.54141        -5.97993        15.85644
     2005.54414        -3.75402        15.80925
     2005.54688        -5.76911        15.96915
     2005.54962        -6.25520        16.01634
     2005.55236        -3.32929        15.83285
     2005.55509        -4.32138        16.21032
     2005.55783        -3.63647        15.82760
     2005.56057        -5.30356        16.38333
     2005.56331         0.79435        16.48556
     2005.56605         0.87326        16.61662
     2005.56878        -0.91483        16.61400
     2005.57152       -11.21592        16.84468
     2005.57426        -7.35101        16.22342
     2005.57700        -4.81010        16.18148
     2005.57974        -0.30219        16.19721
     2005.58276         1.99944        18.92864
     2005.58521        -2.52537        16.04517
     2005.58795        -3.55746        15.73061
     2005.59069        -3.69855        15.84595
     2005.59399         0.63180        19.96931
     2005.59616         1.99227        15.72013
     2005.59890        -1.27982        15.69391
     2005.60164         1.36309        15.60217
     2005.60438        -1.34400        15.80663
     2005.60711        -1.68509        15.81450
     2005.60985        -2.09918        16.19983
     2005.61259         2.58873        16.23391
     2005.61533        -0.04336        15.67032
     2005.61807         4.22155        15.70178
     2005.62080         5.87746        16.11071
     2005.62354         1.58637        16.31779
     2005.62628         4.64928        16.10546
     2005.62902         0.19219        16.00323
     2005.63175        -1.56890        15.70702
     2005.63449         3.94501        15.84333
     2005.63723         3.60692        15.85906
     2005.63997        -2.18317        15.97702
     2005.64271        -0.06526        15.74634
     2005.64544        -1.37235        15.65722
     2005.64818        -3.76244        15.63100
     2005.65092         2.70547        15.80139
     2005.65366        -1.27462        15.84333
     2005.65639        -1.96071        15.65984
     2005.65913        -0.04280        15.70178
     2005.66187        -1.69089        15.64673
     2005.66461         1.13702        15.76469
     2005.66735         0.88093        15.84333
     2005.67008         3.83384        15.89576
     2005.67282         1.48675        15.80401
     2005.67556         3.22866        15.68605
     2005.67830        -4.61943        15.83809
     2005.68104        -5.63752        15.94294
     2005.68377        -2.99061        16.17886
     2005.68651         1.04530        16.04779
     2005.68925         0.11321        15.97440
     2005.69199        -7.57688        15.91411
     2005.69472         0.87603        16.04517
     2005.69746        -3.72006        16.10546
     2005.70020         8.61085        16.46459
     2005.70294        10.07076        16.18935
     2005.70568        -1.40933        16.02158
     2005.70841         1.33158        16.12381
     2005.71115        -0.14651        15.73061
     2005.71389         4.19740        15.77518
     2005.71663         5.06431        16.10284
     2005.71937         4.39322        15.55236
     2005.72210        -2.72287        16.23915
     2005.72484         1.79004        15.73323
     2005.72815         3.10139        19.70455
     2005.73032        -0.83214        16.11857
     2005.73425         0.26779        53.25498
     2005.73682         8.36827        34.90041
     2005.73853         5.44559        16.04779
     2005.74127         2.81250        15.95605
     2005.74486        12.66857        25.05993
     2005.74674         2.90332        15.67294
     2005.74948        -1.64877        15.69654
     2005.75222        -8.81786        15.94032
     2005.75496        -7.21695        15.92459
     2005.75815        -7.25589        18.57738
     2005.76169       -14.40097        57.15552
     2005.76317         3.74478        15.71226
     2005.76619         5.70941        16.77652
     2005.76865        -1.97440        15.76469
     2005.77138        -3.50749        15.71226
     2005.77412         1.81141        15.72799
     2005.77686         1.65832        16.06877
     2005.77960        -1.70677        16.10284
     2005.78234         2.46514        16.17624
     2005.78507        -2.53295        15.61790
     2005.78781        25.34796        15.68081
     2005.79180         5.21004        56.27738
     2005.79329         6.45278        15.71489
     2005.79603         8.35869        15.99537
     2005.79876         1.69460        16.08711
     2005.80429        -2.45446        15.99537
     2005.80698        -1.18567        15.68081
     2005.80971         5.95024        15.70440
     2005.81245         1.64115        15.88789
     2005.81519         2.87906        15.68605
     2005.81793        -2.71403        16.16313
     2005.82067        -7.86112        15.62052
     2005.82340         7.35179        15.56023
     2005.82614        11.33470        15.63625
     2005.82888         4.39461        15.57333
     2005.83162        -2.44048        17.33749
     2005.83436        -6.81957        16.89186
     2005.83709       -14.80066        16.43575
     2005.83983       -10.93475        16.49866
     2005.84257         0.99116        16.71623
     2005.84531        -9.56893        17.47380
     2005.84804        11.33798        17.73593
     2005.85078         6.88689        16.96002
     2005.85352        -3.93120        16.90497
     2005.85626        -4.01929        17.42924
     2005.85900         0.66062        16.70313
     2005.86173        -2.75547        16.45148
     2005.86447        -0.31056        16.13168
     2005.86721         3.66335        16.18935
     2005.86995         6.19826        16.60614
     2005.87269         4.52017        16.27323
     2005.87542        -3.96392        16.00323
     2005.87816       -21.71201        15.71751
     2005.88090       -11.60010        15.74110
     2005.88364       -12.60519        15.64673
     2005.88637        -8.34628        15.83285
     2005.88911        -5.70337        16.21294
     2005.89185        -5.87446        15.83809
     2005.89459        -2.17255        15.78566
     2005.89733       -10.13864        15.85119
     2005.90006        -7.13673        15.73061
     2005.90280        -6.98682        15.82760
     2005.90554        -7.99791        15.74896
     2005.90828       -15.53900        15.76207
     2005.91102        -1.06509        15.84071
     2005.91375        -2.49318        15.57071
     2005.91649        -4.25627        15.84595
     2005.91923         6.14064        15.67032
     2005.92197         6.70055        15.56547
     2005.92470        -0.44254        15.85644
     2005.92744        -8.79563        15.62052
     2005.93018        -9.10772        15.61527
     2005.93292       -13.58081        15.52615
     2005.93566       -15.41790        15.64935
     2005.93839        -8.68399        15.83285
     2005.94113        -8.33208        15.79353
     2005.94387        -6.17817        15.61265
     2005.94661        -5.18926        15.60479
     2005.94935       -17.01935        15.45013
     2005.95098         4.77878        37.31990
     2005.95502       -20.11104        33.90693
     2005.95756       -14.12961        25.02848
     2005.95998        -7.32652        42.89548
     2005.96387       -18.10470        29.44018
     2005.96673         8.12052        69.65694
     2005.97485        33.43001       890.82170
     2005.98312       -17.24812        39.70269
     2006.53099         9.05562        53.98109
     2006.53251       -18.38354        17.00458
     2006.53525       -15.07563        16.61925
     2006.53798       -13.27872        16.79487
     2006.54072       -23.71881        17.08846
     2006.54346       -14.25490        16.32828
     2006.54620       -19.18099        16.33352
     2006.54893       -15.25608        16.25488
     2006.55167       -17.97217        16.39643
     2006.55441       -13.26426        16.37546
     2006.55715       -11.58535        16.62187
     2006.55989       -10.82344        16.20245
     2006.56262       -13.09653        15.92983
     2006.56536       -11.46062        16.21294
     2006.56810       -14.54471        16.12381
     2006.57084        -8.98280        16.57993
     2006.57357       -13.76189        16.43313
     2006.57631       -13.45898        16.17886
     2006.57905       -10.57107        16.16051
     2006.58179       -12.79716        16.32828
     2006.58453       -15.25525        16.93905
     2006.58726        -9.86634        16.87876
     2006.59000       -11.45643        17.01244
     2006.59274       -11.54653        16.55633
     2006.59548       -14.66962        16.85516
     2006.59822       -13.48071        16.80012
     2006.60095       -11.10480        16.29158
     2006.60369       -13.19189        16.29682
     2006.60643       -16.98798        16.12381
     2006.60917       -13.87807        16.19197
     2006.61190       -15.28916        16.21818
     2006.61464       -12.40225        16.24439
     2006.61738       -11.05434        16.48031
     2006.62012       -10.49943        16.33352
     2006.62286        -9.14052        16.14478
     2006.62559       -12.10261        16.15527
     2006.62833       -14.70070        16.50653
     2006.63107       -12.58179        16.38333
     2006.63381        -8.19888        16.22867
     2006.63655       -10.32997        16.35187
     2006.63928       -10.36706        16.31255
     2006.64202        -9.23715        16.30469
     2006.64476        -5.46324        16.61662
     2006.64750        -2.33333        17.13040
     2006.65023        -0.83342        17.10681
     2006.65297        -9.43851        17.16186
     2006.65571        -6.64860        17.09108
     2006.65845        -6.07269        17.11992
     2006.66119       -13.38878        17.31652
     2006.66392       -10.87387        17.21691
     2006.66666       -10.80496        16.99934
     2006.66940        -6.97905        16.88138
     2006.67214       -10.31414        17.00196
     2006.67488        -6.56223        17.37943
     2006.67761       -14.86632        17.43972
     2006.68035        -6.98441        17.04390
     2006.68309        -2.02150        17.64156
     2006.68583        -2.45659        17.67564
     2006.68856        -3.41968        16.80012
     2006.69130        -6.14277        16.86041
     2006.69404        -9.70386        16.65856
     2006.69678       -10.75695        16.57206
     2006.69952        -0.83804        16.45672
     2006.70225         3.08087        17.04390
     2006.70499        -7.30222        16.65070
     2006.70773        -9.33831        16.29420
     2006.71047        -3.84740        16.32041
     2006.71321         3.68451        16.50129
     2006.71594        -0.98558        16.24439
