# ================= DQRFIT RESULTS ================
# INPUT FILE: series/P781.rad
# OUTPUT: LDETRENDED
# FILTER FUNCTION: f(t)
# f(t)=+line(t)+annual(t)
# line(t)=+P 1+P 2*t
# annual(t)=+P 3*sin(2*pi*t+P 4)
# heav(t)=(t<0?0:1)
# TOTAL OBSERVATIONS MTOT= 2128
# INITIAL TIME INTERVAL= 2014.3984 - 2008.5394 =  5.8590
# TOTAL OBSERVATIONS AFTER PREFILTER M= 2127
# TIME-SPAN= 2014.3984 - 2008.5394 =  5.8590
# OBSERVATIONS: USED M=  2127 REJECTED MTOT-M=     1 %USED=   99.9530
# N=  4 PARAMETERS
# MAXSIG= 175.00000
# MAXRES=  17.27143
# SCALE FACTOR FOR LENGTHS: SCL=  10.00000
# SCALE FACTOR FOR SIGMAS: SCLSIG=   1.00000
# CHI^2=   1264.971 DOF=  2123 CHI^2/DOF=   0.59584
# RMS=      4.507 SDEV=      4.508 MEAN=    0.02111
#  P #       PARAMETER +-    SIGMA %error PARAMETER NAME
# P 1 =     -1155.00307 +-  116.862  10.12 YZERO                              
# P 2 =         0.57486 +-    0.058  10.11 SLOPE                              
# P 3 =         1.86519 +-    0.138   7.39 ANNUAL AMPLITUDE                   
# P 4 =         2.41879 +-    0.078   3.23 ANNUAL PHASE                       
#       T            LDETRENDED       SIG_OBS
     2008.53935         1.20621         4.48478
     2008.54209        -1.97836         4.47089
     2008.54483         2.93506         4.71867
     2008.54757         1.93949         4.67313
     2008.55030         6.56792         4.55734
     2008.55304         9.20634         4.58976
     2008.55578         9.38877         4.48092
     2008.55852         5.29219         4.59208
     2008.56125        -0.43638         4.50099
     2008.56399         2.82505         4.51875
     2008.56673         7.39247         4.49713
     2008.56947         9.27490         4.46471
     2008.57221         8.43133         4.58745
     2008.57494        -2.33625         4.72639
     2008.57768         5.15418         4.69397
     2008.58042         6.60760         4.50408
     2008.58316         7.79503         4.44078
     2008.58590         4.09746         4.45236
     2008.58863         2.95188         4.60520
     2008.59137         1.65931         4.48324
     2008.59411        -0.00227         4.52106
     2008.59685         1.96016         4.62218
     2008.59958         7.10359         4.63222
     2008.60232         4.85701         4.68316
     2008.60506         3.10544         4.65537
     2008.60780         0.13286         4.61446
     2008.61054        -0.09971         4.55889
     2008.61327         0.32972         4.56120
     2008.61601         5.43214         4.58513
     2008.61875        11.32057         4.59208
     2008.62149         3.98300         4.60983
     2008.62423         1.89442         4.60752
     2008.62696         2.84385         4.59285
     2008.62970        11.66227         4.63376
     2008.63244        -0.50830         4.57818
     2008.63518         8.01813         4.63067
     2008.63791         4.79055         4.65460
     2008.64065         9.65098         4.61678
     2008.64339         4.90240         4.61755
     2008.64613         2.97083         4.70323
     2008.64887         5.61726         4.60674
     2008.65160         6.44468         4.68702
     2008.65434         6.83811         4.65615
     2008.65708         4.11153         4.75341
     2008.65982         6.87796         4.64302
     2008.66256         7.98639         4.67544
     2008.66529         6.32881         4.68779
     2008.66803         3.30624         4.67853
     2008.67077         0.48167         4.64688
     2008.67351         6.13009         4.63453
     2008.67624         0.77352         4.93558
     2008.67898         8.78994         4.65769
     2008.68172         6.55437         4.66695
     2008.68446         3.97880         4.64380
     2008.68720         3.09522         4.61601
     2008.68993         6.70765         4.68239
     2008.69267         2.62607         4.69397
     2008.69541         6.11650         4.63839
     2008.69815         4.57893         4.67158
     2008.70089         3.05035         4.60057
     2008.70362         6.43978         4.64766
     2008.70636         8.54320         4.58745
     2008.70910         5.64563         4.65769
     2008.71184         3.82006         4.80204
     2008.71457        -0.60352         4.57587
     2008.71731        -1.21409         4.57201
     2008.72005        -0.07566         4.66232
     2008.72279         1.33376         4.62913
     2008.72553         4.39719         4.60829
     2008.72826         3.80361         4.60674
     2008.73100         3.68904         4.55040
     2008.73374         7.10647         4.55889
     2008.73648         7.20589         4.58127
     2008.73921         7.10932         4.62064
     2008.74469         6.62717         4.59671
     2008.74743         6.95060         4.57818
     2008.75017         8.76402         4.57741
     2008.75290         9.62145         4.66850
     2008.75564         8.11087         4.77811
     2008.75838        12.66030         4.77656
     2008.76112         7.56673         4.60906
     2008.76386         1.84315         4.54345
     2008.76659         5.18258         4.63839
     2008.76933         2.71001         4.63222
     2008.77207        -0.07357         4.55503
     2008.77481         1.72586         4.49791
     2008.77754         1.11028         4.50022
     2008.78028         2.10471         4.49791
     2008.78302        -0.35786         4.51643
     2008.78576         1.98256         4.46471
     2008.78850        -0.04501         4.57432
     2008.79123         4.51741         4.57818
     2008.79397        -3.80016         4.49636
     2008.79671         5.11027         4.56429
     2008.79945        -0.72331         4.45622
     2008.80219         8.78912         4.49713
     2008.80492         2.85454         4.44773
     2008.80766         2.97397         4.47398
     2008.81040         2.05340         4.48401
     2008.81314         1.31582         4.47475
     2008.81587         6.28525         4.45391
     2008.81861        -2.04033         4.49713
     2008.82135        -4.33990         4.49945
     2008.82409        -4.42647         4.63376
     2008.82683        -0.68105         4.56661
     2008.82956         8.05438         4.49482
     2008.83230        -4.65119         4.82905
     2008.83504         4.97123         4.68471
     2008.83778        13.68766         4.64225
     2008.84052         7.54808         4.68162
     2008.84325         0.54951         4.54345
     2008.84599         2.87294         4.57818
     2008.84873         2.26636         4.57510
     2008.85147        -3.96921         4.56429
     2008.85420         4.14521         4.59903
     2008.85694         8.10264         4.67390
     2008.85968        -1.12393         4.54808
     2008.86242        -3.08351         4.62836
     2008.86516         3.03292         4.60752
     2008.86789         0.51534         4.59825
     2008.87063         4.21477         4.58822
     2008.87337         0.42320         4.55657
     2008.87611         2.05462         4.54190
     2008.87885         0.71905         4.63299
     2008.88158        -3.19952         4.59362
     2008.88432         0.11090         4.62064
     2008.88706         0.30333         4.63608
     2008.88980         0.77975         4.65306
     2008.89253         4.34718         4.63994
     2008.89527        -2.48239         4.71790
     2008.89801         2.66603         4.68857
     2008.90075        -2.66054         4.63685
     2008.90349         6.79288         4.55657
     2008.90622         4.25831         4.61987
     2008.90896         8.28974         4.61524
     2008.91170         1.85116         4.65460
     2008.91444         5.02359         4.62759
     2008.91718         9.64601         4.56969
     2008.91991         6.90044         4.61601
     2008.92265         5.99487         4.59362
     2008.92539         8.93829         4.62527
     2008.92813         4.59172         4.57124
     2008.93086         3.94015         4.60906
     2008.93360         0.60657         4.63531
     2008.93634         3.98400         4.63685
     2008.93908        -1.39958         4.61987
     2008.94182        -1.28215         4.53882
     2008.94455         2.31328         4.63453
     2008.94729         8.99670         4.61987
     2008.95003         0.18613         4.61369
     2008.95277         6.20555         4.51875
     2008.95551         5.33898         4.56275
     2008.95824         4.11841         4.49868
     2008.96098         3.87183         4.53187
     2008.96372         4.47526         4.48478
     2008.96646         1.52968         4.70709
     2008.96919        -2.33789         4.54885
     2008.97193         6.71154         4.56506
     2008.97467         2.38796         4.65306
     2008.97741         3.32639         4.53110
     2008.98015         5.02682         4.53959
     2008.98288         4.14524         4.57587
     2008.98562         2.23067         4.53804
     2008.98836         2.14409         4.58282
     2008.99110         2.23752         4.49327
     2008.99384        -2.03505         4.50408
     2008.99657        -5.54963         4.54113
     2008.99931         0.81780         4.53264
     2009.00479        10.72565         4.63994
     2009.00752         5.81408         4.47243
     2009.01026         2.61150         4.47861
     2009.01300         6.93293         4.51412
     2009.01574         0.68535         4.57664
     2009.01848         2.50678         4.49327
     2009.02121         2.38221         4.69474
     2009.02395         4.32863         4.58899
     2009.02669        -7.28994         4.49250
     2009.02943        -3.30451         4.51875
     2009.03216        -0.58509         4.51180
     2009.03490        -2.78366         4.52492
     2009.03764        -1.80724         4.48170
     2009.04038        -1.85181         4.49482
     2009.04312        -3.91138         4.49636
     2009.04585        -2.12096         4.54190
     2009.04859        -2.30753         4.49791
     2009.05133         0.51389         4.53804
     2009.05407        -2.37668         4.51489
     2009.05681         8.71475         4.55889
     2009.05954         6.72517         4.55503
     2009.06229        -2.86640         4.52955
     2009.06502         0.57902         4.55194
     2009.06776         0.85945         4.51798
     2009.07049         0.21888         4.47938
     2009.07323         1.30330         4.48556
     2009.07597        -0.13427         4.47938
     2009.07871        -0.27684         4.49250
     2009.08145         1.41958         4.50099
     2009.08418         4.17701         4.47243
     2009.08692         2.77243         4.47089
     2009.08966         2.03986         4.49868
     2009.09240         4.44429         4.48247
     2009.09514         7.44471         4.48170
     2009.09787         8.55914         4.55889
     2009.10061        13.88456         4.50794
     2009.10335         6.55999         4.52338
     2009.10609         5.61642         4.53033
     2009.10882         4.51284         4.53727
     2009.11156         3.91427         4.49791
     2009.11430         1.55169         4.61910
     2009.11704         4.55612         4.54731
     2009.11978         6.60555         4.48633
     2009.12251         5.97497         4.46240
     2009.12525         5.79240         4.47784
     2009.12799        11.11083         4.51798
     2009.13073         6.78525         4.53650
     2009.13347        -1.43432         4.44696
     2009.13620         1.85710         4.49327
     2009.13894        -0.51447         4.46857
     2009.14168         3.18996         4.55734
     2009.14442         0.30538         4.55889
     2009.14715        -4.35719         4.64225
     2009.14989         1.38923         4.53573
     2009.15263        -1.60534         4.47706
     2009.15537         1.90809         4.60289
     2009.15811         0.77151         4.59439
     2009.16084         1.57694         4.50485
     2009.16358         6.33136         4.44773
     2009.16632         8.03279         4.59671
     2009.16906        -5.56778         4.75804
     2009.17180         7.65264         4.55966
     2009.17453        -0.44193         4.49482
     2009.17727         3.12650         4.61601
     2009.18001         1.01392         4.45159
     2009.18275         0.82435         4.47089
     2009.18548         0.40077         4.52261
     2009.18822        -2.71580         4.47166
     2009.19096         0.77563         4.48787
     2009.19370         0.38705         4.45159
     2009.19644         1.97648         4.44310
     2009.19917         3.70190         4.46394
     2009.20191         4.82033         4.46626
     2009.20465        -2.81124         4.46626
     2009.20739         1.30118         4.48710
     2009.21013        -1.59539         4.48092
     2009.21286         4.81703         4.42303
     2009.21560         4.33646         4.42843
     2009.21834        -0.18411         4.44310
     2009.22108        10.45831         4.53341
     2009.22381        -0.97226         4.43384
     2009.22655         1.56417         4.43075
     2009.22929         0.80959         4.45313
     2009.23203         2.20202         4.45622
     2009.23477         5.63344         4.49173
     2009.23750         5.44187         4.55117
     2009.24024         6.35930         4.49945
     2009.24298         4.46272         4.51103
     2009.24572         2.22215         4.48787
     2009.24846         2.24457         4.47320
     2009.25119         5.59500         4.63994
     2009.25393         3.14943         4.68008
     2009.25667         1.73885         4.50485
     2009.25941        -2.05572         4.50099
     2009.26214         3.66970         4.47552
     2009.26488         6.15213         4.70478
     2009.26762         4.15456         4.53959
     2009.27036         3.91498         4.50640
     2009.27310        -1.65559         4.51875
     2009.27583         2.48984         4.49868
     2009.27857         0.21626         4.53727
     2009.28131         0.13469         4.50717
     2009.28405        -1.69489         4.55580
     2009.28679         2.44654         4.50254
     2009.28952        -5.24503         4.51952
     2009.29226        -4.17961         4.51026
     2009.29500         0.58782         4.48556
     2009.29774         4.89424         4.57355
     2009.30047        -0.74533         4.56738
     2009.30321        -1.67590         4.51566
     2009.30595         6.39652         4.57741
     2009.30869         2.15495         4.57432
     2009.31143         3.93437         4.77425
     2009.31416        -2.02220         4.55348
     2009.31690        -6.25777         4.50254
     2009.31964        -4.46535         4.51952
     2009.32238        -3.94192         4.55734
     2009.32512        -2.98049         4.64457
     2009.32785        -4.56307         4.69706
     2009.33059        -4.20064         4.57818
     2009.33333       -10.21822         4.59825
     2009.33607        -7.88679         4.66541
     2009.33880        -2.64536         4.71558
     2009.34154        -7.72094         4.71944
     2009.34428        -7.98951         4.72716
     2009.34702        -7.22609         4.63916
     2009.34976        -4.26766         4.56429
     2009.35249        -2.89723         4.57973
     2009.35523         0.12319         4.55117
     2009.35797         5.13162         4.69397
     2009.36071        -3.55996         4.68162
     2009.36344        -7.06953         4.62681
     2009.36618        -7.14410         4.64457
     2009.36892        -4.40568         4.56120
     2009.37166        -6.15625         4.57432
     2009.37440        -7.31683         4.61292
     2009.37713       -10.47140         4.61910
     2009.37987        -2.37997         4.73411
     2009.38261        -6.66755         4.59439
     2009.38535        -0.74712         4.51952
     2009.38809        -8.84769         4.56892
     2009.39082        -5.36927         4.58745
     2009.39356        -5.36484         4.56043
     2009.39630        -6.69642         4.57741
     2009.39904        -1.12599         4.60057
     2009.40177         3.16544         4.58436
     2009.40451         3.10786         4.67004
     2009.40725         3.24429         4.62450
     2009.40999        -1.27429         4.60829
     2009.41273        -5.32286         4.61138
     2009.41546        -2.94243         4.68625
     2009.41820        -5.04101         4.68857
     2009.42094        -3.24858         4.68085
     2009.42368        -5.11616         4.65460
     2009.42642        -2.51173         4.64071
     2009.42915        -2.95630         4.69011
     2009.43189        -2.55088         4.61215
     2009.43463         0.33755         4.59594
     2009.43737        -2.76402         4.65383
     2009.44010        -3.74860         4.68548
     2009.44284        -3.05217         4.54808
     2009.44558        -7.52175         4.59285
     2009.44832        -2.51732         4.61910
     2009.45106        -7.59989         4.61215
     2009.45379        -0.93947         4.59903
     2009.45653        -1.33904         4.58359
     2009.45927         3.43638         4.61524
     2009.46202        -0.19420         4.68239
     2009.46475         7.05424         4.66927
     2009.46748         2.34466         4.66850
     2009.47022        -3.48791         4.68548
     2009.47296        -0.53049         4.58127
     2009.47570         7.93694         4.60443
     2009.47843        -0.23063         4.61292
     2009.48117        -7.06921         4.57973
     2009.48391        -2.11678         4.60906
     2009.48665        -0.82535         4.75109
     2009.48939         0.84507         4.66695
     2009.49212         1.90350         4.65537
     2009.49486        -3.90108         4.65615
     2009.49760        -3.15365         4.60366
     2009.50034        -3.46222         4.52647
     2009.50308         2.65420         4.55580
     2009.50581        -1.06437         4.55425
     2009.50855        -5.33895         4.56661
     2009.51129        -4.91752         4.61910
     2009.51403         1.70591         4.53187
     2009.51676         2.66433         4.60366
     2009.51950         0.05876         4.55889
     2009.52224        -6.74982         4.55271
     2009.52498        -0.88439         4.68085
     2009.52772        -2.66796         4.55425
     2009.53045        -9.75754         4.63762
     2009.53319        -4.40811         4.58282
     2009.53593        -3.67368         4.56120
     2009.53867        -4.69326         4.54345
     2009.54141        -2.42683         4.61987
     2009.54414         0.70859         4.56043
     2009.54688        -3.96698         4.59594
     2009.54962        -7.23855         4.67081
     2009.55236        -6.80813         4.69320
     2009.55509         2.57730         4.53650
     2009.55783         3.26372         4.55966
     2009.56057         4.88115         4.70400
     2009.56331        -7.01942         4.67467
     2009.56605        -5.60400         4.79586
     2009.56878        -6.43457         4.59748
     2009.57152        -3.80815         4.65074
     2009.57426        -1.27972         4.70169
     2009.57700        -6.88229         4.78814
     2009.57974        -3.74787         4.62681
     2009.58247        -2.67744         4.57973
     2009.58521        -1.14101         4.61832
     2009.58795        -4.14459         4.59053
     2009.59069        -4.13216         4.64380
     2009.59342        -7.43574         4.84295
     2009.59616         1.31269         4.64843
     2009.59890        -2.39388         4.57896
     2009.60164        -3.72646         4.56892
     2009.60438        -8.96003         4.69860
     2009.60711         0.27939         4.64611
     2009.60985        -0.24318         4.59208
     2009.61259        -0.69975         4.58359
     2009.61533        -7.31233         4.64071
