# ================= DQRFIT RESULTS ================
# INPUT FILE: series/P791.rad
# OUTPUT: LDETRENDED
# FILTER FUNCTION: f(t)
# f(t)=+line(t)+annual(t)+jumps(t)
# line(t)=+P 1+P 2*t
# annual(t)=+P 3*sin(2*pi*t+P 4)
# jumps(t)=+P 5*heav(t-2009.2272  )+P 6*heav(t-2012.2245  )
# heav(t)=(t<0?0:1)
# TOTAL OBSERVATIONS MTOT= 3748
# INITIAL TIME INTERVAL= 2022.6201 - 2009.0459 = 13.5743
# TOTAL OBSERVATIONS AFTER PREFILTER M= 3655
# TIME-SPAN= 2022.6201 - 2009.0459 = 13.5743
# OBSERVATIONS: USED M=  3655 REJECTED MTOT-M=    93 %USED=   97.5187
# N=  6 PARAMETERS
# MAXSIG= 175.00000
# MAXRES=  47.05429
# SCALE FACTOR FOR LENGTHS: SCL=  10.00000
# SCALE FACTOR FOR SIGMAS: SCLSIG=   1.00000
# CHI^2=   4882.734 DOF=  3649 CHI^2/DOF=   1.33810
# RMS=      7.116 SDEV=      7.117 MEAN=   -0.02325
#  P #       PARAMETER +-    SIGMA %error PARAMETER NAME
# P 1 =      3130.34981 +-   80.420   2.57 YZERO                              
# P 2 =        -1.55087 +-    0.040   2.58 SLOPE                              
# P 3 =         7.76397 +-    0.167   2.15 ANNUAL AMPLITUDE                   
# P 4 =         3.02749 +-    0.030   1.00 ANNUAL PHASE                       
# P 5 =        -0.27058 +-    0.940 347.39 OFFSET 2009.2272                   
# P 6 =        -8.34762 +-    0.380   4.55 OFFSET 2012.2245                   
#       T            LDETRENDED       SIG_OBS
     2009.04585       -14.18974         7.89144
     2009.04859       -12.17050         7.06204
     2009.05133        -7.11525         7.11063
     2009.05407        -7.52200         7.13839
     2009.05681        -2.26776         7.16152
     2009.05954        -0.05951         7.19160
     2009.06228       -10.22627         7.06436
     2009.06502       -13.05702         7.16268
     2009.06776       -12.47677         7.17193
     2009.07049       -10.73853         7.13723
     2009.07323        -6.25128         7.24481
     2009.07597        -5.80704         7.04932
     2009.07871       -13.31279         7.25291
     2009.08145        -8.52854         7.25638
     2009.08418        -0.71230         7.34429
     2009.08692        -3.18605         7.19276
     2009.08966        -8.33781         7.24018
     2009.09240        -8.04156         7.13260
     2009.09514         1.45669         7.15805
     2009.09787        -1.93907         7.28183
     2009.10061         2.06518         7.19623
     2009.10335        -6.49557         7.17193
     2009.10609         0.42367         7.09674
     2009.10882        -3.23308         7.08402
     2009.11156         3.12716         7.02850
     2009.11430        -7.06659         7.23093
     2009.11704        -4.05834         7.27026
     2009.11978         0.68290         7.08286
     2009.12251        -5.69685         7.08749
     2009.12525        -1.40461         7.16384
     2009.12799         1.22864         7.07824
     2009.13073        -2.81011         7.18235
     2009.13347        -9.70487         7.13839
     2009.13620        -5.28362         7.17193
     2009.13894       -10.03338         7.09906
     2009.14168        -5.21013         7.14996
     2009.14442        -5.19488         7.19507
     2009.14715        -6.11964         7.34082
     2009.14989         6.63261         7.30265
     2009.15263         2.56885         7.27951
     2009.15537        -1.93490         7.36627
     2009.15811        -8.22865         7.41138
     2009.16084        -9.15241         7.15805
     2009.16358         3.74284         7.21705
     2009.16632        -3.88792         7.28183
     2009.16906        -2.02767         7.25291
     2009.17180        -9.91042         7.12104
     2009.17453        -4.44918         7.26216
     2009.17727        -6.07493         7.46807
     2009.18001        -3.06569         7.30728
     2009.18275         0.39056         7.28530
     2009.18548       -10.49719         7.29918
     2009.18822       -12.98595         7.47501
     2009.19096       -12.43470         7.27951
     2009.19370        -7.22046         7.30612
     2009.19644        -4.96421         7.29918
     2009.19917         0.14104         7.26795
     2009.20191         4.26428         7.43799
     2009.20465        -4.96247         7.45534
     2009.20739         7.33478         7.54094
     2009.21013       -10.37398         7.60456
     2009.21286        -7.21873         7.59878
     2009.21560        -5.54149         7.59994
     2009.21834       -10.01924         7.58027
     2009.22108        -2.56299         7.64852
     2009.22381        -7.83075         7.70636
     2009.22655        -0.50850         7.79080
     2009.22929         0.59374         7.72255
     2009.23203        15.24499         8.12048
     2009.23477         6.59724         8.10313
     2009.23750        -2.98452         7.84054
     2009.24298       -15.60103         8.22806
     2009.24572         8.97822         8.03141
     2009.24846        30.56847         8.71390
     2009.25119        32.40771         8.81570
     2009.26214         9.50070         8.75554
     2009.26488        -9.65506         8.18179
     2009.26762       -12.81081         8.08231
     2009.27036       -11.33157         8.07999
     2009.27310       -18.11332         8.22575
     2009.27583        -8.26607         8.02331
     2009.27857       -19.93383         7.98514
     2009.28131         5.74142         8.24772
     2009.28405        39.05866         8.33217
     2009.29500        24.03265         8.39926
     2009.29774         7.69389         8.21649
     2009.30047        -8.13386         8.40851
     2009.30321        -9.05061         8.21996
     2009.30595        -4.19237         8.17253
     2009.30869         3.01588         8.12279
     2009.31143       -10.85787         8.05454
     2009.31416       -16.51263         8.01984
     2009.31690       -14.58038         7.96894
     2009.31964       -10.69414         7.97357
     2009.32238       -14.57389         8.02447
     2009.32512       -18.40164         8.26276
     2009.32785        -7.51540         8.07537
     2009.33059        -3.46115         8.21996
     2009.33333       -13.16691         8.14940
     2009.33607        -3.45166         8.23963
     2009.33880        -4.42941         7.93193
     2009.34154         3.02783         8.19220
     2009.34428        -8.03992         8.30094
     2009.34702         6.88232         8.09735
     2009.34976        -6.79743         8.40620
     2009.35249       -13.51418         8.12858
     2009.35523        -7.12794         8.06033
     2009.35797       -15.01769         8.12626
     2009.36071         0.82255         8.23963
     2009.36892         3.60929         8.49643
     2009.37166       -18.40946         7.90879
     2009.37440       -11.82022         8.04876
     2009.37713        -6.51997         8.15403
     2009.37987        -3.55272         8.43165
     2009.38261        -7.14848         8.19567
     2009.38535       -11.73523         8.15518
     2009.38809        -6.30499         7.97473
     2009.39082       -16.35074         7.94234
     2009.39356        -9.30749         7.81509
     2009.39630        -8.66725         7.84633
     2009.39904        -2.94800         7.84401
     2009.40177        -0.43476         7.78502
     2009.40451         5.66149         7.73759
     2009.40725         1.66474         7.72371
     2009.40999        -4.19802         7.63233
     2009.41273        -2.04777         7.68554
     2009.41546        13.10248         7.65777
     2009.41820        -3.94028         7.55598
     2009.42094       -11.36803         7.51202
     2009.42368       -11.24979         7.49814
     2009.42642       -15.64254         7.48889
     2009.42915       -16.18729         7.48657
     2009.43189        -5.21805         7.26679
     2009.43463        -4.15580         7.18813
     2009.43737         3.22944         7.22168
     2009.44010        -7.80231         7.22515
     2009.44284        -9.89406         7.30612
     2009.44558        -9.98782         7.20664
     2009.44832       -11.44057         7.24250
     2009.45106       -11.83833         7.13376
     2009.45379        -3.95408         7.10369
     2009.45653         0.95717         7.17309
     2009.45927       -13.07159         7.19276
     2009.46201        -7.69034         7.14070
     2009.46475        -0.45710         7.24018
     2009.46748        -6.08385         7.12566
     2009.47022        -1.26360         7.25059
     2009.47296       -15.43936         7.19276
     2009.47570        -0.70611         7.06320
     2009.47843        -2.97287         7.11988
     2009.48117        -1.66662         7.13954
     2009.48391         1.37463         7.07245
     2009.48665        -4.50913         7.19391
     2009.48939         1.28012         7.20664
     2009.49212         3.28736         7.22862
     2009.49486        -5.15839         7.23787
     2009.49760        -0.25914         7.20779
     2009.50034         2.20310         7.09559
     2009.50308        -0.97465         7.08865
     2009.50581         4.54859         7.04932
     2009.50855        -1.32416         7.11410
     2009.51129        -0.90691         7.14649
     2009.51403        -4.31767         7.04932
     2009.51676        -7.54642         7.11641
     2009.51950         2.89283         7.11872
     2009.52224        -3.20593         7.11178
     2009.52498        -5.24568         7.18119
     2009.52772         0.94256         7.16268
     2009.53045        -0.28019         7.26101
     2009.53319        -0.52494         7.06898
     2009.53593        -0.76770         7.02965
     2009.53867        -2.09845         7.11641
     2009.54141         1.68979         7.13376
     2009.54414         8.00304         7.20201
     2009.54688        -0.72671         7.09906
     2009.54962         3.50153         7.11410
     2009.55236        -0.17122         7.22052
     2009.55509         6.32602         7.22283
     2009.55783         2.80327         7.21011
     2009.56057         1.69652         7.39056
     2009.56331         5.06376         7.37090
     2009.56605       -13.00799         7.38709
     2009.56878        -8.15375         7.16962
     2009.57152         3.79650         7.10600
     2009.57426         1.15375         7.14417
     2009.57700         3.40299         7.32231
     2009.57974        12.85624         7.28067
     2009.58247         8.38048         7.14649
     2009.58521         5.15373         7.27373
     2009.58795        -0.68602         7.12104
     2009.59069         4.01322         7.29686
     2009.59342         9.50847         7.34198
     2009.59616         9.59571         7.05973
     2009.59890        -8.48904         7.17078
     2009.60164        -4.14779         7.13492
     2009.60438        -1.14155         7.13839
     2009.60711         0.11870         7.11757
     2009.60985         4.22294         7.14533
     2009.61259        -0.48681         7.34314
     2009.61533       -10.94556         7.19044
     2009.61807        -4.70332         7.09443
     2009.62080         6.10993         7.21242
     2009.62354        -4.85882         7.07245
     2009.62628         7.28242         7.11988
     2009.62902         7.81367         7.06898
     2009.63175         3.42991         7.06204
     2009.63449         2.67916         7.08749
     2009.63723         0.34841         7.22630
     2009.63997         4.45765         7.17656
     2009.64271         6.38290         7.23093
     2009.64544         7.83914         7.16499
     2009.64818         5.24239         7.25291
     2009.65092         2.65064         7.15343
     2009.65366         4.15288         7.13492
     2009.65639         4.77213         7.09906
     2009.65913        -3.73663         7.22515
     2009.66187        -1.39738         7.01693
     2009.66461         0.82687         6.96950
     2009.66735         7.76211         7.00999
     2009.67008        13.68236         7.12451
     2009.67282         6.61760         7.24134
     2009.67556         4.59985         7.11872
     2009.67830        10.02010         7.24018
     2009.68104        10.96934         7.29802
     2009.68377       -13.94441         7.14996
     2009.68651         8.27583         7.05626
     2009.68925         7.95508         7.10831
     2009.69199        -3.03967         7.06783
     2009.69472         5.05057         6.93942
     2009.69746         5.67382         7.06204
     2009.70020        10.75206         7.19507
     2009.70294        15.81431         7.14996
     2009.70568         4.81656         7.11641
     2009.70841        -4.43120         7.12913
     2009.71115         1.63905         7.24712
     2009.71389         6.23829         7.37321
     2009.71663        -2.32446         7.22515
     2009.71937         1.97679         7.15921
     2009.72210        -4.25997         7.03081
     2009.72484         0.18528         7.11178
     2009.72758         1.46853         7.14649
     2009.73032         5.80377         7.07939
     2009.73305         5.90202         7.27604
     2009.73579         7.16226         7.10831
     2009.73853         7.98251         6.99726
     2009.74127         8.05476         7.11294
     2009.74401         3.38900         7.15227
     2009.74674        -6.63675         7.20085
     2009.74948        -4.62651         7.14649
     2009.75222        -6.59926         7.07592
     2009.75496         1.77399         6.94868
     2009.75770         3.36723         6.98107
     2009.76043        -3.10252         7.01230
     2009.76317         5.32372         7.08055
     2009.76591         4.50297         7.16152
     2009.76865         3.94222         7.18235
     2009.77138        -1.53954         6.96950
     2009.77412         8.78171         6.99032
     2009.77686         7.51095         7.06898
     2009.77960         6.50220         7.05857
     2009.78234        14.11745         7.02734
     2009.78507        20.79569         7.17656
     2009.78781         3.28794         7.26332
     2009.79055        -1.03182         7.28530
     2009.79329         9.39643         7.34545
     2009.79603         0.25268         7.27026
     2009.79876         7.02292         7.24597
     2009.80150         5.19517         7.21126
     2009.80424         5.60241         7.27951
     2009.80698         5.81566         7.22515
     2009.80971         7.25991         7.41023
     2009.81245         9.74015         7.29918
     2009.81519        13.76840         7.27604
     2009.81793        13.49364         7.45071
     2009.82067        10.19689         7.19391
     2009.82340         2.82814         7.17078
     2009.82614         7.00238         7.46228
     2009.82888         0.37863         7.39866
     2009.83162        19.30288         7.30843
     2009.83436         0.31312         7.21936
     2009.83709         1.46837         7.23093
     2009.83983         3.59761         7.19970
     2009.84257         7.55686         7.18813
     2009.84531         9.40811         7.36627
     2009.84804        24.01535         7.35586
     2009.85078        21.14860         7.31769
     2009.85352        16.37484         7.28298
     2009.85626         7.08009         7.41370
     2009.85900         6.66434         7.50624
     2009.86173         3.24458         7.35933
     2009.86447         4.54783         7.83013
     2009.86721         7.48007         7.60225
     2009.86995         7.82232         7.40213
     2009.87269         6.06357         7.42874
     2009.87542         2.14681         7.47385
     2009.87816        11.21706         7.44030
     2009.88090         6.65030         7.44377
     2009.88364        14.51755         7.40329
     2009.88637        12.17280         7.37205
     2009.88911         7.51604         7.27142
     2009.89185         5.61429         7.27836
     2009.89459         3.73453         7.38825
     2009.89733        -6.85422         7.36049
     2009.90006        -0.70597         7.33504
     2009.90280        -0.13773         7.21820
     2009.90554        -0.79248         7.22168
     2009.90828        -6.87924         7.11410
     2009.91102        -9.14999         7.16962
     2009.91375        -0.81874         7.20664
     2009.91649        -5.26350         7.27720
     2009.91923        -4.81725         7.07708
     2009.92197        -8.81701         7.06088
     2009.92470        -8.34076         7.15111
     2009.92744        -7.66951         7.09443
     2009.93018        -7.15127         7.15574
     2009.93292        -0.10102         7.13839
     2009.93566        -2.68478         7.03891
     2009.93839        -0.34753         7.27951
     2009.94113         0.09272         7.02618
     2009.94387        -7.30404         7.26448
     2009.94661        -3.32879         7.31422
     2009.94935        -2.49554         7.03197
     2009.95208        -1.54930         7.00536
     2009.95482         0.81995         7.04700
     2009.95756        12.06319         7.24134
     2009.96030        -5.99656         7.27489
     2009.96303        -4.73231         7.21820
     2009.96577       -11.80707         7.30265
     2009.96851        -5.95382         7.34661
     2009.97125         0.89442         7.22630
     2009.97399        -6.88733         7.28414
     2009.97672       -11.41408         7.10253
     2009.97946       -14.18384         7.03544
     2009.98220        -8.19459         6.96950
     2009.98494        -5.78235         7.01230
     2009.98767        -2.90410         7.03891
     2009.99041        -5.55585         6.97760
     2009.99315        -6.66761         7.02850
     2009.99589        -9.87236         6.95793
     2009.99863       -11.84112         7.05626
     2010.00410        -9.16762         7.13954
     2010.00684        -8.62138         7.15805
     2010.00958        -6.56413         7.09906
     2010.01232       -14.34389         7.20548
     2010.01505       -16.02964         7.17193
     2010.01779       -10.78339         7.09443
     2010.02053        -7.12515         7.20432
     2010.02327       -10.87390         7.21936
     2010.02600        -6.73066         7.04353
     2010.02874        -8.79641         7.05279
     2010.03148         5.25684         7.10021
     2010.03422         0.02008         7.25869
     2010.03696       -11.35067         7.55251
     2010.03969        -2.15643         7.20201
     2010.04243        -5.07618         7.11178
     2010.04517         5.73707         7.06204
     2010.04791         9.84131         7.23209
     2010.05065         7.19756         7.31537
     2010.05338         4.07981         7.38131
     2010.05612         5.87205         7.27373
     2010.05886         3.86330         7.09327
     2010.06160       -14.03446         7.10600
     2010.06433        -4.91521         7.13839
     2010.06707        -5.20496         7.11410
     2010.06981        -2.08572         7.23787
     2010.07255        -7.08747         7.30033
     2010.07529        -6.84723         7.30033
     2010.07802        -6.67198         7.03775
     2010.08076       -12.73673         7.05279
     2010.08350        -0.97849         7.00420
     2010.08624         1.92076         7.08055
     2010.08898         7.59800         7.23903
     2010.09171         1.06725         7.01808
     2010.09445         1.99150         7.26679
     2010.09719        -5.86026         7.39288
     2010.09993        -5.42701         7.02503
     2010.10266       -11.15677         7.07592
     2010.10540        -2.70552         7.18466
     2010.10814         2.45473         7.20895
     2010.11088        -3.40503         7.16499
     2010.11362        -2.97478         7.19507
     2010.11635         6.72846         7.10369
     2010.11909        -1.07229         7.18119
     2010.12183        -9.65704         7.23093
     2010.12457        -3.34180         7.22746
     2010.12731        -4.44355         7.46807
     2010.13004        -3.32731         7.30033
     2010.13278       -10.12106         7.15458
