# ================= DQRFIT RESULTS ================
# INPUT FILE: series/P792.rad
# OUTPUT: LDETRENDED
# FILTER FUNCTION: f(t)
# f(t)=+line(t)+annual(t)
# line(t)=+P 1+P 2*t
# annual(t)=+P 3*sin(2*pi*t+P 4)
# heav(t)=(t<0?0:1)
# TOTAL OBSERVATIONS MTOT= 3075
# INITIAL TIME INTERVAL= 2022.7488 - 2008.9185 = 13.8303
# TOTAL OBSERVATIONS AFTER PREFILTER M= 2645
# TIME-SPAN= 2022.7488 - 2008.9392 = 13.8096
# OBSERVATIONS: USED M=  2645 REJECTED MTOT-M=   430 %USED=   86.0163
# N=  4 PARAMETERS
# MAXSIG= 175.00000
# MAXRES= 356.80515
# SCALE FACTOR FOR LENGTHS: SCL=  10.00000
# SCALE FACTOR FOR SIGMAS: SCLSIG=   1.00000
# CHI^2=  36944.563 DOF=  2641 CHI^2/DOF=  13.98885
# RMS=     25.605 SDEV=     25.595 MEAN=    0.87318
#  P #       PARAMETER +-    SIGMA %error PARAMETER NAME
# P 1 =       186.13889 +-  242.643 130.36 YZERO                              
# P 2 =        -0.10310 +-    0.120 116.82 SLOPE                              
# P 3 =         1.62956 +-    0.669  41.03 ANNUAL AMPLITUDE                   
# P 4 =        -0.17349 +-    0.574 330.83 ANNUAL PHASE                       
#       T            LDETRENDED       SIG_OBS
     2008.93922        -4.04299        22.76640
     2008.94182       -20.03472        21.58825
     2008.94455       -11.61544        21.52840
     2008.94729        -1.73316        21.25537
     2008.95003         4.05113        20.65695
     2008.95277         3.25241        20.64947
     2008.95551         1.25269        20.77289
     2008.95824        -2.33103        20.78037
     2008.96098        -0.17875        20.97112
     2008.96372         2.35654        20.69809
     2008.96646         0.37882        21.19179
     2008.96919        -2.30890        20.73549
     2008.97193         4.86338        20.96364
     2008.97467         8.05067        20.87762
     2008.97741         3.22195        20.73923
     2008.98015        11.29223        20.80655
     2008.98288        15.59751        20.89632
     2008.98562        13.36279        20.86265
     2008.98836        11.36708        21.08706
     2008.99110        -2.86864        21.04966
     2008.99384        -3.28736        20.83647
     2008.99657        -4.92608        20.87762
     2008.99931         1.81121        21.01600
     2009.00479        27.96077        24.48314
     2009.01848        -8.62982        22.87487
     2009.02121        -1.29654        21.87250
     2009.03216         8.53159        21.27407
     2009.03490       -22.27612        20.67565
     2009.03764       -18.18584        20.78785
     2009.04038       -14.72256        20.95616
     2009.04312       -15.56428        21.04592
     2009.04585       -17.39900        20.94120
     2009.04859       -13.24971        20.79907
     2009.05133       -10.58043        20.82899
     2009.05407        -9.35115        20.90754
     2009.05681        -4.65287        21.06462
     2009.05954        -5.12758        21.00478
     2009.06228       -10.25430        20.96738
     2009.06502       -11.87202        20.84395
     2009.06776        -7.64074        20.73549
     2009.07049        -7.80245        20.88136
     2009.07323        -7.82117        21.04966
     2009.07597         7.35211        21.04218
     2009.09240        -3.83820        20.87388
     2009.09514       -14.79691        20.78037
     2009.09787        -9.13063        20.92998
     2009.10061        -4.72435        20.79159
     2009.10335       -12.44007        20.85517
     2009.10609        -2.63779        20.98608
     2009.10882         1.09350        20.97112
     2009.11156        -0.00522        20.96738
     2009.11430       -12.05494        21.27781
     2009.11704        -2.41866        21.11325
     2009.11978        -0.78637        20.85517
     2009.12251        -0.42209        20.69809
     2009.12525        -5.78781        20.64947
     2009.12799        -4.86953        20.64573
     2009.13073        -1.72024        20.89258
     2009.13347        -7.36696        20.82899
     2009.13620        -8.89668        20.92624
     2009.13894       -12.14240        20.87388
     2009.14168       -14.12712        20.92998
     2009.14442       -14.10883        20.83273
     2009.14715       -13.99255        21.53963
     2009.14989       -15.59927        21.87624
     2009.15263       -14.54399        20.91502
     2009.15537        22.23930        21.87998
     2009.16084        34.25086        21.64809
     2009.16358        -4.71586        21.28155
     2009.16632       -23.20758        21.14317
     2009.16906       -10.63129        21.49848
     2009.17180        -7.04501        20.58962
     2009.51241        -0.93689        52.60920
     2009.51403         3.41927        20.98982
     2009.51676         5.03756        20.97860
     2009.51950        -2.94816        21.09829
     2009.52224        -8.61388        21.32644
     2009.52498         1.28540        21.18805
     2009.52772        -1.51232        21.03096
     2009.53045        -4.13203        21.15813
     2009.53319        -2.99675        20.94494
     2009.53593        -1.71147        21.00104
     2009.53867         0.06481        21.13195
     2009.54141         6.14410        21.24789
     2009.54414         0.62038        20.98982
     2009.54688         1.76166        20.84021
     2009.54962         4.01494        20.85891
     2009.55236         3.31723        21.28903
     2009.55509         5.96551        21.09455
     2009.55783         6.73379        21.02348
     2009.56057         3.60407        21.79396
     2009.56331         2.79735        22.18667
     2009.56605         5.86564        21.89120
     2009.56878        -1.73808        21.51344
     2009.57152         6.37020        21.40498
     2009.57426        -0.83952        21.40124
     2009.57700        13.60877        22.31384
     2009.57974         4.80605        21.27781
     2009.58247         0.65533        21.45360
     2009.58521         6.70561        21.61069
     2009.58795         1.55089        21.45734
     2009.59069         8.86518        21.21049
     2009.59342        -1.42454        21.76778
     2009.59616         5.41974        21.04592
     2009.59890         5.82802        21.25911
     2009.60164         6.91431        21.48726
     2009.60438         5.04259        21.15439
     2009.60711         6.72087        21.09455
     2009.60985        -3.82585        21.13195
     2009.61259        -4.90956        21.77526
     2009.61533        -0.82328        21.24041
     2009.61807         1.90800        21.08332
     2009.62080         6.29728        21.10951
     2009.62354         1.10956        21.16935
     2009.62628         3.70185        21.13569
     2009.62902         2.41613        21.58825
     2009.63175         9.39641        21.22171
     2009.63449         9.02569        21.69297
     2009.63723         3.27298        21.89120
     2009.63997        -3.32674        21.47978
     2009.64271         3.07754        21.43116
     2009.64544        11.60582        21.29651
     2009.64818        -2.63190        21.55459
     2009.65092        -3.49561        21.40124
     2009.65366        -6.63033        21.37506
     2009.65639        -1.31405        20.98982
     2009.65913         7.01123        20.90006
     2009.66187         5.61452        21.18057
     2009.66461         3.73980        21.12073
     2009.66735         3.26408        21.21423
     2009.67008         1.42236        21.59573
     2009.67282        -3.01435        22.03333
     2009.67556        -2.86807        21.63313
     2009.67830         5.60721        21.94356
     2009.68104       -12.25651        22.47841
     2009.68377        -3.23223        21.49474
     2009.68651        12.47706        20.98234
     2009.68925         4.97934        21.46482
     2009.69199        -2.87338        21.24789
     2009.69472         0.80990        21.39750
     2009.69746         1.47019        21.01974
     2009.70020         9.94747        21.27033
     2009.70294         6.39975        21.26285
     2009.70568         5.19203        21.60695
     2009.70841        -1.97969        21.68549
     2009.71115         3.08760        21.46482
     2009.71389         7.54288        21.73785
     2009.71663        -1.95284        21.39002
     2009.71937        -2.74456        21.14691
     2009.72210        -4.58427        21.21049
     2009.72484         1.97101        21.65557
     2009.72758         4.30829        21.24041
     2009.73032         0.16457        21.13943
     2009.73305         5.08786        21.70045
     2009.73579         4.64314        22.16797
     2009.73853         3.46342        21.23293
     2009.74127         8.53570        21.48726
     2009.74401         6.04998        21.85006
     2009.74674         5.36827        21.29651
     2009.74948        -0.46745        21.46482
     2009.75222        -3.73517        21.05714
     2009.75496         5.72411        21.15439
     2009.75770         8.88940        21.20301
     2009.76043         7.98268        21.15439
     2009.76317         3.48196        21.31896
     2009.76591         3.20724        21.41994
     2009.76865         2.91952        21.75655
     2009.77138         1.47381        21.58077
     2009.77412         1.94709        21.61069
     2009.77686         4.17037        21.34140
     2009.77960         7.47865        21.52840
     2009.78234         5.83894        21.50596
     2009.78507        -3.73078        21.80892
     2009.78781        -7.48450        22.16797
     2009.79055       -19.97322        22.91601
     2009.79329       -21.65593        23.14416
     2009.79603         1.52535        22.45597
     2009.79876         9.36363        21.55459
     2009.80150        -0.21009        21.87250
     2009.80424         5.19519        21.95852
     2009.80698         5.76248        21.78648
     2009.80971         6.23876        22.36246
     2009.81245         8.43804        21.73037
     2009.81519        10.40432        21.86876
     2009.81793         2.58761        22.32880
     2009.82067         9.87189        21.67801
     2009.82340         8.32517        21.44612
     2009.82614         7.16145        21.89120
     2009.82888         1.01773        21.96974
     2009.83162       -10.93998        22.38490
     2009.83436        -3.02670        21.52466
     2009.83709        -5.19542        21.72289
     2009.83983         3.67186        21.57703
     2009.84257         9.01515        21.98845
     2009.84531        -8.44157        22.42604
     2009.84804         3.41371        21.96974
     2009.85078        -6.18301        21.84632
     2009.85352         0.76728        21.66305
     2009.85626        -5.04344        22.65794
     2009.85900       -13.68916        22.25026
     2009.86173        -9.23688        21.82014
     2009.86447        -1.80660        22.84494
     2009.86721        -0.28831        22.14179
     2009.86995         5.45297        21.77152
     2009.87269         7.32625        21.74907
     2009.87542       -20.02947        21.83136
     2009.87816        -2.16018        22.23156
     2009.88090         5.26410        22.01463
     2009.88364         5.38438        21.99219
     2009.88637        -8.41734        21.99219
     2009.88911         2.24594        21.58077
     2009.89185         6.13423        21.96226
     2009.89459        -3.29249        21.78274
     2009.89733        -9.58621        21.37506
     2009.90006        -3.36493        21.75281
     2009.90280        -3.43764        21.56207
     2009.90554        -2.95536        21.75281
     2009.90828        -5.76008        21.21423
     2009.91102        -3.92780        21.26285
     2009.91375        -5.27951        21.05714
     2009.91649        -6.25123        21.29277
     2009.91923        -7.89295        21.24041
     2009.92197        -7.51567        21.14691
     2009.92470        -9.79839        21.12447
     2009.92744        -2.71510        21.27781
     2009.93018        -6.69082        21.29277
     2009.93292        -2.22354        21.33392
     2009.93566        -3.59926        21.26285
     2009.93839        -3.74597        21.85380
     2009.94113        -1.69069        21.06088
     2009.94387        -1.69341        21.53214
     2009.94661        -0.12613        21.65183
     2009.94935        -2.44585        21.13569
     2009.95208        -1.42956        21.24789
     2009.95482        -1.72528        21.50596
     2009.95756       -20.36900        21.56955
     2009.96030        -4.50172        21.27781
     2009.96303        -3.38843        21.35636
     2009.96577        -1.60615        21.72289
     2009.96851       -16.21787        22.36246
     2009.97125       -10.54459        22.09317
     2009.97399        -1.90730        21.33392
     2009.97672        -5.97302        20.96738
     2009.97946        -7.88174        20.95990
     2009.98220        -4.12546        20.87388
     2009.98494        -5.48018        20.85143
     2009.98767        -1.72389        20.97860
     2009.99041        -4.12061        20.87388
     2009.99315        -5.00733        21.06462
     2009.99589        -5.27705        20.99356
     2009.99863       -10.55776        21.06836
     2010.00410       -13.61220        21.27033
     2010.00684       -10.90792        21.58077
     2010.00958        -7.41964        21.77526
     2010.01232        -5.35235        21.62565
     2010.01505       -13.37107        21.39376
     2010.01779        -5.57579        21.63687
     2010.02053         0.66849        21.85754
     2010.02327       -17.53722        21.90616
     2010.02600        -7.18094        21.40124
     2010.02874       -15.54566        22.26522
     2010.03148       -14.74738        21.47604
     2010.03422       -12.18209        21.96974
     2010.03696        -6.74581        22.74396
     2010.03969        -3.65953        22.01089
     2010.04243         1.62475        21.44612
     2010.04517        -0.53697        21.36758
     2010.04791         5.26432        21.57329
     2010.05065        -2.78940        21.75281
     2010.05338        -2.21012        22.10065
     2010.05612        -5.63184        21.75281
     2010.05886         6.34945        21.12821
     2010.06160         2.17673        21.02348
     2010.06433        -2.29899        21.01226
     2010.06707        -5.51071        21.33766
     2010.06981        -3.58643        21.74159
     2010.07255        -4.00014        21.53963
     2010.07529        -0.46486        21.83510
     2010.07802        -3.40258        21.07210
     2010.08076        -0.80230        20.99730
     2010.08350        -3.48501        20.77663
     2010.08624         6.50027        21.18431
     2010.08898         9.66055        21.78274
     2010.09171         5.95883        21.08706
     2010.09445        -2.77088        21.49474
     2010.09719         0.00740        21.44986
     2010.09993        -5.21432        21.21797
     2010.10266        -2.00904        21.01974
     2010.10540        -1.05176        21.51718
     2010.10814        -3.06047        21.54337
     2010.11088         2.49781        21.79022
     2010.11362         1.72309        21.18805
     2010.11635        -7.15763        21.41994
     2010.11909       -11.93334        21.01226
     2010.12183       -15.86506        21.00104
     2010.12457        -5.81778        20.85891
     2010.12731        -7.56350        21.73785
     2010.13004        -7.68222        21.27781
     2010.13278        -4.85193        21.30025
     2010.13552        -4.51665        21.48352
     2010.13826         0.82363        21.30025
     2010.14099        -8.08409        20.91876
     2010.14373        -5.83680        21.60321
     2010.14647        -6.60652        21.63313
     2010.14921        -0.38724        21.28155
     2010.15195        -6.47396        21.01600
     2010.15468        10.73633        21.17309
     2010.15742        10.00461        21.66305
     2010.16016        -4.69411        20.99356
     2010.16290        -3.19083        21.13943
     2010.16564        -3.09355        21.29277
     2010.16837        -1.19326        21.25163
     2010.17111        -4.47398        21.04592
     2010.17385        -3.71770        20.83273
     2010.17659        -2.45842        21.00478
     2010.17932        -2.77913        20.94868
     2010.18206        -3.44785        21.09081
     2010.18480        -1.28057        20.84769
     2010.18754        -3.62529        20.69435
     2010.19028        -3.58601        20.91502
     2010.19301       -17.92572        20.93372
     2010.19575       -15.91244        20.74297
     2010.19849       -14.53716        20.85143
     2010.20123       -22.27788        21.07584
     2010.20397        -8.65259        21.13195
     2010.20670       -11.58231        21.12821
     2010.20944        -7.50603        21.21423
     2010.21218        -7.29575        21.04218
     2010.21492        -0.32146        21.21797
     2010.21765       -10.51218        21.21423
     2010.22039        -4.65390        21.07958
     2010.22313        -9.88762        21.07958
     2010.22587        -5.76934        21.43490
     2010.22861        -1.78405        21.36010
     2010.23134         1.60223        21.26285
     2010.23408       -16.69049        21.11325
     2010.23956        -6.40392        21.40498
     2010.24230        -3.65064        21.89120
     2010.24503        -6.08136        21.41620
     2010.24777       -12.64208        21.24041
     2010.25051       -17.43280        22.05577
     2010.25325        -8.11151        21.32270
     2010.25598         8.48677        21.37132
     2010.25872         4.35405        21.51344
     2010.26146        26.92233        22.13805
     2010.50065        -0.24001        41.01842
     2010.50239        -3.17183        20.20439
     2010.50513        -1.58454        20.15576
     2010.50787        -0.89726        20.30163
     2010.51060        -3.00198        20.16324
     2010.51334        -2.18970        20.18568
     2010.51608        -3.86541        20.15950
     2010.51882         0.91687        20.32781
     2010.52156        -5.32685        20.70183
     2010.52429         8.46743        20.36895
     2010.52703         7.86871        20.89632
     2010.52977        -0.00300        20.43628
     2010.53251        -3.10572        20.36521
     2010.53525        -1.18244        20.30911
     2010.53798        -1.87216        20.21935
     2010.54072        -6.22987        20.32033
     2010.54346        -7.23659        20.49986
     2010.54620         0.15169        20.27171
     2010.54893        -1.23303        20.34651
     2010.55167        -4.00675        20.47742
     2010.55441        -3.98346        20.38017
     2010.55715         2.17582        20.38765
     2010.55989         2.13510        20.32781
     2010.56262         1.33538        20.57092
     2010.56536        -0.89033        20.18194
     2010.56810        -0.30605        20.28667
     2010.57084         5.06923        20.30163
     2010.57357         1.46051        20.98608
     2010.57631         1.26580        20.90006
     2010.57905        -1.01092        20.63824
     2010.58179        -1.11064        20.43628
     2010.58453         1.66464        20.57466
     2010.58726         0.11192        20.71679
     2010.59000         4.75921        21.02348
     2010.59274         2.31649        20.75793
     2010.59548         3.49677        20.36895
     2010.59822         8.08005        20.45498
     2010.60095         4.77234        20.39139
     2010.60369         4.12362        20.36521
     2010.60643         5.85190        20.43254
     2010.60917         6.42318        20.21561
     2010.61190         3.10646        20.32033
     2010.61464         4.48175        20.35025
     2010.61738         1.26103        20.40261
     2010.62012         0.60531        20.42506
     2010.62286         3.16759        20.44750
     2010.62559         7.03788        20.28667
