# ================= DQRFIT RESULTS ================
# INPUT FILE: series/P794.rad
# OUTPUT: LDETRENDED
# FILTER FUNCTION: f(t)
# f(t)=+line(t)+annual(t)
# line(t)=+P 1+P 2*t
# annual(t)=+P 3*sin(2*pi*t+P 4)
# heav(t)=(t<0?0:1)
# TOTAL OBSERVATIONS MTOT= 4073
# INITIAL TIME INTERVAL= 2022.7488 - 2009.6564 = 13.0924
# TOTAL OBSERVATIONS AFTER PREFILTER M= 4068
# TIME-SPAN= 2022.7488 - 2009.6564 = 13.0924
# OBSERVATIONS: USED M=  4068 REJECTED MTOT-M=     5 %USED=   99.8772
# N=  4 PARAMETERS
# MAXSIG= 175.00000
# MAXRES=  21.88494
# SCALE FACTOR FOR LENGTHS: SCL=  10.00000
# SCALE FACTOR FOR SIGMAS: SCLSIG=   1.00000
# CHI^2=   3655.023 DOF=  4064 CHI^2/DOF=   0.89937
# RMS=      5.259 SDEV=      5.259 MEAN=    0.04523
#  P #       PARAMETER +-    SIGMA %error PARAMETER NAME
# P 1 =       -38.76754 +-   43.662 112.62 YZERO                              
# P 2 =         0.02044 +-    0.022 105.95 SLOPE                              
# P 3 =         4.59595 +-    0.116   2.52 ANNUAL AMPLITUDE                   
# P 4 =        -3.00770 +-    0.035   1.17 ANNUAL PHASE                       
#       T            LDETRENDED       SIG_OBS
     2009.65639         2.59793         5.56586
     2009.65913         8.05188         5.55922
     2009.66187         6.25482         5.58767
     2009.66461         7.47077         5.52887
     2009.66735         6.67071         5.55353
     2009.67008         5.31565         5.66639
     2009.67282         2.57060         5.59621
     2009.67556         1.64154         5.59621
     2009.67830         7.94449         5.76786
     2009.68104         9.71143         5.67492
     2009.68377         0.59538         5.56681
     2009.68651         8.91232         5.56965
     2009.68925         4.05826         5.64078
     2009.69199         2.20221         5.62086
     2009.69472         6.75615         5.55164
     2009.69746         4.16310         5.52698
     2009.70020        10.16104         5.68535
     2009.70294         9.26198         5.80674
     2009.70568        -0.29107         5.63319
     2009.70841         5.33287         5.63319
     2009.71115         8.63882         5.59621
     2009.71389         6.67376         5.74889
     2009.71663         6.96470         5.63319
     2009.71937         4.72665         5.65690
     2009.72210        -0.86041         5.61612
     2009.72484         2.03054         5.69294
     2009.72758         3.52448         5.69104
     2009.73032         3.70642         5.61233
     2009.73305         8.95737         5.75269
     2009.73579         6.04331         5.64078
     2009.73853         7.38726         5.58767
     2009.74127         2.46020         5.69863
     2009.74401         7.46814         5.74130
     2009.74674         0.65909         5.56586
     2009.74948         2.92303         5.61328
     2009.75222        -0.87302         5.59810
     2009.75496         2.76892         5.61992
     2009.75770         3.09486         5.58578
     2009.76043         3.23281         5.59241
     2009.76317         3.73075         5.58672
     2009.76591        -0.68630         5.57440
     2009.76865         4.21064         5.68440
     2009.77138         0.90958         5.54500
     2009.77412         5.65753         5.55069
     2009.77686         2.62247         5.58198
     2009.77960         8.01942         5.61138
     2009.78234         6.70236         5.69673
     2009.78507        10.16430         5.65311
     2009.78781         3.48425         5.73751
     2009.79055         3.01919         5.68061
     2009.79329        -1.27386         5.77260
     2009.79603        -2.32992         5.78114
     2009.79876         4.20703         5.79252
     2009.80150        -2.76103         5.73467
     2009.80424         3.37391         5.73087
     2009.80698         3.52586         5.70242
     2009.80971         0.06180         5.79915
     2009.81245        10.34775         5.79631
     2009.81519         6.79469         5.73751
     2009.81793         6.68763         5.80390
     2009.82067         9.24758         5.66164
     2009.82340         6.52152         5.73372
     2009.82614         2.35847         5.71475
     2009.82888        -2.16859         5.76407
     2009.83162         7.92135         5.73846
     2009.83436         1.43430         5.72234
     2009.83709         1.31224         5.73846
     2009.83983         5.14119         5.79157
     2009.84257         2.97913         5.80579
     2009.84531         2.69107         5.89589
     2009.84804         6.45702         5.90063
     2009.85078         5.14496         5.82760
     2009.85352         4.20591         5.77260
     2009.85626         3.04985         5.87502
     2009.85900        -0.22621         5.95184
     2009.86173         0.29574         5.83424
     2009.86447         5.73968         6.13108
     2009.86721         0.64863         5.94899
     2009.86995         7.25457         5.81717
     2009.87269        -0.23249         5.81907
     2009.87542         2.76946         5.80010
     2009.87816         6.91640         5.99167
     2009.88090         4.31735         5.96322
     2009.88364         4.95929         5.77829
     2009.88637         7.34723         5.82571
     2009.88911        10.78518         5.71191
     2009.89185         3.61312         5.78303
     2009.89459         4.73107         5.76976
     2009.89733        -4.39099         5.71570
     2009.90006         0.30296         5.69009
     2009.90280         0.88590         5.70906
     2009.90554         3.17584         5.82002
     2009.90828         3.78079         5.70337
     2009.91102        -2.34627         5.64837
     2009.91375         1.71468         5.61233
     2009.91649         3.46362         5.64932
     2009.91923        -1.98044         5.61233
     2009.92197        -2.84049         5.58103
     2009.92470        -1.50255         5.58009
     2009.92744        -2.06860         5.64268
     2009.93018         2.61134         5.60095
     2009.93292         3.26028         5.65311
     2009.93566        -0.56077         5.60379
     2009.93839         0.90617         5.72992
     2009.94113         2.07912         5.60664
     2009.94387         0.62806         5.75553
     2009.94661         0.89100         5.86080
     2009.94935         1.59795         5.61802
     2009.95208        -4.69011         5.61802
     2009.95482        -9.90616         5.68725
     2009.95756        -1.76622         5.68061
     2009.96030        -7.29628         5.65785
     2009.96303       -12.25433         5.75269
     2009.96577        -3.22039         5.65690
     2009.96851        -8.15044         5.83614
     2009.97125        -2.79650         5.66733
     2009.97399        -2.78356         5.68061
     2009.97672        -8.86361         5.57534
     2009.97946        -5.36467         5.58103
     2009.98220        -7.22672         5.54595
     2009.98494        -3.06078         5.51939
     2009.98767        -4.27784         5.50327
     2009.99041        -5.03389         5.50991
     2009.99315        -4.46295         5.46534
     2009.99589        -0.86600         5.58198
     2009.99863       -11.24206         5.57629
     2010.00410        -8.34917         5.61423
     2010.00684       -14.57423         5.57724
     2010.00958        -4.96028         5.51275
     2010.01232        -9.73634         5.63414
     2010.01505       -11.75439         5.59621
     2010.01779        -7.23945         5.53551
     2010.02053        -8.86551         5.65216
     2010.02327        -6.13956         5.62845
     2010.02600       -10.05262         5.57155
     2010.02874         0.97333         5.58103
     2010.03148         9.04127         5.67966
     2010.03422        -8.10579         5.69768
     2010.03696        -6.62484         5.85985
     2010.03969        -1.98390         5.61992
     2010.04243        -0.43295         5.52034
     2010.04517         6.59899         5.51939
     2010.04791        14.28193         5.57534
     2010.05065         9.13688         5.71475
     2010.05338        10.10882         5.81433
     2010.05612        12.88677         5.70432
     2010.05886         6.71171         5.62371
     2010.06160         4.30565         5.60000
     2010.06433         6.00560         5.65785
     2010.06707         8.73554         5.81243
     2010.06981        16.27149         6.04667
     2010.07255        -4.28457         5.80010
     2010.07529        -9.30463         5.74700
     2010.07802        -5.91368         5.75363
     2010.08076        -5.57374         5.52603
     2010.08350        -4.01579         5.56207
     2010.08624        -0.78085         5.59621
     2010.08898         5.20609         5.82097
     2010.09171         0.46004         5.61707
     2010.09445         2.12298         5.81433
     2010.09719        -2.74107         5.70337
     2010.09993        -9.72613         5.71191
     2010.10266        -1.31419         5.60000
     2010.10540         2.05876         5.75174
     2010.10814        -0.29930         5.80959
     2010.11088        -3.85135         5.72518
     2010.11362         2.80059         5.64268
     2010.11635        -2.05446         5.81622
     2010.11909        -1.18652         5.71854
     2010.12183        -3.26458         5.62655
     2010.12457        -2.08263         5.60000
     2010.12731        -6.74969         5.88830
     2010.13004       -10.13474         5.74130
     2010.13278        -9.48880         5.75553
     2010.13552        -4.39386         5.81338
     2010.13826        -4.10091         5.58388
     2010.14099        -7.57697         5.56965
     2010.14373       -12.11102         5.77545
     2010.14647        -7.12708         5.83614
     2010.14921        -6.86314         5.78208
     2010.15195       -11.54019         5.63224
     2010.15468        -7.22625         5.60569
     2010.15742        -6.36030         5.67018
     2010.16016        -6.95436         5.62845
     2010.16290        -3.06942         5.61897
     2010.16564        -5.68747         5.71096
     2010.16837        -6.34853         5.63983
     2010.17111        -5.57158         5.52887
     2010.17385        -3.14964         5.67018
     2010.17659        -0.65170         5.52034
     2010.17932        -0.12675         5.52508
     2010.18206        -4.02581         5.62655
     2010.18480        -2.05186         5.52982
     2010.18754        -3.50492         5.56017
     2010.19028        -6.01898         5.52224
     2010.19301        -0.81803         5.55448
     2010.19575        -5.39109         5.55069
     2010.19849        -7.48214         5.60948
     2010.20123       -15.33920         5.56207
     2010.20397        -7.23726         5.69484
     2010.20670        -5.44431         5.70242
     2010.20944        -6.07137         5.56017
     2010.21218        -5.60442         5.54879
     2010.21492        -6.98848         5.56871
     2010.21765        -8.01953         5.64457
     2010.22039        -4.32559         5.52982
     2010.22313       -13.73765         5.54025
     2010.22587        -5.04270         5.73467
     2010.22861        -1.57076         5.70432
     2010.23134        -8.02681         5.67966
     2010.23408        -8.66487         5.70716
     2010.23956        -5.53298         5.79252
     2010.24230       -13.13004         6.03909
     2010.24503         1.22291         5.82666
     2010.24777        -2.19815         5.79821
     2010.25051        -5.37421         6.03434
     2010.25325        -0.08726         5.87787
     2010.25598        -3.01332         5.94330
     2010.25872        -0.04037         5.78588
     2010.26146       -10.97143         5.80769
     2010.26420        -4.24249         5.83424
     2010.26694        -3.04154         5.76501
     2010.26967        -1.57460         5.84847
     2010.27241        -4.01065         5.87123
     2010.27515        -6.49371         5.77829
     2010.27789        -6.55077         5.71665
     2010.28062        -5.11982         5.53551
     2010.28336        -9.88888         5.80959
     2010.28610       -10.39193         5.72708
     2010.28884        -0.58699         5.53931
     2010.29158        -3.65105         5.55353
     2010.29431        -2.42110         5.58957
     2010.29705        -3.78016         5.79062
     2010.29979        -4.90021         5.72708
     2010.30253         1.26473         5.65026
     2010.30527         0.77267         5.71096
     2010.30800        -1.30038         5.54879
     2010.31074        -9.40544         5.55258
     2010.31348        -5.08749         5.57250
     2010.31622        -3.52255         5.57724
     2010.31895        -4.58660         5.90727
     2010.32169        -5.21766         5.62181
     2010.32443        -6.83972         5.55922
     2010.32717        -0.96177         5.52508
     2010.32991        -8.08883         5.65311
     2010.33264        -7.98088         5.49094
     2010.33538        -7.02694         5.77355
     2010.33812        -2.83700         5.63699
     2010.34086       -10.86305         5.58103
     2010.34360        -3.57411         5.57155
     2010.34633        -4.03116         5.67682
     2010.34907        -6.80722         5.51465
     2010.35181        -7.32328         5.56112
     2010.35455        -5.02533         5.53646
     2010.35728        -1.93339         5.49948
     2010.36002        -4.73744         5.64552
     2010.36276        -2.68650         5.50232
     2010.36550        -8.28956         5.74130
     2010.36824        -7.26661         5.70811
     2010.37097        -3.45967         5.56302
     2010.37371        -2.94972         5.54689
     2010.37645        -1.22878         5.49568
     2010.37919        -2.82084         5.80105
     2010.38193        -1.69689         5.78588
     2010.38466        -3.59895         5.54025
     2010.38740         2.80800         5.49473
     2010.39014        -4.67906         5.55448
     2010.39288        -5.16112         5.60190
     2010.39561       -13.94417         5.55638
     2010.39835        -7.23223         5.54595
     2010.40109        -7.42128         5.53646
     2010.40383        -8.69034         5.54784
     2010.40657         5.51160         5.50137
     2010.40930        -4.42945         5.53931
     2010.41204        -5.33051         5.57914
     2010.41478        -0.00756         5.50232
     2010.41752         5.38538         5.59147
     2010.42026        -7.13668         5.43688
     2010.42299        -2.06973         5.49758
     2010.42573        -6.79979         5.46059
     2010.42847        -7.56584         5.45396
     2010.43121        -5.74090         5.43499
     2010.43394        -5.99995         5.38567
     2010.43668        -5.96401         5.49094
     2010.43942        -3.52007         5.41507
     2010.44216        -0.27712         5.40938
     2010.44490         1.77382         5.47861
     2010.44763        -5.21223         5.41128
     2010.45037        -0.85729         5.41412
     2010.45311        -0.17735         5.48241
     2010.45585        -0.13940         5.43594
     2010.45859        -6.04546         5.47766
     2010.46132         1.56949         5.48715
     2010.46406        -3.51757         5.39042
     2010.46680        -4.49363         5.44827
     2010.46954         0.92332         5.43404
     2010.47227        -3.12774         5.39611
     2010.47501         2.94221         5.47482
     2010.47775        -6.95785         5.55448
     2010.48049        -2.94091         5.59147
     2010.48323        -1.66996         5.47861
     2010.48596        -0.34702         5.39326
     2010.48870         3.15593         5.39042
     2010.49144        -1.87113         5.39231
     2010.49418         1.93681         5.35248
     2010.49692         0.17676         5.40938
     2010.49965        -0.88730         5.41412
     2010.50239         2.75365         5.36766
     2010.50513        -1.94641         5.37240
     2010.50787        -1.20047         5.37429
     2010.51060        -1.67352         5.43594
     2010.51334        -0.05258         5.47766
     2010.51608         0.29137         5.54879
     2010.51882         8.59931         5.44068
     2010.52156         4.51925         5.45775
     2010.52429         6.63720         5.47197
     2010.52703         3.25214         5.42645
     2010.52977         3.57809         5.40749
     2010.53251         0.77403         5.39895
     2010.53525        -1.15802         5.45490
     2010.53798        -1.69708         5.45396
     2010.54072        -1.03714         5.43688
     2010.54346        -5.81019         5.43119
     2010.54620         0.99675         5.37524
     2010.54893        -3.48330         5.45680
     2010.55167        -2.38736         5.41223
     2010.55441         3.73558         5.41602
     2010.55715         2.41953         5.42076
     2010.55989         1.03047         5.40843
     2010.56262        -0.50358         5.42171
     2010.56536        -3.84864         5.43214
     2010.56810         0.18730         5.48335
     2010.57084        -4.65275         5.38283
     2010.57357        -3.50581         5.51655
     2010.57631        -0.90386         5.56017
     2010.57905        -1.64892         5.39990
     2010.58179        -1.45898         5.45965
     2010.58453        -5.47503         5.39705
     2010.58726        -1.39809         5.46344
     2010.59000        -0.47214         5.48525
     2010.59274         8.09580         5.50611
     2010.59548         1.47474         5.37998
     2010.59822         5.16469         5.42456
     2010.60095        -1.01037         5.36291
     2010.60369         0.86158         5.44352
     2010.60643        -1.65148         5.41887
     2010.60917        -2.23154         5.38852
     2010.61190        -0.25459         5.38283
     2010.61464         3.62035         5.41602
     2010.61738        -3.10370         5.36671
     2010.62012        -1.42976         5.43878
     2010.62286        -3.25782         5.38757
     2010.62559         2.75213         5.38093
     2010.62833        -1.99393         5.40843
     2010.63107        -1.20698         5.57724
     2010.63381         4.32696         5.30412
     2010.63655         3.05291         5.33541
     2010.63928        -2.20415         5.32593
     2010.64202        -2.93621         5.27092
     2010.64476        -2.74026         5.33636
     2010.64750         2.43268         5.36386
     2010.65023         3.89363         5.42835
     2010.65297        -0.14043         5.50706
     2010.65571        -1.91049         5.25385
     2010.65845         0.90446         5.18652
     2010.66119         2.33240         5.37904
     2010.66392         7.98435         5.37524
     2010.66666         0.96829         5.23773
     2010.66940         2.74423         5.21592
     2010.67214         1.31818         5.27282
     2010.67488         4.39112         5.25480
     2010.67761         8.83907         5.28325
     2010.68035         2.51601         5.23109
     2010.68309         3.39095         5.27377
     2010.68583         2.12890         5.29748
     2010.68856        -3.46416         5.27851
     2010.69130         0.38679         5.28230
     2010.69404         4.35573         5.39421
     2010.69678        -5.09233         5.31644
     2010.69952         1.76262         5.28325
     2010.70225         0.92156         5.26903
     2010.70499         4.54651         5.28894
     2010.70773         4.25545         5.28230
     2010.71047         6.74139         5.33541
     2010.71321        -1.89466         5.27946
     2010.71594        12.08328         5.41223
     2010.71868         2.52923         5.25575
     2010.72142         7.07417         5.39326
     2010.72416         3.98711         5.40559
     2010.72689        -2.45694         5.35722
     2010.72963         2.40700         5.21592
     2010.73237         3.77695         5.24722
