# ================= DQRFIT RESULTS ================
# INPUT FILE: series/P815.rad
# OUTPUT: LDETRENDED
# FILTER FUNCTION: f(t)
# f(t)=+line(t)+annual(t)
# line(t)=+P 1+P 2*t
# annual(t)=+P 3*sin(2*pi*t+P 4)
# heav(t)=(t<0?0:1)
# TOTAL OBSERVATIONS MTOT= 2991
# INITIAL TIME INTERVAL= 2022.7488 - 2013.6838 =  9.0650
# TOTAL OBSERVATIONS AFTER PREFILTER M= 2987
# TIME-SPAN= 2022.7488 - 2013.6838 =  9.0650
# OBSERVATIONS: USED M=  2987 REJECTED MTOT-M=     4 %USED=   99.8663
# N=  4 PARAMETERS
# MAXSIG= 175.00000
# MAXRES=  41.95649
# SCALE FACTOR FOR LENGTHS: SCL=  10.00000
# SCALE FACTOR FOR SIGMAS: SCLSIG=   1.00000
# CHI^2=   2069.157 DOF=  2983 CHI^2/DOF=   0.69365
# RMS=      5.027 SDEV=      5.028 MEAN=   -0.03552
#  P #       PARAMETER +-    SIGMA %error PARAMETER NAME
# P 1 =     -2080.14556 +-   65.869   3.17 YZERO                              
# P 2 =         1.03338 +-    0.033   3.16 SLOPE                              
# P 3 =         4.15480 +-    0.118   2.85 ANNUAL AMPLITUDE                   
# P 4 =        -2.59904 +-    0.034   1.32 ANNUAL PHASE                       
#       T            LDETRENDED       SIG_OBS
     2013.68377        11.73079         4.49992
     2013.68651         3.42196         4.52991
     2013.68925        -2.82686         4.53990
     2013.69199         7.77831         4.49826
     2013.69472         9.85848         4.50492
     2013.69746         5.64865         4.46411
     2013.70020         3.32482         4.48910
     2013.70294         4.30299         4.47993
     2013.70568         7.42616         4.59737
     2013.70841         5.79333         4.51491
     2013.71115         3.26650         4.51575
     2013.71389         6.53367         4.49992
     2013.71663         5.32784         4.52991
     2013.71937        12.12101         4.58154
     2013.72210        12.29218         4.53324
     2013.72484         9.09936         4.75394
     2013.72758         8.25653         4.57988
     2013.73032        10.59570         4.58071
     2013.73305         5.63087         4.46827
     2013.73579         0.77404         4.48327
     2013.73853         4.75821         4.52324
     2013.74127         4.37838         4.49992
     2013.74401        10.76955         4.67899
     2013.74674         7.37372         4.70231
     2013.74948         5.50189         4.60653
     2013.75222        -3.22294         4.51075
     2013.75496        -4.43877         4.50076
     2013.75770        -5.82960         4.47577
     2013.76043         2.00758         4.48410
     2013.76317        -0.68725         4.53990
     2013.76591        -0.36308         4.66066
     2013.76865        -3.34591         4.50742
     2013.77138        -2.14774         4.50159
     2013.77412         2.35543         4.59570
     2013.77686         3.17660         4.50992
     2013.77960         2.98677         4.52657
     2013.78234        -7.73006         4.52324
     2013.78507        -7.51189         4.49826
     2013.78781        -4.87972         4.48410
     2013.79055        -3.68855         4.53074
     2013.79329         0.03662         4.48493
     2013.79603         2.81880         4.51991
     2013.79876        -0.80203         4.47744
     2013.80150         4.48614         4.53407
     2013.80424         5.25531         4.55073
     2013.80698         2.64848         4.47077
     2013.80971         4.14365         4.50992
     2013.81245         4.50682         4.48327
     2013.81519        -0.28001         4.47660
     2013.81793        -6.53284         4.47827
     2013.82067         5.38933         4.67316
     2013.82340         3.87350         4.53407
     2013.82614         8.07467         4.60736
     2013.82888         4.51284         4.54823
     2013.83162         4.30602         4.54573
     2013.83436         0.34819         4.59487
     2013.83709         8.42536         4.72063
     2013.83983         1.28053         4.56489
     2013.84257        -0.79330         4.53740
     2013.84531        -0.40913         4.52991
     2013.84804        -2.66996         4.46244
     2013.85078         0.20721         4.52991
     2013.85352         5.43538         4.51491
     2013.85626        -4.54145         4.57238
     2013.85900        -3.20828         4.45412
     2013.86173        -1.73211         4.49909
     2013.86447        -1.38494         4.62319
     2013.86721        -2.57276         4.52491
     2013.86995         0.67841         4.54157
     2013.87269         1.36258         4.54240
     2013.87542         3.04975         4.54740
     2013.87816         7.77892         4.51658
     2013.88090         3.79009         4.56905
     2013.88364         3.76726         4.69648
     2013.88637         4.95543         4.50242
     2013.88911        -1.30440         4.46994
     2013.89185        -6.90323         4.44829
     2013.89459        -1.04806         4.52574
     2013.89733         2.04011         4.53240
     2013.90006        -4.84372         4.59570
     2013.90280         0.37946         4.60320
     2013.90554        -5.11437         4.52408
     2013.90828        -1.39820         4.52574
     2013.91102        -5.30903         4.55156
     2013.91375        -4.18886         4.53074
     2013.91649        -0.42869         4.51908
     2013.91923         5.06348         4.59737
     2013.92197        -0.48935         4.53407
     2013.92470         1.21282         4.48826
     2013.92744         1.60999         4.55739
     2013.93018        -0.29784         4.48493
     2013.93292        -4.94067         4.44745
     2013.93566         2.88250         4.44495
     2013.93839         0.39268         4.45661
     2013.94113        -2.41415         4.46244
     2013.94387        -2.18798         4.51908
     2013.94661         0.96519         4.57072
     2013.94935        -1.83264         4.44829
     2013.95208         0.63353         4.55323
     2013.95482        -1.28830         4.46994
     2013.95756        -0.56113         4.48160
     2013.96030        -1.45796         4.54490
     2013.96303        -4.66879         4.47577
     2013.96577         1.23338         4.46328
     2013.96851         1.76155         4.52574
     2013.97125         4.38272         4.50159
     2013.97399         3.17690         4.59237
     2013.97672        -8.94593         4.57238
     2013.97946        -2.98376         4.46078
     2013.98220        -0.73659         4.57321
     2013.98494        -1.90042         4.48993
     2013.98767       -10.95325         4.51158
     2013.99041        -9.29808         4.50825
     2013.99315       -10.88291         4.48660
     2013.99589        -3.48574         4.51491
     2013.99863        -5.97157         4.52907
     2014.00410        -1.79223         4.50325
     2014.00684        -2.82906         4.59903
     2014.00958        -3.45688         4.45745
     2014.01232        -6.48371         4.56572
     2014.01505        -0.07254         4.65900
     2014.01779         0.18663         4.64151
     2014.02053         0.00680         4.49159
     2014.02327        -3.53403         4.67399
     2014.02600         1.63714         4.60903
     2014.02874         6.23731         4.53657
     2014.03148         0.38748         4.50742
     2014.03422        -2.84035         4.50409
     2014.03696        -2.42018         4.48077
     2014.03969        -2.99901         4.47161
     2014.04243         0.73016         4.62652
     2014.04517         2.37834         4.64651
     2014.04791         1.09251         4.54240
     2014.05065        -3.06532         4.47577
     2014.05338        -2.35315         4.46161
     2014.05612        -4.11098         4.52074
     2014.05886         0.30419         4.52574
     2014.06160         2.74936         4.50575
     2014.06433        -3.43747         4.64234
     2014.06707         1.72370         4.62485
     2014.06981         3.73187         4.54823
     2014.07255        -2.40496         4.49909
     2014.07529         6.64421         4.55822
     2014.07802        -0.75562         4.60153
     2014.08076         1.80456         4.50159
     2014.08350         1.53573         4.46911
     2014.08624        -5.07210         4.51575
     2014.08898        -3.69593         4.66899
     2014.09171        -0.85676         4.67482
     2014.09445        -0.63559         4.50575
     2014.09719        -0.67042         4.55572
     2014.09993         5.99475         4.46494
     2014.10266         4.42592         4.59487
     2014.10540         6.07709         4.47077
     2014.10814         2.93026         4.52574
     2014.11088         7.66443         4.72563
     2014.11362         7.45060         4.54989
     2014.11635         4.74178         4.48660
     2014.11909        -0.69905         4.49826
     2014.12183         2.87412         4.61652
     2014.12457        -0.29571         4.49992
     2014.12731         6.75046         4.50159
     2014.13004         1.86363         4.52991
     2014.13278         5.48880         4.67899
     2014.13552         5.96797         4.66899
     2014.13826         2.55914         4.56572
     2014.14099         1.63331         4.47410
     2014.14373         2.01548         4.48660
     2014.14647        -0.03135         4.52158
     2014.14921         0.61282         4.53407
     2014.15195        -1.51400         4.53740
     2014.15468         3.03917         4.60570
     2014.15742         3.30134         4.53240
     2014.16016         3.75751         4.67649
     2014.16290        -2.19632         4.56572
     2014.16564        -3.68215         4.52991
     2014.16837        -4.65198         4.64900
     2014.17111         0.06819         4.66649
     2014.17385        -0.42064         4.74895
     2014.17659         1.77453         4.59070
     2014.17932         4.69470         4.79142
     2014.18206        -0.95313         4.67649
     2014.18480         0.76504         4.50992
     2014.18754        -1.73778         4.51741
     2014.19028        -3.33561         4.55489
     2014.19301        -1.86744         4.52491
     2014.19575         2.29273         4.56738
     2014.19849        -2.54010         4.65317
     2014.20123        -3.54993         4.66816
     2014.20397        -4.34476         4.56905
     2014.20670        -7.13659         4.55739
     2014.20944        -0.07142         4.53740
     2014.21218        -3.82125         4.56489
     2014.21492         3.70392         4.71230
     2014.21765         1.02209         4.54490
     2014.22039        -0.50474         4.53907
     2014.22313         0.46444         4.50908
     2014.22587         3.66661         4.54490
     2014.22861         3.57778         4.61153
     2014.23134         7.60995         4.53157
     2014.23408         3.43412         4.50742
     2014.23682         5.21429         4.52074
     2014.23956        -5.27754         4.65234
     2014.24230        -3.65237         4.55822
     2014.24503        -3.57920         4.54240
     2014.24777         2.90597         4.69231
     2014.25051        -4.75486         4.52907
     2014.25325        -4.58269         4.57238
     2014.25598        -2.96952         4.63901
     2014.25872        -3.10634         4.52324
     2014.26146         2.04383         4.65900
     2014.26420        -1.61100         4.52324
     2014.26694        -5.25883         4.63318
     2014.26967        -3.43966         4.52741
     2014.27241        -7.46049         4.60736
     2014.27515        -3.40432         4.62652
     2014.27789        -2.06115         4.56489
     2014.28062        -5.37298         4.52491
     2014.28336        -4.70281         4.51741
     2014.28610        -0.70164         4.66066
     2014.28884        -6.46347         4.74978
     2014.29158        -6.87030         4.51408
     2014.29431        -2.78112         4.59903
     2014.29705         1.95405         4.65817
     2014.29979        -4.68578         4.57405
     2014.30253        -7.54161         4.53157
     2014.30527        -4.44744         4.57072
     2014.30800        -2.76827         4.58904
     2014.31074        -0.15510         4.59404
     2014.31348         2.81907         4.59070
     2014.31622         0.37824         4.51158
     2014.31895        -4.55959         4.53990
     2014.32169        -4.99342         4.61902
     2014.32443        -9.49125         4.61069
     2014.32717        -9.62908         4.68065
     2014.32991        -3.42290         4.53657
     2014.33264         0.30627         4.59070
     2014.33538        -4.47856         4.54073
     2014.33812        -2.68139         4.60653
     2014.34086        -1.16622         4.52907
     2014.34360        -2.38905         4.53240
     2014.34633        -8.75088         4.51908
     2014.34907        -5.94571         4.71730
     2014.35181        -2.77354         4.67482
     2014.35455        -1.70037         4.52741
     2014.35728        -4.75020         4.53907
     2014.36002        -6.72803         4.57488
     2014.36276        -5.24986         4.55906
     2014.36550        -2.27168         4.54823
     2014.36824        -4.73251         4.58404
     2014.37097         0.17166         4.58737
     2014.37371        -3.20217         4.52491
     2014.37645        -0.81400         4.53574
     2014.37919        -3.17583         4.52824
     2014.38193        -5.68866         4.56905
     2014.38466         0.42051         4.59570
     2014.38740        -2.13332         4.55073
     2014.39014        -2.80615         4.62235
     2014.39288        -2.10698         4.56738
     2014.39561         0.79119         4.57655
     2014.39835         0.52336         4.59070
     2014.40109        -3.42246         4.57571
     2014.40383        -5.16029         4.57821
     2014.40657        -3.35312         4.56655
     2014.40930        -1.36995         4.59320
     2014.41204        -2.74978         4.51408
     2014.41478        -1.59161         4.51158
     2014.41752         1.91756         4.48493
     2014.42026         1.46073         4.53407
     2014.42299        -1.17110         4.55489
     2014.42573        -2.28493         4.53074
     2014.42847         1.84624         4.51658
     2014.43121        -3.07459         4.47244
     2014.43394        -1.44942         4.53990
     2014.43668         4.08976         4.50659
     2014.43942         0.39893         4.52241
     2014.44216        -4.88990         4.52991
     2014.44490        -1.07473         4.64068
     2014.44763         1.40944         4.61402
     2014.45037        -5.66039         4.51408
     2014.45311        -0.46022         4.56155
     2014.45585         2.05895         4.50742
     2014.45859        -5.48488         4.49159
     2014.46132        -0.42571         4.53157
     2014.46406        -0.50454         4.48826
     2014.46680        -0.21637         4.61402
     2014.46954        -3.16420         4.52074
     2014.47227         1.93498         4.55989
     2014.47501         0.12515         4.53324
     2014.47775         1.04332         4.49409
     2014.48049        -4.12451         4.51741
     2014.48323         2.07966         4.57738
     2014.48596         7.92583         4.64984
     2014.48870         1.24500         4.64984
     2014.49144        -0.89383         4.42413
     2014.49418        -2.19966         4.42163
     2014.49692        -0.66249         4.50575
     2014.49965         1.72868         4.56489
     2014.50239        -1.61915         4.51658
     2014.50513        -1.75998         4.49409
     2014.50787         4.35220         4.56072
     2014.51060        -5.29363         4.50825
     2014.51334         3.59854         4.44162
     2014.51608         6.60471         4.42913
     2014.51882         2.72588         4.45162
     2014.52156         5.58905         4.51242
     2014.52429         1.70822         4.47244
     2014.52703         7.45139         4.48410
     2014.52977         1.76156         4.45162
     2014.53251        -2.90727         4.51158
     2014.53525         0.19690         4.45162
     2014.53798        10.61007         4.47660
     2014.54072         6.03124         4.60986
     2014.54346         4.53642         4.49409
     2014.54620         2.06059         4.53324
     2014.54893         4.52876         4.46161
     2014.55167         5.32393         4.46661
     2014.55441         5.76110         4.48993
     2014.55715         5.89327         4.58987
     2014.55989         3.60544         4.49909
     2014.56262         3.64861         4.45911
     2014.56536        -2.71922         4.44579
     2014.56810        -0.32605         4.51325
     2014.57084        -1.83488         4.44162
     2014.57357        -1.74271         4.43663
     2014.57631         2.38546         4.43829
     2014.57905         0.46164         4.43579
     2014.58179         0.11981         4.52324
     2014.58453         0.46798         4.58821
     2014.58726        -1.03585         4.65483
     2014.59000         2.14332         4.53407
     2014.59274         5.00049         4.54906
     2014.59548         8.65766         4.59320
     2014.59822         3.49083         4.62402
     2014.60095         6.81200         4.58904
     2014.60369         1.41117         4.55489
     2014.60643         0.09134         4.57655
     2014.60917         6.20751         4.60320
     2014.61190         6.86968         4.69648
     2014.61464         4.04786         4.54573
     2014.61738        -3.36197         4.73645
     2014.62012         2.40420         4.75061
     2014.62286         0.24237         4.54989
     2014.62559         3.90354         4.55489
     2014.62833         6.31171         4.57155
     2014.63107         8.54388         4.60486
     2014.63381        12.26005         4.71064
     2014.63655         6.85322         4.57988
     2014.63928         0.67839         4.53157
     2014.64202         1.34856         4.49826
     2014.64476        -0.88327         4.56155
     2014.64750         2.18190         4.54906
     2014.65023         0.99608         4.56738
     2014.65297         1.15725         4.57655
     2014.65571         9.20042         4.55073
     2014.65845         5.69859         4.54406
     2014.66119         4.70076         4.53574
     2014.66392        10.83393         4.55323
     2014.66666        11.68410         4.55572
     2014.66940         5.58527         4.60570
     2014.67214         9.70744         4.51408
     2014.67488         0.03961         4.49493
     2014.67761         2.29178         4.55989
     2014.68035         8.15895         4.58154
     2014.68309        -1.24688         4.53490
     2014.68583         4.19330         4.54989
     2014.68856         5.00047         4.51658
     2014.69130         3.06364         4.51741
     2014.69404         4.37481         4.55739
     2014.69678         3.06898         4.57488
     2014.69952         4.60515         4.51658
     2014.70225         5.75632         4.50908
     2014.70499         1.89149         4.47660
     2014.70773         7.24966         4.59070
     2014.71047         8.83883         4.59570
     2014.71321         6.40200         4.47993
     2014.71594        -1.41283         4.55822
     2014.71868         6.02934         4.48910
     2014.72142         2.55552         4.52491
     2014.72416         3.73269         4.55572
     2014.72689         9.63686         4.67649
     2014.72963        16.77403         4.53823
     2014.73237         8.52320         4.59737
     2014.73511         6.94637         4.54573
     2014.73785        -1.06246         4.55239
     2014.74058         0.80371         4.55073
     2014.74332         7.06488         4.66649
     2014.74606         4.44805         4.51575
     2014.74880         2.83022         4.51242
     2014.75154         2.64939         4.64651
     2014.75427         2.52456         4.55406
     2014.75701         2.82674         4.70730
