# ================= DQRFIT RESULTS ================
# INPUT FILE: series/P816.rad
# OUTPUT: LDETRENDED
# FILTER FUNCTION: f(t)
# f(t)=+line(t)+annual(t)
# line(t)=+P 1+P 2*t
# annual(t)=+P 3*sin(2*pi*t+P 4)
# heav(t)=(t<0?0:1)
# TOTAL OBSERVATIONS MTOT= 3088
# INITIAL TIME INTERVAL= 2022.7488 - 2013.6838 =  9.0650
# TOTAL OBSERVATIONS AFTER PREFILTER M= 3084
# TIME-SPAN= 2022.7488 - 2013.6838 =  9.0650
# OBSERVATIONS: USED M=  3084 REJECTED MTOT-M=     4 %USED=   99.8705
# N=  4 PARAMETERS
# MAXSIG= 175.00000
# MAXRES=  28.79854
# SCALE FACTOR FOR LENGTHS: SCL=  10.00000
# SCALE FACTOR FOR SIGMAS: SCLSIG=   1.00000
# CHI^2=   2038.939 DOF=  3080 CHI^2/DOF=   0.66199
# RMS=      4.406 SDEV=      4.406 MEAN=    0.03428
#  P #       PARAMETER +-    SIGMA %error PARAMETER NAME
# P 1 =     -2423.90656 +-   63.629   2.63 YZERO                              
# P 2 =         1.20411 +-    0.032   2.62 SLOPE                              
# P 3 =         4.21635 +-    0.111   2.62 ANNUAL AMPLITUDE                   
# P 4 =        -2.64855 +-    0.033   1.23 ANNUAL PHASE                       
#       T            LDETRENDED       SIG_OBS
     2013.68377        14.09974         4.37326
     2013.68596         7.37011         5.45295
     2014.08193        11.96832        13.79021
     2014.08350        -1.77757         4.34804
     2014.08624        -4.83387         4.40336
     2014.08898        -0.70517         4.53436
     2014.09171        -3.35346         4.54656
     2014.09445        -0.06576         4.38384
     2014.09719         0.92794         4.44079
     2014.09993         5.61965         4.34397
     2014.10266         3.53635         4.45706
     2014.10540         7.64405         4.34478
     2014.10814         3.18476         4.38384
     2014.11088         0.70646         4.59131
     2014.11362         3.89616         4.41557
     2014.11635         3.45587         4.36756
     2014.11909        -2.77743         4.37082
     2014.12183         0.92527         4.47171
     2014.12457        -4.03502         4.37733
     2014.12731         4.79668         4.38953
     2014.13004        -0.00262         4.39116
     2014.13278         0.02509         4.54738
     2014.13552         1.85979         4.51646
     2014.13826         0.69749         4.45055
     2014.14099         0.28220         4.35455
     2014.14373         0.08390         4.38709
     2014.14647        -6.04040         4.39360
     2014.14921        -7.72069         4.40011
     2014.15195        -6.93599         4.42126
     2014.15468         2.44971         4.46927
     2014.15742         0.52542         4.42126
     2014.16016         2.78812         4.53029
     2014.16290        -3.48218         4.44974
     2014.16564        -8.58047         4.41231
     2014.16837        -9.83677         4.52459
     2014.17111        -5.18007         4.53598
     2014.17385        -5.79536         4.61735
     2014.17659        -0.62366         4.45950
     2014.17932        -2.08596         4.65396
     2014.18206        -3.78125         4.52134
     2014.18480        -3.88155         4.39604
     2014.18754        -3.63985         4.38628
     2014.19028        -8.87514         4.39523
     2014.19301        -4.47144         4.40580
     2014.19575        -0.28174         4.43184
     2014.19849        -5.36703         4.53273
     2014.20123        -4.15033         4.52215
     2014.20397        -9.79763         4.43021
     2014.20670        -9.30592         4.42696
     2014.20944        -4.63022         4.41475
     2014.21218        -4.94052         4.43103
     2014.21492         1.44219         4.55795
     2014.21765         1.00489         4.41638
     2014.22039        -2.33241         4.40580
     2014.22313        -3.84670         4.37977
     2014.22587         1.37600         4.40499
     2014.22861         2.19570         4.48879
     2014.23134         6.53441         4.38140
     2014.23408         2.74311         4.38384
     2014.23682         1.74581         4.41882
     2014.23956        -6.38548         4.50669
     2014.24230        -7.11078         4.41801
     2014.24503        -6.76408         4.41069
     2014.24777         2.68863         4.57585
     2014.25051        -7.71367         4.39523
     2014.25325        -7.13297         4.42289
     2014.25598        -3.88326         4.53029
     2014.25872        -4.34756         4.40174
     2014.26146         1.84614         4.52785
     2014.26420        -3.89715         4.40011
     2014.26694        -3.34645         4.48229
     2014.26967        -2.42875         4.39848
     2014.27241        -5.31504         4.47903
     2014.27515        -3.37934         4.50751
     2014.27789        -1.67764         4.42696
     2014.28062        -2.43693         4.41719
     2014.28336        -4.66023         4.38628
     2014.28610        -1.07753         4.52297
     2014.28884        -5.78182         4.60514
     2014.29158       -10.95512         4.39767
     2014.29431        -3.13442         4.43591
     2014.29705         2.39929         4.53598
     2014.29979        -6.77601         4.44079
     2014.30253        -6.91231         4.41557
     2014.30527        -5.79560         4.42208
     2014.30800        -4.38790         4.46764
     2014.31074        -3.64120         4.44649
     2014.31348        -1.12649         4.45462
     2014.31622        -3.08279         4.38953
     2014.31895        -6.61409         4.42045
     2014.32169        -7.46038         4.47903
     2014.32443        -9.97968         4.47008
     2014.32717        -8.27698         4.53517
     2014.32991        -2.65927         4.42208
     2014.33264        -1.29757         4.43754
     2014.33538        -9.43787         4.40825
     2014.33812        -3.58916         4.47252
     2014.34086        -3.82846         4.39523
     2014.34360        -3.07776         4.42777
     2014.34633        -6.08505         4.37895
     2014.34907        -7.11435         4.56446
     2014.35181        -1.99765         4.54412
     2014.35455        -5.15494         4.39848
     2014.35728        -7.65324         4.41394
     2014.36002        -7.85654         4.42859
     2014.36276        -3.25483         4.41801
     2014.36550        -2.43113         4.40987
     2014.36824        -4.36643         4.46276
     2014.37097        -0.00972         4.43591
     2014.37371        -2.33502         4.39930
     2014.37645        -2.29332         4.39441
     2014.37919        -2.22461         4.42452
     2014.38193        -3.43191         4.43428
     2014.38466        -0.90221         4.45137
     2014.38740        -2.78950         4.43754
     2014.39014        -0.73880         4.51402
     2014.39288        -0.51410         4.46276
     2014.39561        -1.17539         4.46683
     2014.39835        -0.22969         4.47496
     2014.40109        -4.79199         4.44486
     2014.40383        -2.94628         4.45381
     2014.40657        -1.51858         4.43916
     2014.40930        -0.82288         4.46601
     2014.41204        -3.45217         4.40336
     2014.41478        -2.79947         4.37651
     2014.41752         1.58223         4.37082
     2014.42026         3.54694         4.39441
     2014.42299         1.38264         4.40336
     2014.42573        -0.91566         4.40825
     2014.42847         1.50405         4.39360
     2014.43121        -3.29425         4.36350
     2014.43394        -1.37855         4.41557
     2014.43668         3.15016         4.37570
     2014.43942         2.00086         4.40336
     2014.44216        -1.13844         4.39930
     2014.44490        -0.91073         4.49530
     2014.44763         1.56597         4.47984
     2014.45037        -4.28633         4.37895
     2014.45311         0.82338         4.43103
     2014.45585         2.45408         4.39930
     2014.45859        -4.09822         4.36268
     2014.46132        -2.26051         4.37082
     2014.46406        -0.06281         4.37570
     2014.46680         2.19889         4.45055
     2014.46954        -1.83540         4.41231
     2014.47227        -1.00070         4.40255
     2014.47501         2.05000         4.39116
     2014.47775         3.03871         4.38872
     2014.48049        -3.20959         4.38953
     2014.48323         6.57011         4.44649
     2014.48596         5.62082         4.49449
     2014.48870        -0.16348         4.47659
     2014.49144        -1.50178         4.29841
     2014.49418        -3.21907         4.30247
     2014.49692        -1.71737         4.35210
     2014.49965         1.22933         4.39848
     2014.50239         1.01004         4.37245
     2014.50513         2.74574         4.36838
     2014.50787         4.24944         4.42614
     2014.51060        -5.93785         4.36512
     2014.51334         4.90985         4.32932
     2014.51608         6.76155         4.31305
     2014.51882         3.58626         4.31630
     2014.52156         6.86796         4.40418
     2014.52429        -0.61334         4.35699
     2014.52703         7.61637         4.35536
     2014.52977         1.03207         4.32037
     2014.53251         2.41477         4.38384
     2014.53525         4.58648         4.32363
     2014.53798         9.24818         4.33990
     2014.54072         6.58088         4.46764
     2014.54346         6.79859         4.33827
     2014.54620         5.58229         4.42696
     2014.54893         4.89199         4.32688
     2014.55167         7.24270         4.35048
     2014.55441         4.92140         4.35943
     2014.55715         3.21910         4.40499
     2014.55989         3.37781         4.37407
     2014.56262         5.83151         4.32607
     2014.56536         1.03821         4.33176
     2014.56810        -0.02908         4.36919
     2014.57084         0.50262         4.31793
     2014.57357        -0.11468         4.31793
     2014.57631         4.73103         4.31630
     2014.57905         0.72073         4.32119
     2014.58179        -1.35557         4.39685
     2014.58453         3.00614         4.42777
     2014.58726        -2.10216         4.54249
     2014.59000         3.43154         4.40336
     2014.59274         5.34525         4.40987
     2014.59548         7.03695         4.44974
     2014.59822         4.58465         4.49368
     2014.60095         6.13236         4.46194
     2014.60369         3.53106         4.43103
     2014.60643         0.98876         4.42126
     2014.60917         6.13847         4.44486
     2014.61190         6.01317         4.54900
     2014.61464         4.87387         4.40906
     2014.61738        -2.57542         4.59457
     2014.62012         0.21428         4.52703
     2014.62286         1.51398         4.40336
     2014.62559         2.52969         4.41150
     2014.62833         6.03539         4.43347
     2014.63107         7.84209         4.43021
     2014.63381        12.05980         4.55226
     2014.63655         6.32550         4.45869
     2014.63928         1.17020         4.40743
     2014.64202         1.67891         4.38953
     2014.64476        -1.59639         4.40825
     2014.64750         3.97531         4.41394
     2014.65023         1.23902         4.42208
     2014.65297         4.64272         4.45706
     2014.65571        10.46542         4.41394
     2014.65845         6.23013         4.40336
     2014.66119         6.80783         4.40825
     2014.66392         9.40653         4.39767
     2014.66666        11.06524         4.40499
     2014.66940         3.91194         4.44079
     2014.67214         6.64364         4.38790
     2014.67488         0.24135         4.35943
     2014.67761         1.72805         4.40580
     2014.68035         7.00875         4.41801
     2014.68309         0.87746         4.39685
     2014.68583         3.90816         4.41964
     2014.68856         5.08786         4.39523
     2014.69130         3.50457         4.38221
     2014.69404         4.86327         4.41150
     2014.69678         1.48697         4.39279
     2014.69952         6.46768         4.36756
     2014.70225         6.89538         4.37163
     2014.70499         3.83808         4.34885
     2014.70773         7.10679         4.43347
     2014.71047         8.34449         4.46032
     2014.71321         6.49919         4.33258
     2014.71594        -0.37010         4.43265
     2014.71868         9.19060         4.33258
     2014.72142         1.58030         4.36756
     2014.72416         4.21301         4.42370
     2014.72689         8.54371         4.50588
     2014.72963        15.20641         4.42614
     2014.73237         6.85312         4.43835
     2014.73511         4.99682         4.41394
     2014.73785        -0.47948         4.39035
     2014.74058         2.21423         4.38790
     2014.74332         4.06593         4.50344
     2014.74606         6.31563         4.37489
     2014.74880         3.56034         4.37407
     2014.75154         1.39804         4.50669
     2014.75427         2.34674         4.41557
     2014.75701        -0.50455         4.56690
     2014.75975        -2.47485         4.44079
     2014.76249         5.76785         4.38058
     2014.76522         6.35456         4.38140
     2014.76796         7.25826         4.41638
     2014.77070         2.51196         4.43184
     2014.77344        -1.18433         4.59782
     2014.77618         5.51737         4.42045
     2014.77891         0.28207         4.35536
     2014.78165        11.57778         4.72882
     2014.78439         4.74448         4.45137
     2014.78713         8.07318         4.40418
     2014.78987         4.73288         4.39930
     2014.79260         2.98159         4.35048
     2014.79534         7.03329         4.46927
     2014.79808         6.29299         4.67023
     2014.80082         7.06470         4.43428
     2014.80355         5.86940         4.61653
     2014.80629         2.50610         4.52541
     2014.80903         2.19881         4.41964
     2014.81177         7.11851         4.35943
     2014.81451        12.55121         4.40662
     2014.81724         6.62492         4.47984
     2014.81998         3.10262         4.40092
     2014.82546         0.58803         4.39116
     2014.82820        -1.04127         4.38872
     2014.83093         5.70243         4.45544
     2014.83367        -1.61086         4.42696
     2014.83641        -1.38816         4.45218
     2014.83915         4.80054         4.44567
     2014.84188         6.54725         4.56365
     2014.84462         1.21495         4.59375
     2014.84736        -4.47935         4.56121
     2014.85010         3.51836         4.43754
     2014.85284        -0.38194         4.42126
     2014.85557        -3.53324         4.54087
     2014.85831         2.58647         4.43021
     2014.86105        -1.02083         4.41801
     2014.86379         0.76487         4.39767
     2014.86653         0.00458         4.40743
     2014.86926        -1.86772         4.41719
     2014.87200        -2.25202         4.40987
     2014.87474        -1.71131         4.41069
     2014.87748        -1.42861         4.44323
     2014.88021         2.29709         4.42940
     2014.88295        -2.45220         4.48473
     2014.88569         1.81250         4.65722
     2014.88843         6.03520         4.65315
     2014.89117         5.55891         4.65396
     2014.89390        -4.36239         4.58968
     2014.89664        -2.25469         4.55877
     2014.89938        -2.64398         4.58724
     2014.90212        -6.86428         4.56934
     2014.90485        -5.45958         4.47171
     2014.90759        -2.79987         4.51239
     2014.91033         0.49983         4.41801
     2014.91307         2.53553         4.43509
     2014.91581         0.78024         4.41801
     2014.91854         4.38194         4.42777
     2014.92128        -1.62336         4.42370
     2014.92402         3.29135         4.42370
     2014.92676         0.78205         4.50669
     2014.92950        -5.28225         4.49042
     2014.93223        -7.21354         4.44567
     2014.93497        -4.39884         4.44486
     2014.93771        -8.81014         4.50100
     2014.94045        -8.53843         4.50100
     2014.94318        -2.49573         4.63281
     2014.94592        -5.25803         4.46032
     2014.94866        -9.34832         4.36512
     2014.95140        -7.04662         4.32770
     2014.95414        -1.43492         4.33502
     2014.95687        -0.07221         4.37651
     2014.95961         0.90149         4.38628
     2014.96235         1.48919         4.35617
     2014.96509        -1.26910         4.51808
     2014.96783        -5.77940         4.35617
     2014.97056        -5.43470         4.37895
     2014.97330        -5.72599         4.37000
     2014.97604       -10.43229         4.43672
     2014.97878        -0.76059         4.47984
     2014.98151         2.01112         4.44974
     2014.98425        -3.47618         4.35699
     2014.98699        -1.71248         4.42208
     2014.98973        -3.07377         4.32525
     2014.99247        -2.50007         4.33909
     2014.99520        -9.33037         4.33176
     2014.99794        -0.71266         4.35943
     2015.00068        -2.35196         4.31875
     2015.00342        -5.02426         4.36187
     2015.00616        -9.74155         4.34071
     2015.00889        -2.35685         4.38709
     2015.01163        -5.12715         4.50995
     2015.01437        -2.33044         4.42452
     2015.01711        -3.52574         4.47415
     2015.01984        -3.79404         4.43428
     2015.02258         2.58067         4.52297
     2015.02532         3.81337         4.44323
     2015.02806         0.50307         4.41719
     2015.03080         1.07678         4.41394
     2015.03353        -5.72852         4.43509
     2015.03627        -3.15082         4.41638
     2015.03901         7.66389         4.46113
     2015.04175         5.00559         4.42208
     2015.04449        -4.40871         4.45788
     2015.04722         5.96900         4.51483
     2015.04996         1.09870         4.39360
     2015.05270        -6.66760         4.37733
     2015.05544        -2.72289         4.37000
     2015.05817         4.30081         4.37407
     2015.06091         2.79351         4.40418
     2015.06365         4.30622         4.50425
     2015.06639         3.75092         4.39767
     2015.06913        -2.75938         4.38302
     2015.07186         1.49333         4.52622
     2015.07460        -2.75797         4.40092
     2015.07734        -6.67527         4.38872
     2015.08008        -8.40256         4.36105
     2015.08282        -4.34586         4.37651
     2015.08555         3.13184         4.41557
     2015.08829         2.06255         4.44160
     2015.09103         3.96625         4.37489
     2015.09377        -0.41205         4.37407
     2015.09650         1.47866         4.38465
     2015.09924         6.10036         4.43347
     2015.10198         3.37206         4.40418
     2015.10472        -0.66423         4.40499
     2015.10746        -1.76053         4.36268
     2015.11019        -8.03283         4.47659
     2015.11293        -2.46612         4.46194
     2015.11567         2.68358         4.44323
     2015.11841         0.29328         4.38709
     2015.12115        -2.65101         4.44567
     2015.12388        -2.64131         4.36350
     2015.12662        -0.88061         4.38140
     2015.12936        -0.04190         4.34722
     2015.13210         3.11680         4.37163
     2015.13483        -2.04150         4.43672
     2015.13757         0.07721         4.55470
     2015.14031        -4.48109         4.38221
     2015.14305        -1.48139         4.36431
     2015.14579        -1.27368         4.35699
     2015.14852        -0.65298         4.49449
