# ================= DQRFIT RESULTS ================
# INPUT FILE: series/PCS2.rad
# OUTPUT: LDETRENDED
# FILTER FUNCTION: f(t)
# f(t)=+line(t)+annual(t)
# line(t)=+P 1+P 2*t
# annual(t)=+P 3*sin(2*pi*t+P 4)
# heav(t)=(t<0?0:1)
# TOTAL OBSERVATIONS MTOT= 2183
# INITIAL TIME INTERVAL= 2021.5136 - 2015.3030 =  6.2106
# TOTAL OBSERVATIONS AFTER PREFILTER M= 2174
# TIME-SPAN= 2021.5136 - 2015.3030 =  6.2106
# OBSERVATIONS: USED M=  2174 REJECTED MTOT-M=     9 %USED=   99.5877
# N=  4 PARAMETERS
# MAXSIG= 175.00000
# MAXRES=  21.71803
# SCALE FACTOR FOR LENGTHS: SCL=  10.00000
# SCALE FACTOR FOR SIGMAS: SCLSIG=   1.00000
# CHI^2=   2208.319 DOF=  2170 CHI^2/DOF=   1.01766
# RMS=      5.619 SDEV=      5.619 MEAN=   -0.09488
#  P #       PARAMETER +-    SIGMA %error PARAMETER NAME
# P 1 =      4829.90381 +-  134.719   2.79 YZERO                              
# P 2 =        -2.39686 +-    0.067   2.78 SLOPE                              
# P 3 =         4.20528 +-    0.169   4.02 ANNUAL AMPLITUDE                   
# P 4 =        -2.86088 +-    0.055   1.91 ANNUAL PHASE                       
#       T            LDETRENDED       SIG_OBS
     2015.30298        -2.32698        14.18158
     2015.30458        -7.94614         5.44041
     2015.30732        -5.23958         5.45554
     2015.31006       -14.61002         5.43234
     2015.31279        -5.41546         5.38392
     2015.31553        -9.25589         5.34558
     2015.31827       -10.24933         5.37181
     2015.32101        -6.02377         5.43839
     2015.32375       -13.72121         5.36374
     2015.32648        -7.02764         5.50396
     2015.32922        -5.05908         5.53019
     2015.33196         1.19948         5.37181
     2015.33470        -1.97296         5.40611
     2015.33744       -11.00640         5.36475
     2015.34017        -6.03883         5.41418
     2015.34291        -8.50727         5.37988
     2015.34565         0.11429         5.33953
     2015.34839        -1.31515         5.40207
     2015.35112        -9.32158         5.35567
     2015.35386        -4.82902         5.38997
     2015.35660        -3.38646         5.38190
     2015.35934        -8.51990         5.47874
     2015.36208        -2.26133         5.44041
     2015.36481        -4.43977         5.38089
     2015.36755        -4.22021         5.36172
     2015.37029        -4.83765         5.32440
     2015.37303        -6.48009         5.36172
     2015.37577        -1.50652         5.40712
     2015.37850        -7.71296         5.49791
     2015.38124        -7.34340         5.42326
     2015.38398       -10.26584         5.36777
     2015.38672        -6.68227         5.41620
     2015.38945        -4.22771         5.48580
     2015.39219         1.15085         5.34558
     2015.39493        -3.58259         5.36777
     2015.39767        -8.29903         8.16717
     2015.40041        -8.57746         5.43234
     2015.40314         0.18210         5.53523
     2015.40588        -3.54034         5.40106
     2015.40862        -4.47478         5.39501
     2015.41136        -0.20221         5.64317
     2015.41410        -8.13965         5.75212
     2015.41683        -6.62309         5.42023
     2015.41957        -7.51253         5.41115
     2015.42231         2.35503         5.38896
     2015.42505        -4.82640         5.53423
     2015.42778        -6.49784         5.42830
     2015.43052         1.33472         5.41519
     2015.43324        -1.41576         5.36576
     2015.43600         2.53785         5.39905
     2015.43874         1.21541         5.52817
     2015.44147        -3.34803         5.74405
     2015.44421        -2.62847         5.47168
     2015.44695        -6.12991         5.36273
     2015.44969        -4.28034         5.40510
     2015.45243         0.06222         5.52313
     2015.45516        -4.02722         5.41821
     2015.45790        -4.29566         5.73800
     2015.46064        -5.62409         5.64116
     2015.46338        -2.96453         5.55238
     2015.46611         1.60803         5.42528
     2015.46885         6.42159         5.48177
     2015.47159         2.17015         5.50295
     2015.47433        -3.87028         5.56045
     2015.47707        -0.06472         5.57962
     2015.47980         0.22784         5.55945
     2015.48254         3.69040         5.53927
     2015.48528        -2.36403         5.54230
     2015.48802        -4.73947         5.42830
     2015.49076        -1.76491         5.48883
     2015.49349         0.32365         5.57861
     2015.49623         0.33521         5.56449
     2015.49897        -2.99222         5.58466
     2015.50171         3.09834         5.40712
     2015.50444         0.06690         5.45453
     2015.50718        -3.14354         5.46462
     2015.50992         3.18503         5.59475
     2015.51266         3.69059         5.44444
     2015.51540        -1.63185         5.39602
     2015.51802         1.57645         5.68756
     2015.53550         0.81233        11.00187
     2015.53730        -1.73235         5.54028
     2015.54004         3.43021         5.59879
     2015.54277        -1.55523         5.60282
     2015.54551         9.92633         5.63712
     2015.54825         1.46290         5.58466
     2015.55099        -1.61254         5.54129
     2015.55373         6.59802         5.56348
     2015.55646        10.30258         5.56449
     2015.55920        12.45015         5.58265
     2015.56194         8.49271         5.58668
     2015.56468         0.31627         5.56348
     2015.56741         2.74783         5.46765
     2015.57015        11.17239         5.68252
     2015.57289         1.40596         5.75112
     2015.57563        -4.87748         5.54532
     2015.57837         3.84008         5.55037
     2015.58110         5.88264         5.58164
     2015.58384         7.93821         5.71177
     2015.58658         8.66277         5.58265
     2015.58932        -0.10667         5.68252
     2015.59206        -0.70711         5.59072
     2015.59479         6.08546         5.62098
     2015.59753         9.58402         5.68756
     2015.60027         8.02658         5.70673
     2015.60301        -2.81686         5.87015
     2015.60574         4.19770         5.77028
     2015.60848         1.24827         5.53019
     2015.61122        -1.83817         5.65629
     2015.61396         5.76039         5.55339
     2015.61670         7.21095         5.59475
     2015.61943         3.49952         5.55440
     2015.62217         3.77108         5.56348
     2015.62491        13.24464         5.41821
     2015.62765         6.97820         5.36475
     2015.63039         2.27576         5.41721
     2015.63312         7.26933         5.81366
     2015.63586        10.48689         5.64116
     2015.63860         0.98745         5.42931
     2015.64134         5.66601         5.42931
     2015.64407        -2.11042         5.38291
     2015.64681         4.60214         5.48278
     2015.64955         3.03870         5.43234
     2015.65229         5.79526         5.49186
     2015.65503         6.95582         5.42628
     2015.65776       -12.45961         5.78743
     2015.66050         2.22795         5.52515
     2015.66324        11.20851         5.36979
     2015.66598         8.71007         5.62502
     2015.66872         1.49164         5.66436
     2015.67145         5.61720         5.41821
     2015.67419         7.29476         5.40006
     2015.67693         7.40832         5.34558
     2015.67967        12.48688         5.50295
     2015.68240         6.92345         5.51708
     2015.68514        -1.38299         5.61695
     2015.68788         8.54557         5.46159
     2015.69062         7.16613         5.43637
     2015.69336         7.92770         5.55137
     2015.69609         7.32426         5.39905
     2015.69883         1.75482         5.89335
     2015.70157        12.37738         5.55440
     2015.70431        10.63794         5.39299
     2015.70705         2.36051         5.35970
     2015.70978         5.95307         5.53322
     2015.71252         4.38963         5.41519
     2015.71526         6.39919         5.39602
     2015.71800        12.07276         5.43335
     2015.72073        12.73932         5.52212
     2015.72307        11.67492         6.39271
     2015.72992        11.67533        10.16256
     2015.73169         4.31357         5.60081
     2015.73363       -10.45278         8.34572
     2015.73716         7.36169         5.40006
     2015.73990        14.68625         5.48177
     2015.74264        10.87682         5.55339
     2015.74538         7.04838         5.68857
     2015.74811         4.51094         5.59576
     2015.75085         3.20350         5.44444
     2015.75359         2.89006         5.45352
     2015.75633         8.90963         5.35567
     2015.75906        13.01819         5.39501
     2015.76180         5.57375         5.46664
     2015.76454        -2.72569         5.51203
     2015.76728         2.21888         5.56752
     2015.77002         5.39544         5.50194
     2015.77275         8.53200         5.60888
     2015.77549         0.70556         5.48479
     2015.77823        11.68912         5.42931
     2015.78097         8.02669         5.40712
     2015.78371         9.87325         5.39098
     2015.78644        10.29281         5.42528
     2015.78918        11.17737         5.42326
     2015.79192         3.13394         5.62502
     2015.79466         5.79950         5.42326
     2015.79739         5.93506         5.68252
     2015.80013         3.67562         5.68554
     2015.80287         6.20118         5.53120
     2015.80561         7.14275         5.43032
     2015.80835         2.66031         5.40914
     2015.81108         2.57787         5.52212
     2015.81382         4.20943         5.62703
     2015.81656         4.20900         5.74708
     2015.81930         4.87556         5.47975
     2015.82203         1.41712         5.60383
     2015.82477        10.66468         5.58466
     2015.82751         8.59125         5.71581
     2015.83036         9.32808         6.01239
     2015.83299       -10.27163         5.98011
     2015.83572         2.41193         5.58971
     2015.83846         0.76049         5.52817
     2015.84120         0.31406         5.51506
     2015.84394        -4.04738         5.49791
     2015.84668        -2.12282         5.52111
     2015.84941        -1.59026         5.58870
     2015.85215         0.33931         5.54734
     2015.85489         5.90187         5.49186
     2015.85763         0.86443         5.51909
     2015.86036        -4.32401         5.55945
     2015.86310        -0.08645         5.50598
     2015.86584        -2.59388         5.55541
     2015.86858         2.36468         5.55339
     2015.87132         2.18324         5.59778
     2015.87405        -2.93120         5.58164
     2015.87679       -10.11963         5.68857
     2015.87953        -4.36007         5.64721
     2015.88227        -3.07651         5.54129
     2015.88501        -6.35295         5.48177
     2015.88774         3.40861         5.48681
     2015.89048         4.35118         5.52716
     2015.89322         4.33074         5.46966
     2015.89596        -0.88070         5.49892
     2015.89869        -0.23014         5.45857
     2015.90143        -1.52057         5.45150
     2015.90417        -3.01301         5.45352
     2015.90691         0.21755         5.44243
     2015.90965         0.12511         5.53120
     2015.91238         0.69067         5.61392
     2015.91512        -4.34776         5.44343
     2015.91786        -4.71320         5.50497
     2015.92060        -0.67464         5.56247
     2015.92334        -1.77808         5.50699
     2015.92607       -10.27351         5.49387
     2015.92881       -10.59995         5.62199
     2015.93155        -6.48139         5.75919
     2015.93429         2.37217         6.28577
     2015.93702        -6.02027         5.98515
     2015.93976         3.56630         5.88730
     2015.94250        -5.80314         5.75919
     2015.94524         0.67642         5.62098
     2015.94798         1.48898         5.85502
     2015.95071        -5.49445         5.53221
     2015.95345        -6.32589         5.45453
     2015.95619        -0.30533         5.53523
     2015.95893        -5.34277         5.65932
     2015.97091        -3.91206        11.28332
     2015.97262         1.59504         5.48076
     2015.97535        -2.84639         5.62804
     2015.97809        -2.74483         5.49589
     2015.98083         0.81573         5.48782
     2015.98357        -9.75271         5.48883
     2015.98631        -7.45315         5.54028
     2015.98904        -3.41958         5.48379
     2015.99178        -8.90402         5.49690
     2015.99452        -6.71646         5.47572
     2015.99726        -2.18190         5.44747
     2016.00000        -2.06033         5.44545
     2016.00273        -5.72977         5.40308
     2016.00547        -2.98021         5.53322
     2016.00821         8.77335         5.79449
     2016.01095        -0.09909         5.54230
     2016.01368        -3.69252         5.51708
     2016.01642        -6.34096         5.60081
     2016.01916        -4.67940         5.73901
     2016.02190        -3.66784         5.60383
     2016.02464        -0.22527         5.53120
     2016.02737        -1.19671         5.65225
     2016.03011       -10.33515         5.64822
     2016.03285        -6.64559         5.48177
     2016.03559        -0.44703         5.49791
     2016.03833        -2.42646         5.62502
     2016.04106        -1.82890         5.52111
     2016.04380        -3.46634         5.48782
     2016.04654        -6.97978         5.51102
     2016.04928        -5.81121         5.42628
     2016.05201       -14.45065         5.58164
     2016.05475        -3.54609         5.41721
     2016.05749        -7.80153         5.52716
     2016.06023        -1.41996         5.44747
     2016.06297        -2.48740         5.42528
     2016.06570        -3.69184         5.55339
     2016.06844        -6.35528         5.65528
     2016.07118        -7.83772         5.53019
     2016.07392        -3.19215         5.69664
     2016.07666        -2.13959         5.72590
     2016.07939         8.57797         5.57760
     2016.08213        -6.58647         5.63611
     2016.08487        -1.98990         5.50295
     2016.08761        -5.66334         5.61594
     2016.09034        -5.33678         5.51304
     2016.09308       -13.64722         5.53523
     2016.09542       -16.99661         6.46433
     2016.10483       -15.93206         8.52630
     2016.10677       -12.02641         5.47773
     2016.10951        -8.40184         5.75717
     2016.11225        -7.72128         5.51909
     2016.11498       -12.12072         5.64822
     2016.11772       -14.34916         5.52615
     2016.12046       -14.90860         5.47067
     2016.12320        -8.76603         5.52111
     2016.12594        -5.64747         5.50396
     2016.12867         3.24809         5.48681
     2016.13141         5.65965         5.48076
     2016.13415        -0.92078         5.60081
     2016.13689        -7.40922         5.48883
     2016.13963        -5.96166         5.51304
     2016.14236       -14.14710         5.42729
     2016.14510        -7.81054         5.41620
     2016.14784        -3.09597         5.44444
     2016.15058        -4.34941         5.41519
     2016.15331        -1.79485         5.64620
     2016.15605       -12.14029         5.44142
     2016.15811       -13.43835         8.24787
     2016.16244        -4.07697        10.24225
     2016.16427        -4.85460         5.66436
     2016.16700        -1.79004         5.66839
     2016.16974        -4.67448         5.53120
     2016.17248       -11.88591         5.58971
     2016.17522        -6.90635         5.62401
     2016.17796         2.23521         5.57760
     2016.18069        -3.02723         5.60988
     2016.18343        -3.30166         5.66839
     2016.18617        -3.96210         5.46966
     2016.18891         1.79446         5.48076
     2016.19164        -1.59198         5.44747
     2016.19438         1.96158         5.51607
     2016.19712        -3.00485         5.36777
     2016.19986        -0.20829         5.52716
     2016.20260       -12.16673         5.56348
     2016.20533        -9.10717         5.63712
     2016.20807        -6.53560         5.59475
     2016.21081        -1.11004         5.50396
     2016.21355        -2.47748         5.43335
     2016.21629        -5.59392         5.49387
     2016.21902        -6.04536         5.43536
     2016.22176        -4.84979         5.41418
     2016.22450       -11.24223         5.33751
     2016.22724        -9.24067         5.46058
     2016.22997        -7.80311         5.33247
     2016.23271        -4.73154         5.37383
     2016.23545        -5.25898         5.48883
     2016.23819        -4.24842         5.35365
     2016.24093         0.79814         5.40712
     2016.24366        -0.96130         5.34861
     2016.24640         2.70127         5.31633
     2016.24914         1.66383         5.34659
     2016.25188        -2.75361         5.43436
     2016.25462        -0.91505         5.38190
     2016.25735        -5.71948         5.52010
     2016.26009        -7.62392         5.38190
     2016.26283        -5.71736         5.42225
     2016.26557         4.05620         5.37484
     2016.26830         0.57976         5.36878
     2016.27104        -2.94667         5.33751
     2016.27378         3.88289         5.39400
     2016.27652        -3.66455         5.47773
     2016.27926        -6.85999         5.42729
     2016.28142       -22.99279         7.15939
     2016.28815        -9.34166         8.29932
     2016.29021        -4.69874         5.41821
     2016.29295        -1.83818         5.40510
     2016.29568         1.61739         5.46159
     2016.29842         0.85095         5.50800
     2016.30116         0.35051         5.50295
     2016.30390        -6.86393         5.58466
     2016.30663         0.68264         5.55743
     2016.30937        -1.87180         5.43839
     2016.31211        -8.23324         5.43234
     2016.31485         1.18932         5.42628
     2016.31759        -2.53911         5.38795
     2016.32032        -9.00755         5.44848
     2016.32306       -10.69499         5.40409
     2016.32580        -6.60743         5.36777
     2016.32854         1.68913         5.38795
     2016.33128         2.85770         5.37282
     2016.33401         5.10326         5.48379
     2016.33675         1.86682         5.49690
     2016.33949        -1.74162         5.61493
     2016.34223         1.75195         5.42023
     2016.34496         6.72551         5.54230
     2016.34770         4.38807         5.47269
     2016.35044        -1.45437         5.72489
     2016.35318        -2.27981         5.36374
     2016.35592        -1.72224         5.33348
     2016.35865        -1.10768         5.36475
     2016.36133         2.37374         5.51405
     2016.36413         5.31944         5.38593
     2016.36687        -1.05299         5.51001
     2016.36961         4.05357         5.40308
     2016.37234         8.17013         5.43738
     2016.37508         8.02269         5.37181
     2016.37782        -1.44675         5.44444
     2016.38056         4.03582         5.52615
     2016.38329         0.40238         5.33045
     2016.38603        -3.78206         5.33045
     2016.38877         6.54850         5.43940
     2016.39151         2.06707         5.35264
     2016.40200         2.37922         6.73670
     2016.41438        -4.40011        10.65787
     2016.41615        -2.11487         5.53523
     2016.41889        -6.34931         5.35466
     2016.42162        -2.38375         5.45251
