# ================= DQRFIT RESULTS ================
# INPUT FILE: series/PCSO.rad
# OUTPUT: LDETRENDED
# FILTER FUNCTION: f(t)
# f(t)=+line(t)+annual(t)+jumps(t)
# line(t)=+P 1+P 2*t
# annual(t)=+P 3*sin(2*pi*t+P 4)
# jumps(t)=+P 5*heav(t-2013.4629  )+P 6*heav(t-2015.0771  )
# heav(t)=(t<0?0:1)
# TOTAL OBSERVATIONS MTOT= 2789
# INITIAL TIME INTERVAL= 2015.2991 - 2007.0034 =  8.2957
# TOTAL OBSERVATIONS AFTER PREFILTER M= 2670
# TIME-SPAN= 2015.2991 - 2007.0034 =  8.2957
# OBSERVATIONS: USED M=  2670 REJECTED MTOT-M=   119 %USED=   95.7332
# N=  6 PARAMETERS
# MAXSIG= 175.00000
# MAXRES=  22.63584
# SCALE FACTOR FOR LENGTHS: SCL=  10.00000
# SCALE FACTOR FOR SIGMAS: SCLSIG=   1.00000
# CHI^2=   2467.585 DOF=  2664 CHI^2/DOF=   0.92627
# RMS=      5.555 SDEV=      5.556 MEAN=    0.07901
#  P #       PARAMETER +-    SIGMA %error PARAMETER NAME
# P 1 =       566.71060 +-  141.833  25.03 YZERO                              
# P 2 =        -0.38836 +-    0.071  18.17 SLOPE                              
# P 3 =         3.30632 +-    0.154   4.65 ANNUAL AMPLITUDE                   
# P 4 =        -2.98335 +-    0.065   2.18 ANNUAL PHASE                       
# P 5 =        14.76405 +-    0.393   2.66 OFFSET 2013.4629                   
# P 6 =       205.77183 +-    0.750   0.36 OFFSET 2015.0771                   
#       T            LDETRENDED       SIG_OBS
     2007.00336       -21.32912         6.38380
     2007.00702         6.39130         9.42219
     2007.00889        -7.90198         5.69085
     2007.01140        -0.78000         6.40593
     2007.02498       -10.73473         6.66001
     2007.08555        -1.08920         5.29433
     2007.08795        -2.27527         6.43769
     2007.23653        -8.94057         6.62440
     2007.23887        -3.06366         5.34822
     2007.24161        -9.08860         5.37036
     2007.24435         1.14647         5.30491
     2007.24709        -0.52347         5.28566
     2007.24982        -0.19041         5.28278
     2007.25256       -10.41434         5.42233
     2007.27446         9.36916         5.24813
     2007.27720        -0.87977         5.50606
     2007.27994         0.18329         5.30202
     2007.28268         8.07535         5.72838
     2007.28542         6.74141         5.26930
     2007.28815        -0.12152         5.61000
     2007.29089         2.46554         5.50991
     2007.29363        -3.43240         5.43388
     2007.29637         0.06267         5.37806
     2007.29911         0.61073         5.39346
     2007.30184        11.53879         5.23658
     2007.30458         1.25186         5.44928
     2007.30732         1.53492         5.36170
     2007.31006         1.74298         5.48007
     2007.31279        -5.48795         5.41559
     2007.31553        -0.69789         5.31165
     2007.31827         6.06017         5.62155
     2007.32101         4.78924         5.43580
     2007.32375         0.32730         5.37902
     2007.32648         3.92736         5.29817
     2007.32922         0.06443         5.36458
     2007.33196        -1.13151         5.50221
     2007.33470         2.03855         5.58209
     2007.33744        -0.22038         5.29914
     2007.34017        -3.81432         5.37036
     2007.34291       -13.96126         5.40693
     2007.34565        -6.71319         5.30299
     2007.34839        -1.44413         5.46949
     2007.35112         5.50393         5.38961
     2007.35386        -4.18700         5.87082
     2007.35660        -7.04694         5.70625
     2007.35934        -3.07588         5.36170
     2007.36208         0.06519         5.37902
     2007.36481        -3.19375         5.42425
     2007.36756        -4.99969         5.45024
     2007.37029       -10.40862         5.64561
     2007.37303        -0.51356         5.56381
     2007.37577        -4.55150         5.60808
     2007.37850       -13.23543         5.56092
     2007.38124       -10.41337         5.46179
     2007.38398        -4.88431         5.57920
     2007.38672         0.43176         5.37806
     2007.38945        -4.89218         5.36651
     2007.39219        -9.58812         5.66967
     2007.39493        -0.77205         5.36362
     2007.39767        -9.66999         5.42425
     2007.40041        -2.17693         5.32031
     2007.40314        -4.09286         5.30684
     2007.40588        -1.54480         5.37228
     2007.40862        -7.96174         5.44350
     2007.41136       -11.30267         5.30202
     2007.41410        -4.44361         5.38576
     2007.41683        -7.14355         5.32801
     2007.41957        -0.24248         5.60711
     2007.42231         3.80758         5.58979
     2007.42505        -2.34036         5.55803
     2007.42778        -1.12830         5.41944
     2007.43052         7.58377         5.30395
     2007.43326         5.59883         5.35400
     2007.43600       -10.21511         5.79479
     2007.43874        -8.52804         5.57824
     2007.44147        -6.35398         5.67160
     2007.44421        -3.90692         5.39923
     2007.44695        -7.84185         5.47911
     2007.44969        -3.87079         5.35015
     2007.45243        -1.75373         5.39057
     2007.45516        -6.15766         5.42522
     2007.45790         0.08840         5.29817
     2007.46064         2.17446         5.32127
     2007.46338         2.01053         5.28374
     2007.46611        -3.07841         5.32512
     2007.46885         2.10565         5.32416
     2007.47159        -2.44328         5.29433
     2007.47433        -1.27822         5.30491
     2007.47707        -4.05116         5.55418
     2007.47980       -13.26309         5.31454
     2007.48254        -5.92503         5.33090
     2007.48528        -5.54297         5.40885
     2007.48802        -6.49390         5.53301
     2007.49075        -0.17084         6.00267
     2007.49349        -4.11278         5.35785
     2007.49623        -1.73971         5.37998
     2007.49897         6.12735         5.43965
     2007.50171        -4.08059         5.37998
     2007.50444         0.81448         5.32127
     2007.50718        -4.59546         5.38768
     2007.50992        -2.38140         5.39057
     2007.51266        -3.47133         5.36843
     2007.51522         8.69566         5.81019
     2007.51910         8.42417        10.30666
     2007.52087         5.04086         5.35111
     2007.52361        -0.38608         5.39827
     2007.52593         2.32682         6.42326
     2007.52908         1.35405         5.48007
     2007.53182         4.91111         5.54359
     2007.53456        -1.52283         5.61963
     2007.53730         1.92324         5.67256
     2007.54004         3.38030         5.42233
     2007.54277         2.24836         5.43965
     2007.54551         4.84343         5.33282
     2007.54825         3.91449         5.34533
     2007.55099        -6.44745         5.50702
     2007.55373         2.94862         5.65331
     2007.55646         6.92868         5.42714
     2007.55920        10.71274         5.38576
     2007.56194         5.86680         5.37324
     2007.56468         7.59687         5.28951
     2007.56741         1.60093         6.22981
     2007.57015         3.86999         5.40308
     2007.57289         1.91406         5.51857
     2007.57563         6.69512         5.34245
     2007.57814         6.23110         5.83906
     2007.58093         1.28218         5.73608
     2007.58384         6.43831         5.46949
     2007.58658         0.44037         5.41944
     2007.58932         4.17644         5.36073
     2007.59206         6.91250         5.34148
     2007.59457         6.91648         5.94108
     2007.59753         0.20063         5.51376
     2007.60027         1.26169         5.52050
     2007.60301         8.24875         5.34726
     2007.60574         3.30882         5.34533
     2007.60848         8.19588         5.30684
     2007.61122        16.71894         5.34630
     2007.61396        -0.15299         5.35496
     2007.61670        -2.56993         5.87467
     2007.61943        10.63313         5.77939
     2007.62217         6.18620         6.15185
     2007.62491         7.80726         5.69470
     2007.62765         2.56432         5.85927
     2007.63039        11.08539         5.64754
     2007.63312         8.59145         5.54648
     2007.63586         1.80551         5.48874
     2007.63843         7.70151         5.83906
     2007.64134        11.16564         5.37998
     2007.64407        10.79470         5.71394
     2007.64681         4.99277         5.64561
     2007.64955        11.09383         5.78228
     2007.65229         6.55189         5.64850
     2007.65503        10.89896         5.51761
     2007.65776        17.44702         5.48681
     2007.66050         7.80608         5.65524
     2007.66324         0.67715         5.75148
     2007.66598        15.36421         5.60038
     2007.66872         9.82527         5.61096
     2007.67145        -2.08466         5.72549
     2007.67419        -1.53860         6.07101
     2007.67693        15.19846         5.65235
     2007.67967         7.17953         5.72549
     2007.68240        13.71659         5.68603
     2007.68514        12.61265         5.63984
     2007.68788        19.58472         5.67160
     2007.69062        12.44078         5.55707
     2007.69336        15.64984         5.61193
     2007.69609        11.73291         5.64176
     2007.69883        14.30797         5.61000
     2007.70140        10.76997         5.96321
     2007.70763        15.04238         7.47327
     2007.70978        10.58922         5.70721
     2007.71252         8.91028         5.57824
     2007.71526        16.36335         5.40019
     2007.71800         7.70241         5.48007
     2007.72073        14.00747         5.45409
     2007.72347        19.42354         5.41944
     2007.72621        10.88560         5.41463
     2007.72895         8.87566         5.42137
     2007.73169         7.21373         5.47045
     2007.73442         7.82179         5.41463
     2007.73716         9.05685         5.58690
     2007.73990        15.06492         5.58113
     2007.74264        12.05998         5.56669
     2007.74538         8.03104         5.42425
     2007.74811        10.66711         5.59749
     2007.75085         5.73817         5.77169
     2007.75359        10.44923         5.90547
     2007.75633         4.56230         5.54552
     2007.75906        11.09036         5.41848
     2007.76180         8.12742         5.49836
     2007.76454        -3.68451         5.46852
     2007.76728        10.09355         5.96033
     2007.77002         5.73761         5.91605
     2007.77275         8.04468         5.71106
     2007.77543         1.71272         5.57439
     2007.77806         9.14674         5.73223
     2007.77988        13.04645        11.42789
     2007.78976         9.31728         7.56662
     2007.79192         3.29812         5.54552
     2007.79466        11.97318         5.89392
     2007.79739         6.56925         5.81596
     2007.80013        12.02431         5.54263
     2007.80276         2.75333         5.71202
     2007.80561         1.96244         5.39057
     2007.80835         2.55950         5.51472
     2007.81108         5.74056         5.61000
     2007.81382         2.46663         5.54263
     2007.81656         5.80269         5.55803
     2007.81930         2.14875         5.50991
     2007.82203        -1.55118         5.44446
     2007.82477         1.44288         5.56477
     2007.82751        -1.50606         5.52916
     2007.83025         2.29901         5.57054
     2007.83299        -4.10593         5.63984
     2007.83572        -1.65387         5.34630
     2007.83846        -5.89781         5.43292
     2007.84120         1.54726         5.34341
     2007.84394        -3.42368         5.40693
     2007.84668        -3.94262         5.43676
     2007.84941        -2.33355         5.46275
     2007.85135        -0.94680         8.22396
     2007.85529        -0.37627         7.17684
     2007.85763         0.69564         5.88718
     2007.86036        -3.40630         5.57054
     2007.86310        -1.91424         5.57535
     2007.86584         1.64883         5.50510
     2007.86858        -8.12411         5.47045
     2007.87132        13.28595         5.53397
     2007.87405         6.63902         5.77746
     2007.87679        13.08608         5.55707
     2007.87953         1.08714         5.41270
     2007.88227         0.23721         5.45890
     2007.88501         5.56127         5.41078
     2007.88774       -11.50867         5.38864
     2007.89048        -3.07960         5.47334
     2007.89322        -3.45354         5.57824
     2007.89596         8.02952         5.50798
     2007.89869         1.10359         5.40404
     2007.90143        -4.43135         5.53686
     2007.90417        -5.65329         5.74474
     2007.90691        -6.42622         5.54744
     2007.90965        -0.85616         5.45698
     2007.91238         5.59090         5.41655
     2007.91512         6.77697         5.43773
     2007.91786         3.45503         5.79286
     2007.92060        -4.18291         5.54359
     2007.92334        -4.65584         5.80538
     2007.92607        -3.23778         5.44735
     2007.92881        -1.26772         5.58979
     2007.93155         6.14435         5.58498
     2007.93429       -10.03759         5.50702
     2007.93702        -8.95853         5.56284
     2007.93976        -6.10446         5.60615
     2007.94250        -4.13040         5.50702
     2007.94524        -0.54434         5.72646
     2007.94798        -1.31227         5.58017
     2007.95071        -3.25121         5.52435
     2007.95345        -1.21015         5.66679
     2007.95619        -0.97008         5.71298
     2007.95893        13.65998         5.65139
     2007.96167        10.85504         5.62348
     2007.96440        10.63311         5.68122
     2007.96714         1.93317         5.57439
     2007.96988        -4.62477         5.53012
     2007.97262        -8.39470         5.71876
     2007.97535        -2.35564         5.71779
     2007.97809         4.83442         5.61193
     2007.98083        -0.94952         5.61866
     2007.98357       -12.38745         5.63406
     2007.98631         7.23961         5.58209
     2007.98904         4.02667         5.70721
     2007.99178         0.83074         5.64176
     2007.99452        -2.69020         5.75052
     2007.99726         1.81586         5.49259
     2008.00000        -9.58407         5.47719
     2008.00273        -6.14001         5.55611
     2008.00547         3.16305         5.40404
     2008.00821         5.29012         5.49547
     2008.01095         9.54718         5.45505
     2008.01368        -2.32576         5.40404
     2008.01642       -14.59769         5.42233
     2008.01916        -2.74963         5.53205
     2008.02190         2.02643         5.48296
     2008.02464         3.12350         5.45890
     2008.02737        -4.53444         5.44158
     2008.03011        -2.26738         5.47141
     2008.03285        -8.39031         5.41463
     2008.03559       -11.91925         5.46083
     2008.03833       -11.28119         5.43580
     2008.04106        -7.72912         5.54167
     2008.04380       -11.78106         5.49066
     2008.04654       -11.05200         5.50702
     2008.04928        -8.50493         5.59268
     2008.05201        -8.28287         5.35303
     2008.05475        -5.72581         5.35496
     2008.05749        -3.39874         5.37228
     2008.06023         0.40232         5.39538
     2008.06297         6.84538         5.35592
     2008.06570         3.04445         5.29914
     2008.06844        -2.08349         5.33475
     2008.07118         6.53457         5.32801
     2008.07392         5.69064         5.34245
     2008.07666        -2.04930         5.72838
     2008.07939       -22.45024         5.62636
     2008.08213        -3.59717         5.43484
     2008.08487       -10.70211         5.42810
     2008.08761       -10.62805         5.38864
     2008.09034        -2.37298         5.38287
     2008.09308        -1.97192         5.35881
     2008.09582        -0.91786         5.71298
     2008.09856        -2.41679         5.59268
     2008.10130        -5.14773         5.60134
     2008.10403       -11.02567         5.39923
     2008.10677        -6.57460         5.42233
     2008.10951        -1.82854         5.46756
     2008.11225        -5.23048         5.34437
     2008.11498       -17.70242         5.46083
     2008.11772         1.02765         5.46468
     2008.12046        -2.11929         5.37324
     2008.12320        -4.53523         5.49547
     2008.12594         5.50984         5.58594
     2008.12867         0.21290         5.34726
     2008.13141         3.49496         5.34822
     2008.13415        -6.72897         5.50221
     2008.13689         8.69109         5.40115
     2008.13963         0.74415         5.37517
     2008.14236         2.46822         5.36554
     2008.14510         1.39528         5.36170
     2008.14784         9.91134         5.32127
     2008.15058         2.24241         5.36266
     2008.15331        -3.65053         5.39731
     2008.15605        -5.18547         5.47045
     2008.15879        -3.08440         5.39346
     2008.16153        -9.16634         5.41270
     2008.16427        -0.71228         5.47430
     2008.16700        -4.01721         5.37421
     2008.16974        -5.66115         5.53397
     2008.17248        -3.15709         5.35015
     2008.17522        -1.18802         5.39923
     2008.17796        -5.98796         5.40693
     2008.18069       -10.08490         5.37902
     2008.18343         2.23617         5.40115
     2008.18617        -8.95077         5.32801
     2008.18891        -3.67571         5.50606
     2008.19164        -8.02564         5.49259
     2008.19438         0.83442         5.34918
     2008.19712        -0.98752         5.41752
     2008.19986         0.78355         5.38961
     2008.20260         0.72261         5.34245
     2008.20533         3.32567         5.47911
     2008.20807        -1.28126         5.52723
     2008.21081        -5.91220         5.76688
     2008.21355         0.86186         5.45313
     2008.21629        -2.49007         5.47815
     2008.21902        -5.36001         5.52723
     2008.22176        -8.14295         5.42618
     2008.22450        -2.65188         5.49259
     2008.22724        -5.31382         5.44639
     2008.22997         2.29924         5.47526
     2008.23271         0.26031         5.61578
     2008.23545         5.14537         5.59845
     2008.23819        -2.07757         5.52723
     2008.24093        -1.49950         5.36266
     2008.24366        -9.19044         5.43869
     2008.24640         3.75062         5.35207
     2008.24917         4.67170         5.38576
     2008.25188         2.80675         5.40789
     2008.25462         4.47281         5.29433
     2008.25735        -4.93513         5.45120
     2008.26009         2.95094         5.33186
     2008.26283         0.94900         5.30876
     2008.26557        -1.64694         5.37517
     2008.26830        -4.10487         5.30972
     2008.27104        -0.58381         5.32512
     2008.27378        -1.80875         5.71491
     2008.27652        -3.61468         5.36073
     2008.27926         1.27238         5.49451
     2008.28199         3.17344         5.39731
     2008.28473         6.92751         5.41174
     2008.28747         9.31957         5.43869
     2008.29021        -0.37737         5.53782
     2008.29295         0.47370         5.33475
     2008.29568         4.04376         5.36458
     2008.29842         0.90782         5.39827
     2008.30116         1.96189         5.33763
     2008.30390        -2.35105         5.33571
