# ================= DQRFIT RESULTS ================
# INPUT FILE: series/PDTN.rad
# OUTPUT: LDETRENDED
# FILTER FUNCTION: f(t)
# f(t)=+line(t)+annual(t)
# line(t)=+P 1+P 2*t
# annual(t)=+P 3*sin(2*pi*t+P 4)
# heav(t)=(t<0?0:1)
# TOTAL OBSERVATIONS MTOT= 3964
# INITIAL TIME INTERVAL= 2022.7488 - 2011.8330 = 10.9158
# TOTAL OBSERVATIONS AFTER PREFILTER M= 3937
# TIME-SPAN= 2022.7488 - 2011.8330 = 10.9158
# OBSERVATIONS: USED M=  3937 REJECTED MTOT-M=    27 %USED=   99.3189
# N=  4 PARAMETERS
# MAXSIG= 175.00000
# MAXRES=  56.66578
# SCALE FACTOR FOR LENGTHS: SCL=  10.00000
# SCALE FACTOR FOR SIGMAS: SCLSIG=   1.00000
# CHI^2=  20204.013 DOF=  3933 CHI^2/DOF=   5.13705
# RMS=     12.430 SDEV=     12.429 MEAN=    0.26887
#  P #       PARAMETER +-    SIGMA %error PARAMETER NAME
# P 1 =     -4840.46785 +-  130.202   2.69 YZERO                              
# P 2 =         2.40448 +-    0.065   2.68 SLOPE                              
# P 3 =         4.43177 +-    0.284   6.40 ANNUAL AMPLITUDE                   
# P 4 =         2.68821 +-    0.082   3.03 ANNUAL PHASE                       
#       T            LDETRENDED       SIG_OBS
     2011.83299         5.77497        12.93495
     2011.83572         6.49639        12.74003
     2011.83846         7.57380        12.99614
     2011.84120        13.45322        12.78083
     2011.84394        13.56964        13.11174
     2011.84668        11.79204        12.81256
     2011.84941         6.58747        12.84882
     2011.85215         2.26989        12.91455
     2011.85489         2.58930        12.96441
     2011.85763         3.34172        13.34745
     2011.86036        17.03814        12.90095
     2011.86310        17.22255        13.17067
     2011.86585         6.49796        13.12080
     2011.86858        19.45739        12.86695
     2011.87132         9.15081        13.11400
     2011.87405         0.87922        13.27492
     2011.87679        14.57164        13.23639
     2011.87953        13.29406        12.76949
     2011.88227         9.85847        12.69017
     2011.88501        10.60588        12.61537
     2011.88774         5.20631        12.77403
     2011.89048        10.22572        12.82162
     2011.89322         9.99114        13.00974
     2011.89596        12.75756        12.67203
     2011.89869         3.40297        12.99841
     2011.90143         3.62839        12.70377
     2011.90418        16.49780        12.72643
     2011.90691        11.45423        12.91455
     2011.90965         8.47764        12.60631
     2011.91238         8.82206        13.20693
     2011.91512         5.71448        12.70377
     2011.91786        13.55589        13.16840
     2011.92060         3.47031        12.80123
     2011.92334         2.20173        12.80576
     2011.92607         1.79114        12.85335
     2011.92881         3.04956        12.93042
     2011.93155         8.91798        12.91002
     2011.93429         7.78139        12.79216
     2011.93702         7.26581        12.73096
     2011.93976         8.81323        12.79443
     2011.94251         8.81463        12.72643
     2011.94524         6.90906        12.86469
     2011.94798        12.91448        12.90095
     2011.95071        13.85290        12.57684
     2011.95345        11.57331        12.83522
     2011.95619         6.79673        12.86015
     2011.95893         7.23715        12.49298
     2011.96166        16.32659        12.62670
     2011.96449         5.08776        13.09134
     2011.96714         6.58740        12.57004
     2011.96988         6.68181        12.40232
     2011.97262         5.73723        12.37286
     2011.97535         7.72765        12.41592
     2011.97809         6.75906        12.35246
     2011.98084         7.38047        12.36606
     2011.98357        11.64490        12.30259
     2011.98631        12.45032        12.49978
     2011.98904        11.10373        12.62444
     2011.99178        15.27315        12.88735
     2011.99452        15.02657        12.41592
     2011.99726        13.16798        12.39552
     2012.00273        10.76582        12.41819
     2012.00547         7.71123        12.36606
     2012.00821         5.51265        12.55644
     2012.01095        16.48007        12.45672
     2012.01368        17.03448        12.28899
     2012.01642        15.71490        12.24593
     2012.01916        11.45331        12.25953
     2012.02190        12.28573        12.28446
     2012.02464        12.46015        12.44312
     2012.02737        10.50557        12.19833
     2012.03011         9.71999        12.25500
     2012.03285         7.48940        12.13714
     2012.03559        11.48082        12.46352
     2012.03833        13.61022        12.29353
     2012.04106        11.47365        12.42272
     2012.04380        16.35407        12.29806
     2012.04654        21.21449        12.40912
     2012.04928        16.03290        12.30939
     2012.05201         0.18932        12.40005
     2012.05475        19.87474        12.64030
     2012.05749        12.27914        12.53604
     2012.06023        16.08657        12.52924
     2012.06297         8.97199        12.25726
     2012.06570        15.57841        12.46805
     2012.06844         6.75282        12.76949
     2012.07118         6.71224        12.28446
     2012.07392         5.27666        12.36606
     2012.07666         9.31806        12.24820
     2012.07939        15.41549        12.24366
     2012.08213        12.64891        12.31393
     2012.08487        14.21832        12.31393
     2012.08761         7.08374        12.34792
     2012.09034         4.58316        12.12354
     2012.09308         7.36557        12.09861
     2012.09582         7.10198        12.20060
     2012.09856         6.63141        12.19380
     2012.10130         6.80882        12.68337
     2012.10403         4.39624        12.23913
     2012.10677         3.78766        12.35472
     2012.10951         9.28408        12.33659
     2012.11225         9.28149        12.34566
     2012.11499         7.74890        12.29806
     2012.11772        13.21533        12.34792
     2012.12046        14.31074        12.24140
     2012.12320         9.60816        12.32073
     2012.12594         4.96558        12.37512
     2012.12867         7.97099        12.28446
     2012.13141         5.97041        12.38645
     2012.13415        10.75782        12.36379
     2012.13689        11.09824        12.38419
     2012.13963         8.71866        12.66297
     2012.14236         6.39108        12.91228
     2012.14510         6.96250        12.45445
     2012.14784         2.67091        12.21873
     2012.15058         7.69933        12.35699
     2012.15332         6.33073        12.19154
     2012.15605         2.77216        12.34792
     2012.15879         5.16958        12.35699
     2012.16153         8.89700        12.26633
     2012.16427        10.77841        12.41139
     2012.16700         5.65583        12.44312
     2012.16974         4.58625        12.34339
     2012.17248         1.90365        12.18927
     2012.17522         6.71608        12.27313
     2012.17796         9.85650        12.31166
     2012.18069         1.80591        12.30486
     2012.18343        -1.29667        12.27993
     2012.18617         1.89675        12.14620
     2012.18891         7.31217        12.37739
     2012.19165         9.25257        12.36379
     2012.19438        11.18600        12.35246
     2012.19712         9.63442        12.42952
     2012.19986        11.26983        12.28220
     2012.20260         7.43525        12.46805
     2012.20533        14.13167        12.36606
     2012.20807         7.21608        12.36152
     2012.21081        11.22749        12.15300
     2012.21355         8.22792        12.17567
     2012.21629         9.19833        12.28446
     2012.21902         0.43875        12.15527
     2012.22176         4.66217        12.27540
     2012.22450        -0.24141        12.29353
     2012.22724        -1.45800        12.27313
     2012.22998         5.46541        12.35926
     2012.23271         9.14284        12.40459
     2012.23545         8.42725        12.14620
     2012.23819         5.34267        12.44992
     2012.24093         6.73109        12.29579
     2012.24366        11.87350        12.54284
     2012.24640         5.53092        12.39325
     2012.24914         7.91333        12.28673
     2012.25188         2.36975        12.10541
     2012.25462         6.04217        12.33432
     2012.25735         5.99459        12.27540
     2012.26009         4.07300        12.34339
     2012.26283         1.02342        12.10994
     2012.26557         2.36484        12.06461
     2012.26831         4.73024        12.06234
     2012.27104         4.78367        12.46125
     2012.27378        -0.77791        12.32299
     2012.27652        12.59351        12.17340
     2012.27926         4.53792        12.59044
     2012.28199         7.15534        12.31393
     2012.28473         6.87276        12.08728
     2012.28747         2.32716        12.39552
     2012.29021         2.53359        12.28899
     2012.29295         3.49101        12.27086
     2012.29568         0.48242        12.36379
     2012.29842         4.92484        12.37512
     2012.30116        -3.10974        12.50431
     2012.30390        -2.25132        12.27086
     2012.30664        -3.06592        12.35246
     2012.30937         1.81951        12.39099
     2012.31211         9.74093        12.94628
     2012.31485         4.28334        12.61990
     2012.31759         4.58776        12.32073
     2012.32032         2.04718        12.42272
     2012.32306         2.09159        12.16887
     2012.32580        -1.33100        12.18700
     2012.32854         4.95343        12.69470
     2012.33128         9.83484        12.53151
     2012.33401         5.39926        12.52924
     2012.33675         2.66268        12.33432
     2012.33949         3.78509        12.34112
     2012.34223        -0.03349        12.12807
     2012.34497        -2.21408        12.10541
     2012.34770        -1.54465        12.41592
     2012.35044        -1.71024        12.19154
     2012.35318         4.95018        12.63124
     2012.35592         4.43660        12.30486
     2012.35865         1.56801        12.11447
     2012.36139         1.23043        12.15074
     2012.36413        -1.05016        13.85515
     2012.36687         6.00926        12.34566
     2012.36961         0.04568        12.40232
     2012.37234         4.04310        12.25953
     2012.37508         4.63551        12.47711
     2012.37782         1.40293        12.56551
     2012.38056         0.78635        12.53151
     2012.38330         7.68475        12.41139
     2012.38603         6.94718        12.50205
     2012.38877        -3.11940        12.49978
     2012.39151        12.02502        12.46125
     2012.39425         5.36743        12.27313
     2012.39698         7.56585        12.58364
     2012.39972         2.71127        12.22327
     2012.40246         6.89667        12.54511
     2012.40520         3.68010        12.28673
     2012.40794         3.32452        12.36379
     2012.41067         5.11293        12.41139
     2012.41341         5.46235        12.25726
     2012.41615         3.43277        12.37739
     2012.41889         6.00818        12.59044
     2012.42162         5.59160        12.36606
     2012.42436         7.23802        12.25726
     2012.42710         3.28644        12.19833
     2012.42984         4.14985        12.15754
     2012.43258        -1.11773        12.35246
     2012.43531        -0.60531        12.55871
     2012.43805         3.94110        12.26406
     2012.44079        -3.67249        12.22553
     2012.44353        -9.31206        12.34339
     2012.44626         1.37935        12.24140
     2012.44900         2.96277        12.46805
     2012.45174         2.15119        12.18020
     2012.45448         2.60260        12.47032
     2012.45722         5.98102        12.36606
     2012.45996        10.76943        12.77856
     2012.46269        15.35286        12.26180
     2012.46543         3.78827        12.31166
     2012.46817         4.21069        12.20740
     2012.47091         3.32111        12.11901
     2012.47364         2.26552        12.31619
     2012.47638        -1.62006        14.34925
     2012.47912         5.87235        12.27993
     2012.48186         6.41577        12.35246
     2012.48459         5.77319        12.37286
     2012.48733        -2.89439        12.18020
     2012.49007         5.16402        12.17567
     2012.49281         2.87744        12.43178
     2012.49555         2.29986        12.27540
     2012.49833         6.84716        12.34566
     2012.50102         8.30369        12.42272
     2012.50376         7.25511        12.30259
     2012.50650         5.62953        12.31846
     2012.50924         6.22094        12.37966
     2012.51197         4.54536        12.47485
     2012.51471         2.64778        12.34792
     2012.51745         7.56718        12.41139
     2012.52019         9.20961        13.03468
     2012.52292        12.27603        12.57231
     2012.52566         7.28844        12.44992
     2012.52840        10.24486        12.21873
     2012.53114        11.42528        12.19833
     2012.53388        14.55169        12.76269
     2012.53662        11.98510        12.47711
     2012.53935        14.68353        13.47438
     2012.54209         9.81295        12.64484
     2012.54483         9.12136        12.21193
     2012.54757         5.89978        12.45218
     2012.55030         2.76120        12.86695
     2012.55304         8.43361        12.15527
     2012.55578         2.81202        12.22780
     2012.55852         3.91945        12.21647
     2012.56125         7.46086        12.06008
     2012.56399         9.87028        12.24140
     2012.56673        10.77970        12.16434
     2012.56947         8.16411        12.32073
     2012.57221         6.67453        12.30939
     2012.57495         4.28394        12.17567
     2012.57768         6.95136        12.44312
     2012.58042        18.95178        13.61037
     2012.58316        11.75920        12.08048
     2012.58590         8.58462        12.22780
     2012.58858        11.37217        12.19833
     2012.59138         9.57943        12.23460
     2012.59411         9.07785        12.16207
     2012.59685         9.23028        12.44312
     2012.59958        10.59770        12.26406
     2012.60232         5.64112        12.91455
     2012.60506         2.09853        12.23913
     2012.60780         7.80695        12.11447
     2012.61054        12.86137        12.03288
     2012.61328        11.31477        11.95355
     2012.61601        13.62720        12.29579
     2012.61875         9.67762        12.30486
     2012.62149        11.82004        12.26633
     2012.62423         9.54145        12.15074
     2012.62696        11.18187        12.37059
     2012.62970         7.87329        12.09408
     2012.63244         9.57569        12.14394
     2012.63518        14.81012        12.50431
     2012.63791        12.77054        12.27313
     2012.64065         9.86795        12.31619
     2012.64339        14.34937        12.17340
     2012.64613        12.78479        12.32299
     2012.64887        10.56320        12.03061
     2012.65161        20.30661        12.27313
     2012.65434        10.56304        12.22553
     2012.65708        16.53645        12.49071
     2012.65982        10.09287        12.49751
     2012.66256        15.38829        12.02608
     2012.66529        13.64371        12.22553
     2012.66803         9.10312        12.45672
     2012.67077        14.17853        12.27086
     2012.67351        13.86596        12.15980
     2012.67624        11.78937        12.49751
     2012.67898        13.49479        12.06461
     2012.68172        14.52021        12.31846
     2012.68446        13.83462        12.06914
     2012.68720        13.29004        12.30033
     2012.68994        13.36045        12.39325
     2012.69267        20.13487        12.48845
     2012.69541        12.77529        12.34112
     2012.69815        11.87771        12.31166
     2012.70089         7.67812        12.31846
     2012.70362         6.09354        12.16207
     2012.70636        15.06096        12.43858
     2012.70910         8.34236        12.17114
     2012.71184        12.26679        12.21647
     2012.71457        11.73521        12.08728
     2012.71731        15.62363        12.12354
     2012.72005        15.70404        12.07141
     2012.72279        15.43846        12.10314
     2012.72553        14.65288        12.13261
     2012.72827        13.19128        12.23687
     2012.73100        15.26271        12.44085
     2012.73374        12.37113        12.40459
     2012.73648        13.46254        12.23913
     2012.73921        10.95596        12.23687
     2012.74195        12.82038        13.15480
     2012.74469        10.83380        12.22780
     2012.74743        16.85920        12.25046
     2012.75017        12.07263        12.45898
     2012.75290        25.16105        12.28899
     2012.75564        10.30546        12.22780
     2012.75838        12.12788        12.11674
     2012.76112        11.61230        12.12354
     2012.76386        14.07071        12.08048
     2012.76660        15.25412        12.21647
     2012.76933        12.14255        12.28220
     2012.77207        17.18496        12.25500
     2012.77481         9.63138        12.20287
     2012.77754        12.86080        12.33206
     2012.78028        15.05421        12.54284
     2012.78302        13.06063        12.30259
     2012.78576        12.90104        12.31619
     2012.78850        12.06347        12.47032
     2012.79123        13.46388        12.94175
     2012.79397        16.41830        12.36832
     2012.79671         8.02772        12.28673
     2012.79945        11.32713        12.92362
     2012.80219        20.31855        12.62217
     2012.80493         8.34396        12.35019
     2012.80766        12.04838        12.97121
     2012.81040         8.73080        12.45445
     2012.81314         7.38122        12.45672
     2012.81587         2.04963        12.52698
     2012.81861        -0.13995        12.69017
     2012.82135         3.13547        12.42272
     2012.82409        -0.80713        12.75363
     2012.82683         9.93030        12.45445
     2012.82956         6.81172        12.40232
     2012.83230         8.32314        12.40685
     2012.83504         0.92355        12.52471
     2012.83778         6.77497        12.19380
     2012.84052         2.25539        12.41592
     2012.84326         4.98279        12.44538
     2012.84599         8.44322        12.87829
     2012.84873         6.28964        12.75363
     2012.85147        13.60305        12.60404
     2012.85420         4.25247        12.30939
     2012.85694         8.51689        12.23687
     2012.85968         8.90830        12.33659
     2012.86242         6.22371        12.46125
     2012.86516        13.09414        12.52471
     2012.86789         3.67056        12.81709
     2012.87063         6.95497        12.18020
     2012.87337         4.76139        12.23007
     2012.87611         6.13681        12.70377
     2012.87885        11.19122        12.50205
     2012.88158         4.97964        12.47032
     2012.88432        10.43506        12.40685
     2012.88706        14.52247        12.62217
     2012.88980        10.88489        12.91228
     2012.89253         6.00131        12.35246
     2012.89527         4.67172        12.50431
     2012.89801         7.50814        12.43632
     2012.90075         9.18855        12.45898
     2012.90349         4.67598        12.35246
     2012.90622         9.98539        12.26180
