# ================= DQRFIT RESULTS ================
# INPUT FILE: series/PER1.rad
# OUTPUT: LDETRENDED
# FILTER FUNCTION: f(t)
# f(t)=+line(t)+annual(t)
# line(t)=+P 1+P 2*t
# annual(t)=+P 3*sin(2*pi*t+P 4)
# heav(t)=(t<0?0:1)
# TOTAL OBSERVATIONS MTOT= 1821
# INITIAL TIME INTERVAL= 2011.9906 - 2006.6010 =  5.3897
# TOTAL OBSERVATIONS AFTER PREFILTER M= 1819
# TIME-SPAN= 2011.9863 - 2006.6010 =  5.3854
# OBSERVATIONS: USED M=  1819 REJECTED MTOT-M=     2 %USED=   99.8902
# N=  4 PARAMETERS
# MAXSIG= 175.00000
# MAXRES=  54.83349
# SCALE FACTOR FOR LENGTHS: SCL=  10.00000
# SCALE FACTOR FOR SIGMAS: SCLSIG=   1.00000
# CHI^2=   4504.346 DOF=  1815 CHI^2/DOF=   2.48173
# RMS=     11.328 SDEV=     11.327 MEAN=   -0.29650
#  P #       PARAMETER +-    SIGMA %error PARAMETER NAME
# P 1 =     18041.38441 +-  339.250   1.88 YZERO                              
# P 2 =        -8.95778 +-    0.169   1.88 SLOPE                              
# P 3 =         6.42152 +-    0.369   5.75 ANNUAL AMPLITUDE                   
# P 4 =        -2.74551 +-    0.075   2.72 ANNUAL PHASE                       
#       T            LDETRENDED       SIG_OBS
     2006.60095         2.80939         9.64588
     2006.60369        -5.24909         9.89006
     2006.60643         5.70444         9.97040
     2006.60917         2.91696         9.54663
     2006.61190         7.77749         9.82074
     2006.61464         4.99401         9.55136
     2006.61738         2.03154         9.70102
     2006.62012         5.30106         9.78293
     2006.62286         4.01859         9.68841
     2006.62559        -0.06189         9.63800
     2006.75154         8.29327        10.00506
     2006.75975        12.24284         9.81759
     2006.76249        15.83837        10.04602
     2006.76522         7.29789        10.16732
     2006.76796         8.46042        10.24766
     2006.77070         9.56994         9.89006
     2006.77344        -0.05153         9.87431
     2006.77618         9.81699         9.87273
     2006.77891        16.46552        10.03657
     2006.78165        12.76804         9.62855
     2006.78439         5.69357         9.66478
     2006.78713         8.78909        10.06020
     2006.78987         6.64862        10.08383
     2006.79260         8.04614         9.82704
     2006.79534         9.13867        10.11848
     2006.79808        -4.30081        10.04602
     2006.80082         5.54572        10.29020
     2006.80355         1.73524         9.50882
     2006.80629         6.69877         9.57341
     2006.80903         5.47429         9.67581
     2006.81177        -0.99418         9.75143
     2006.81451         2.75534         9.87588
     2006.81724         3.77687         9.99246
     2006.81998         1.86139         9.45684
     2006.82272         7.25292         9.60650
     2006.82546        -3.95456        10.05074
     2006.82820         1.71097         9.39067
     2006.83093        -0.48951         9.38595
     2006.83367         5.36502         9.51513
     2006.83641         4.49554         9.59704
     2006.83915        -8.09393         9.90581
     2006.84188        -8.52041        10.13739
     2006.84462         0.32212         9.79869
     2006.84736        -7.00436         9.88848
     2006.85010         7.14817        10.54541
     2006.85284        14.14569        10.32486
     2006.85557         6.98622        10.22876
     2006.85831        -7.39726         9.64903
     2006.86105         7.19027        10.10431
     2006.86379         8.15679        10.05862
     2006.86653         3.32432        10.12321
     2006.86926       -12.53116         9.68841
     2006.87200         0.41737         9.57184
     2006.87474        -4.80211         9.73095
     2006.87748        10.20942         9.53718
     2006.88021         4.68194         9.53560
     2006.88295         9.14747        10.20355
     2006.88569        -4.36301         9.78136
     2006.88843        -7.97048         9.96883
     2006.89117        -3.43096         9.65848
     2006.89390        -1.31943         9.99561
     2006.89664         7.92410         9.82074
     2006.89938        -0.97638         9.60807
     2006.90212        -2.47585         9.49937
     2006.90485       -24.34933        10.56588
     2006.90759         8.05520         9.55766
     2006.91033        -4.07628         9.51197
     2006.91295        -5.39778        10.12164
     2006.91581       -17.03223         9.66951
     2006.91854       -11.63370         9.46314
     2006.92128        -5.80218         9.48047
     2006.92402        -6.03765         9.50252
     2006.92676        -4.32413         9.69156
     2006.92950        -0.12860         9.64745
     2006.93223        -0.29408         9.62698
     2006.93497         4.41645        10.02869
     2006.93771        16.68997         9.90109
     2006.94045        13.99850         9.82862
     2006.94318         4.58502         9.85383
     2006.94592         8.66855         9.99088
     2006.94866        11.50007        10.01924
     2006.95140         3.87960         9.81287
     2006.95414         1.16512        10.22561
     2006.95687        12.84965         9.58287
     2006.95961         2.08317         9.56869
     2006.96235         8.82170         9.62855
     2006.96509        12.24022        10.01766
     2006.96783        10.49975        10.15157
     2006.97056         4.21127         9.79081
     2006.97330         0.32780         9.78609
     2006.97604        -0.09468         9.63485
     2006.97878        15.73785         9.95307
     2006.98151         5.42437         9.86800
     2006.98425         4.44190         9.59074
     2006.98699         4.01042         9.88218
     2006.99794         7.42152         9.83177
     2007.00616         0.28210         9.98931
     2007.00889        -6.52038        10.01924
     2007.01163         8.22015         9.83177
     2007.01437        -1.17933         9.81129
     2007.01984        -9.76128         9.70889
     2007.02258        -1.39275         9.62855
     2007.02504        -0.36978        11.05897
     2007.05544         3.69055         9.26937
     2007.05817        -8.47593         9.66793
     2007.06091        -1.37340         9.55293
     2007.06365        -3.36488         9.05040
     2007.06639        -3.07935         9.53245
     2007.06913        -3.80883         9.35917
     2007.07186       -12.03230         9.06615
     2007.07460       -13.90378         9.30403
     2007.07734         0.31375         9.40170
     2007.08008        -9.20473         9.16382
     2007.08282         2.52880         9.20793
     2007.08555        -1.57168         9.46471
     2007.08829        -5.48615         9.45526
     2007.09103         2.51437         9.58129
     2007.09377         6.90990         9.57499
     2007.09650         4.09042         9.52300
     2007.09924        -5.78405         9.49622
     2007.10198        -6.39753         9.33869
     2007.10472        -2.21100         9.60019
     2007.10746         6.30252         9.83177
     2007.11019        10.25905         9.38752
     2007.11293        -2.71743         9.43951
     2007.11567        -4.05490         9.46786
     2007.11841        -3.35738         9.42848
     2007.12115        -2.14585         9.49622
     2007.12388         7.74967         9.66321
     2007.12662         0.96420         9.64430
     2007.12936        -2.83128         9.60492
     2007.13210         4.22325         9.90109
     2007.13466         9.72924        10.06965
     2007.13757        19.88230         9.64745
     2007.14031         5.37382         9.48992
     2007.14305        12.21135         9.75300
     2007.14579        -4.74413         9.48519
     2007.14852        -3.56560         9.55766
     2007.15126         5.75993         9.52300
     2007.15400         6.46645         9.49780
     2007.15674        11.22998         9.37334
     2007.15948         4.56750         9.30088
     2007.16221        -1.69097         9.84910
     2007.16495         2.11055         9.73882
     2007.16769        -5.91492        10.05390
     2007.17043         7.58060         9.84595
     2007.17316         1.35513         9.83492
     2007.17590         3.40765         9.56711
     2007.17864         9.73018         9.84437
     2007.18138        -2.76330         9.79396
     2007.18412         1.05823         9.55766
     2007.18685         7.04975        10.06335
     2007.18959        -3.03172         9.87588
     2007.19233       -14.01120         9.77033
     2007.19507        -5.02067         9.55608
     2007.19780         5.43385         9.41115
     2007.20054        -0.56362         9.51828
     2007.20328         1.18590         9.42060
     2007.20602         4.30843         9.64745
     2007.20876        -6.99905         9.56869
     2007.21149         0.58748         9.51828
     2007.21423         0.75100         9.81602
     2007.21697         1.97953         9.53560
     2007.21971         3.97305         9.47417
     2007.22245        -2.14042         9.44108
     2007.22518        -4.24690         9.67581
     2007.22792         3.33863         9.95780
     2007.23066         9.93915         9.40958
     2007.23340        -0.51532         9.66478
     2007.23613       -14.32680         9.56081
     2007.23887        -4.05227         9.29300
     2007.24161         5.36325        10.03657
     2007.24435        -2.14022        10.68561
     2007.24709        -7.34070        10.60212
     2007.24982       -11.12817        11.38664
     2007.25256        -0.83965        10.58951
     2007.25530        -3.10112        10.51390
     2007.25804         6.50140        11.04637
     2007.26078        -7.80007        10.96760
     2007.26351         6.24145        10.90931
     2007.26625        11.24998        11.32835
     2007.26899        -0.42650        10.74390
     2007.27173         3.46303        11.09205
     2007.27446        -4.76745        11.18027
     2007.27720         6.36508        10.58321
     2007.27994        -4.34340        10.91246
     2007.28268         0.86113        11.16609
     2007.28542        -2.51735        10.81006
     2007.31553        -1.62257        10.38157
     2007.31827        -7.97105        10.82109
     2007.32101        -6.09652        10.79589
     2007.32375        -4.98900        10.61157
     2007.32648        -0.83947        10.78643
     2007.32922       -14.31595        10.56904
     2007.33196         3.16058        11.19918
     2007.33470       -10.33890        11.08890
     2007.33744        -0.59437        10.81794
     2007.34017       -10.39285        10.67458
     2007.34291       -14.62032        10.97705
     2007.34565       -11.45780        10.73130
     2007.34839         0.17773        10.42568
     2007.35112         1.89725        11.18027
     2007.35392        -9.80171        12.02466
     2007.35660         4.23930        11.61192
     2007.35934        -6.49217        11.20705
     2007.36208        -7.53865        10.87465
     2007.36481       -16.48712        11.17712
     2007.36755       -15.15360        10.60999
     2007.37029         4.26793        10.86363
     2007.37303        -7.90755        11.41342
     2007.37577        -4.46202        10.77226
     2007.37850       -14.54850        11.10466
     2007.38124        -7.32297        10.96602
     2007.38398        -5.42745        11.04637
     2007.38672       -16.61692        10.37369
     2007.38945        -3.50840        10.65095
     2007.39219       -18.99687        10.87150
     2007.39493        -3.50635        10.80061
     2007.39767       -10.21582        10.74705
     2007.40041         0.51670        11.18342
     2007.40314       -11.57777        10.92506
     2007.40588        -9.90324        10.62890
     2007.40856        -3.31723        11.04007
     2007.41136        -1.14119        10.95027
     2007.41410        -0.65767        10.73445
     2007.41683        -5.81914        10.78958
     2007.41957        -4.80262        11.07315
     2007.42231         1.70191        11.14404
     2007.42505        10.24243        11.02589
     2007.42778        -1.50404        11.19445
     2007.43052         1.20148        10.79274
     2007.43326        -0.47799        10.76280
     2007.43600         2.74853        12.49727
     2007.43874        -0.98094        10.94397
     2007.44147         1.20158        11.27637
     2007.44426       -13.61147        12.44370
     2007.44695       -12.83837        11.28267
     2007.44969       -10.09784        11.06527
     2007.45243        -3.91132        11.07787
     2007.45516        -0.65879        10.43828
     2007.45790         3.07373        11.07157
     2007.46064        -4.92974        11.46384
     2007.46338        -5.62122        10.93767
     2007.46611       -15.20269        10.62417
     2007.46885         1.53883        10.81479
     2007.47159         6.00636        11.13301
     2007.47433         0.65788        10.87308
     2007.47707        -1.71959        11.24014
     2007.47980       -12.55907        10.96287
     2007.48254       -15.25754        10.61472
     2007.48528         0.39098        10.83685
     2007.48802        -5.66249        10.53910
     2007.49076         7.81703        10.90931
     2007.49349        -2.37144        10.78328
     2007.49623       -10.72192        10.94239
     2007.49897        -0.96939        11.06055
     2007.50171        -8.57387        10.72657
     2007.50444         0.42766        10.49027
     2007.50718        -3.98382        10.54541
     2007.50992        -4.03429        10.89986
     2007.51266        -1.61777        10.72184
     2007.51540        -6.87124        10.94082
     2007.51813        -2.34072        10.62260
     2007.52087         4.79581        10.98178
     2007.52350         6.77831        11.56938
     2007.52635        -6.30814        10.52177
     2007.52908        20.20038        11.42130
     2007.53182         5.64891        11.27479
     2007.53456         6.71343        11.08418
     2007.53730        -1.49604        10.65726
     2007.54004        14.09548        10.91246
     2007.54277        11.51101        10.85732
     2007.54551         7.50053        10.72657
     2007.54825        11.64806        10.85890
     2007.55099         0.08258        10.80376
     2007.55373        -2.84589        11.07315
     2007.55646         9.89563        10.82739
     2007.55920        13.84516        10.40677
     2007.56194         8.79568        10.53753
     2007.56468         2.81021        10.60842
     2007.56741         5.90773        10.85732
     2007.57015         6.54726        11.12356
     2007.57289        10.15678        10.71554
     2007.57563        14.40331        10.50602
     2007.57837         0.71983        10.76280
     2007.58110        12.85236        10.76911
     2007.58384         7.12188        10.61630
     2007.58658         0.90541        10.65726
     2007.58932        16.05293        10.55171
     2007.59206        13.15446        10.71397
     2007.59479        12.22298        10.97390
     2007.59753        11.69151        10.86205
     2007.60027         7.05503        10.81794
     2007.60301         7.81156        10.66671
     2007.60574         5.61708        10.89041
     2007.60848        12.87961        10.75335
     2007.61122         9.54713        10.67773
     2007.61396         9.39066        10.59897
     2007.61670        15.01118        11.64658
     2007.61943         8.99071        12.06562
     2007.62217        -0.06177        11.21650
     2007.62491         7.10176        11.46384
     2007.62765        17.18428        11.58671
     2007.63039        14.61481        11.36301
     2007.63312         5.85633        11.46226
     2007.63586         3.15586        11.26849
     2007.63860        -2.61462        11.02116
     2007.64134        10.26191        10.78328
     2007.64407        25.89143        11.35829
     2007.64681        25.01996        11.36616
     2007.64955        12.44648        12.04672
     2007.65229         5.62001        11.56781
     2007.65503         6.67554        11.01959
     2007.65776         8.81706        10.87780
     2007.66050        18.07059        11.03534
     2007.66324        22.38911        11.20705
     2007.66598         8.78164        11.21808
     2007.66872        23.03816        11.51110
     2007.67145        12.53069        11.15034
     2007.67419        28.65021        12.25781
     2007.67693        11.92574        11.05582
     2007.67967        16.74826        11.23698
     2007.68240        24.05379        11.49534
     2007.68514        12.66331        11.30945
     2007.68788        10.96984        11.79623
     2007.69062        12.38836        10.86363
     2007.69336        13.92389        10.82267
     2007.69609        14.10541        10.82897
     2007.69883        13.75994        11.24014
     2007.70157        25.75046        11.31733
     2007.70431        18.20999        11.09993
     2007.70705        17.95051        11.74267
     2007.70978        18.76804        11.35514
     2007.71252         7.23056        11.07000
     2007.71526         8.04609        10.75650
     2007.71800        13.54961        10.58164
     2007.72073        21.98214        11.18027
     2007.72347        24.83266        10.59424
     2007.72621        14.76119        10.59897
     2007.72895        17.65171        10.84630
     2007.73169        19.97524        10.98808
     2007.73442        14.31676        11.40397
     2007.73716         5.58229        10.98808
     2007.73990        11.70881        10.95657
     2007.74264        20.33434        10.55643
     2007.74538         7.74086        10.94239
     2007.74811        10.65839        11.18815
     2007.75085         0.73691        11.45123
     2007.75359        -0.76456        11.63870
     2007.75633         8.31696        11.09678
     2007.75906        10.29449        10.74075
     2007.76180         7.72501        11.18500
     2007.76454        14.25854        10.88568
     2007.76728         2.27706        11.90651
     2007.77002        -1.45141        11.79939
     2007.77275        11.30511        10.89828
     2007.77549        12.64964        11.06685
     2007.77823         5.94816        10.75650
     2007.78097         3.39369        10.90931
     2007.78371        -1.49679        10.60527
     2007.78644        11.72774        11.14246
     2007.78918         3.27126        10.85417
     2007.79192        15.74579        11.12198
     2007.79466         8.27731        11.09835
     2007.79739        11.69084        11.25116
     2007.80013         3.23136        10.85890
     2007.80276        -9.33213        11.22438
     2007.80561         6.32141        10.85732
     2007.80835         9.49094        11.35671
     2007.81108         2.93246        11.78993
     2007.81382        -6.94101        11.10781
     2007.81656       -12.48349        11.53788
     2007.81930        -7.08896        11.23383
     2007.82203        -9.83544        11.00383
     2007.82477         0.08209        11.69384
     2007.82751       -12.51839        11.35829
     2007.83025       -11.78786        10.98965
     2007.83299         6.33866        10.97390
     2007.83572        -7.36181        10.79274
     2007.83846         0.44171        10.91404
     2007.84120        12.04124        11.18972
     2007.84394       -10.36724        10.68089
     2007.84668       -12.57871        10.95972
     2007.84941        -6.91519        10.90143
     2007.85215        -7.15866        11.36144
     2007.85489        -9.68914        11.79623
     2007.85763        -0.59161        10.92034
     2007.86036         6.73691        10.66041
     2007.86310        10.39844        11.11726
     2007.86584        -1.65504        10.99596
     2007.86858        -5.61751        10.72184
     2007.87132        -9.78899        11.15349
