# ================= DQRFIT RESULTS ================
# INPUT FILE: series/PKDL.rad
# OUTPUT: LDETRENDED
# FILTER FUNCTION: f(t)
# f(t)=+line(t)+annual(t)+jumps(t)
# line(t)=+P 1+P 2*t
# annual(t)=+P 3*sin(2*pi*t+P 4)
# jumps(t)=+P 5*heav(t-2011.8110  )
# heav(t)=(t<0?0:1)
# TOTAL OBSERVATIONS MTOT= 4162
# INITIAL TIME INTERVAL= 2022.7488 - 2008.9724 = 13.7764
# TOTAL OBSERVATIONS AFTER PREFILTER M= 4135
# TIME-SPAN= 2022.7488 - 2008.9724 = 13.7764
# OBSERVATIONS: USED M=  4135 REJECTED MTOT-M=    27 %USED=   99.3513
# N=  5 PARAMETERS
# MAXSIG= 175.00000
# MAXRES=  33.41024
# SCALE FACTOR FOR LENGTHS: SCL=  10.00000
# SCALE FACTOR FOR SIGMAS: SCLSIG=   1.00000
# CHI^2=   6902.791 DOF=  4130 CHI^2/DOF=   1.67138
# RMS=      7.459 SDEV=      7.459 MEAN=    0.07768
#  P #       PARAMETER +-    SIGMA %error PARAMETER NAME
# P 1 =      3782.27560 +-   93.344   2.47 YZERO                              
# P 2 =        -1.87736 +-    0.046   2.47 SLOPE                              
# P 3 =         5.26345 +-    0.159   3.01 ANNUAL AMPLITUDE                   
# P 4 =        -2.83379 +-    0.041   1.43 ANNUAL PHASE                       
# P 5 =         1.24603 +-    0.383  30.77 OFFSET 2011.8110                   
#       T            LDETRENDED       SIG_OBS
     2008.98562        -1.92800         7.16997
     2008.98836        -5.85586         7.30054
     2008.99110        -7.16272         7.37553
     2008.99384        -6.70058         7.19970
     2008.99931       -18.47230         7.25012
     2009.00479        -7.45302         7.22168
     2009.00752       -11.34788         7.10921
     2009.01026        -6.19174         7.04456
     2009.01300       -12.28560         7.32381
     2009.01574         9.81454         7.17643
     2009.01848         5.86168         7.38716
     2009.02121        -2.23718         7.62375
     2009.02395        -2.56204         7.28891
     2009.02669        -7.93190         7.15187
     2009.02943         4.19324         7.24495
     2009.03216        -9.02362         7.20875
     2009.03490       -10.99648         7.13506
     2009.03764       -13.34034         7.07559
     2009.04038       -11.55420         7.08981
     2009.04312       -12.72806         7.06008
     2009.04585       -17.85792         7.09886
     2009.04859        -8.83578         7.02905
     2009.05133        -5.11664         7.06784
     2009.05407       -14.87550         7.14282
     2009.06200       -12.09262         8.16802
     2009.07141       -35.90695        11.59270
     2009.07323       -15.87752         7.13506
     2009.07597         2.76262         7.07947
     2009.07871       -11.73524         7.04715
     2009.08145       -12.38510         7.07301
     2009.08418         4.59404         7.23202
     2009.08692        -7.19082         7.10274
     2009.08966        -6.28168         7.08723
     2009.09240        -5.58054         7.06784
     2009.09514        -4.87940         7.04586
     2009.09787        -5.47226         7.15833
     2009.10061         0.02688         7.09369
     2009.10335        -6.15398         7.08335
     2009.10609        -5.78984         7.09886
     2009.10882         3.43830         7.02517
     2009.11156        -5.59256         7.06913
     2009.11430       -17.84542         7.27339
     2009.11704        -7.92528         7.29020
     2009.11978       -10.63414         7.05879
     2009.12251       -14.24400         6.99932
     2009.12525       -15.98586         7.01224
     2009.12799        -4.45772         7.06784
     2009.13073        -1.19058         7.17902
     2009.13347        -5.23044         7.07301
     2009.13620        -8.07230         7.07171
     2009.13894       -10.10216         7.07171
     2009.14168        -8.39502         7.06654
     2009.14442        -4.48588         7.17514
     2009.14715       -16.59174         7.25012
     2009.14989        -7.88160         7.38587
     2009.15263        -6.77146         7.14799
     2009.15537       -10.07532         7.26176
     2009.15811        -9.94918         7.22168
     2009.16084        -8.78904         7.14023
     2009.16358         4.81910         7.13377
     2009.16632        -7.01176         7.24754
     2009.16906         0.21438         7.43370
     2009.17180        -3.49148         7.07818
     2009.17453        -1.58134         7.10274
     2009.17727        -7.47320         7.32123
     2009.18001         0.24494         7.17772
     2009.18275       -10.76892         7.13635
     2009.18548        -7.91778         7.10921
     2009.18822       -13.09064         7.13377
     2009.19096        -8.81050         7.03939
     2009.19370        -5.18736         7.05749
     2009.19644        -7.74522         7.04715
     2009.19917        -3.36108         7.08335
     2009.20191        -9.34594         7.13635
     2009.20465       -14.38680         7.12601
     2009.20739       -13.79866         7.08981
     2009.21013       -12.70652         7.06137
     2009.21286       -10.43138         7.07171
     2009.21560        -5.55724         7.07947
     2009.21834        -9.70110         7.10274
     2009.22108         3.39804         7.03681
     2009.22381        -8.63883         7.04069
     2009.22655        -4.50869         7.03939
     2009.22929        12.97245         7.10145
     2009.23203        -5.19241         7.11438
     2009.23477         1.44173         7.21263
     2009.23750         2.42587         7.22427
     2009.24024         1.10101         7.17126
     2009.24298        -3.65285         7.20487
     2009.24572         2.24229         7.32640
     2009.24846         1.16543         7.23719
     2009.25119        -5.73643         7.38845
     2009.25393         1.27571         7.37035
     2009.25667        -7.37415         7.16480
     2009.25941       -13.65801         7.14023
     2009.26214        -8.31587         7.16867
     2009.26488        -8.67273         7.19582
     2009.26762        -0.22059         7.21392
     2009.27036        -0.43545         7.15833
     2009.27310        -7.70731         7.18290
     2009.27583        -3.16817         7.22556
     2009.27857        -4.66603         7.42982
     2009.28131        -9.34589         7.37035
     2009.28405        -7.69775         7.23332
     2009.28679        -2.79861         7.21134
     2009.28952        -9.38947         7.24624
     2009.29226       -10.32233         7.29279
     2009.29500        -5.54419         7.26046
     2009.29774       -11.03705         7.22297
     2009.30047       -13.20591         7.19712
     2009.30321       -10.93477         7.27598
     2009.30595         3.51337         7.25529
     2009.30869         9.06651         7.16738
     2009.31143        -4.05835         7.22039
     2009.31416        12.55979         7.22168
     2009.31690        -4.35907         7.17385
     2009.31964        -8.93293         7.17643
     2009.32238        -4.68479         7.14670
     2009.32512        -6.30565         7.30313
     2009.32785        -8.16351         7.28891
     2009.33059       -12.04337         7.17643
     2009.33333        -3.98623         7.19712
     2009.33607         1.18491         7.29796
     2009.33880        -4.57495         7.18677
     2009.34154       -15.03581         7.48671
     2009.34428        -1.49967         7.40526
     2009.34702        -9.82853         7.29666
     2009.34976        -4.47139         7.07042
     2009.35249       -12.34225         7.03422
     2009.35523        -9.56411         7.11567
     2009.35797         7.92803         7.23202
     2009.36071         3.85617         7.40267
     2009.36344        -0.69469         7.23202
     2009.36618        -0.40355         7.16609
     2009.36892        -7.03141         7.06525
     2009.37166        -9.41327         7.20617
     2009.37440       -14.21013         7.10016
     2009.37713        -5.49299         7.36648
     2009.37987        10.42015         7.43241
     2009.38261        -4.06671         7.12860
     2009.38535        -7.25957         7.09369
     2009.38809       -10.93043         7.37811
     2009.39082       -11.11129         7.13377
     2009.39356        -5.71915         7.07042
     2009.39630         2.38799         7.10274
     2009.39904        -2.06287         7.20229
     2009.40177         2.30927         7.17514
     2009.40451        -0.74559         7.10791
     2009.40725         0.74655         7.13506
     2009.40999        -0.16631         7.18807
     2009.41273       -11.96717         7.27469
     2009.41546         0.99597         7.19324
     2009.41820        -4.91389         7.17772
     2009.42094        -7.61775         7.13635
     2009.42368        -3.45361         7.26305
     2009.42642        -6.76447         7.34321
     2009.42915         5.84067         7.21263
     2009.43189        -3.00019         7.13506
     2009.43463        -6.06205         7.11308
     2009.43737        -1.09991         7.18936
     2009.44010        -0.37177         7.23202
     2009.44284        -3.39863         7.11308
     2009.44558        -7.66049         7.11567
     2009.44832        -0.58935         7.20746
     2009.45106        -3.71421         7.14023
     2009.45379        -7.11307         7.10016
     2009.45653         5.14307         7.09369
     2009.45927        -3.45279         7.29796
     2009.46201         9.09335         7.28115
     2009.46475        20.39949         7.76337
     2009.46748         5.99463         7.33157
     2009.47022        11.89477         7.20875
     2009.47296        -0.49009         7.18160
     2009.47570        -5.87595         7.12860
     2009.47843         0.59819         7.25917
     2009.48123         4.95444         7.54747
     2009.48391        -6.28753         7.20746
     2009.48665        -6.25139         7.34062
     2009.48933         6.79064         7.54747
     2009.49224         5.27810         7.54747
     2009.49486        -5.47697         7.24754
     2009.49760         1.85617         7.21005
     2009.50034        -1.73369         7.14411
     2009.50308         2.90345         7.22168
     2009.50581         2.81159         7.23978
     2009.50855        -5.42827         7.33803
     2009.51129        12.43387         7.38199
     2009.51403         5.89101         7.26951
     2009.51676         7.25315         7.14799
     2009.51950         2.18929         7.16867
     2009.52224        -9.70057         7.16350
     2009.52498        -0.76743         7.14153
     2009.52772         2.63871         7.17385
     2009.53045       -13.78315         7.30313
     2009.53319         2.78099         7.21522
     2009.53593         3.49013         7.08464
     2009.53867         1.38027         7.17902
     2009.54141        -2.60459         7.27469
     2009.54414        -0.59745         7.49964
     2009.54688        10.72469         7.19453
     2009.54962        -1.53317         7.15187
     2009.55236        -0.79403         7.19324
     2009.55509         8.58911         7.31088
     2009.55783        24.67825         7.54230
     2009.56057         1.84939         7.33416
     2009.56331        -1.04747         7.40914
     2009.56605         3.17567         7.65736
     2009.56878        -4.78519         7.17902
     2009.57152        10.01995         7.50481
     2009.57426         5.80109         7.24107
     2009.57700         9.06623         7.27469
     2009.57974         5.03437         7.39104
     2009.58247         1.81151         7.21909
     2009.58521         5.64565         7.31606
     2009.58795        -0.97421         7.38458
     2009.59069        11.22092         7.30054
     2009.59342        -0.87894         7.55911
     2009.59616         3.65820         7.25400
     2009.59890        15.40834         7.15187
     2009.60164         1.76948         7.25788
     2009.60438         1.48362         7.31088
     2009.60711        -6.53324         7.27598
     2009.60985         4.78490         7.42724
     2009.61259        15.11704         7.49317
     2009.61533        11.57218         7.61340
     2009.61807        10.85432         7.19582
     2009.62080        12.77046         7.16092
     2009.62360        -5.50229         7.26046
     2009.62628        -0.31326         7.31476
     2009.62902         8.00988         7.60435
     2009.63175         2.22702         7.16480
     2009.63449         7.09516         7.43112
     2009.63723        11.51930         7.63021
     2009.63997         4.27244         7.38458
     2009.64271         0.59358         7.33803
     2009.64544         4.50172         7.22039
     2009.64818         7.41886         7.74786
     2009.65092         7.27800         7.23202
     2009.65366        -0.04486         7.36777
     2009.65639         1.15928         7.19324
     2009.65913         5.79742         7.27081
     2009.66187         3.50356         7.10145
     2009.66461        -1.65630         7.10921
     2009.66735        13.95084         7.28115
     2009.67008         0.44198         7.28761
     2009.67282        12.76712         7.46861
     2009.67556        11.98226         7.24107
     2009.67830        15.55240         7.50481
     2009.68104        10.25254         7.61082
     2009.68377         2.28368         7.45697
     2009.68651         3.97182         7.17772
     2009.68925         0.87396         7.23332
     2009.69199         8.26210         7.27339
     2009.69472       -13.08176         7.40397
     2009.69746        10.69338         7.10533
     2009.70020        14.88852         7.27081
     2009.70294        14.62666         7.38975
     2009.70568         5.07880         7.21005
     2009.70841         0.71494         7.30313
     2009.71115        16.17408         7.59143
     2009.71389         6.23222         7.44534
     2009.71663        25.07536         7.52161
     2009.71937         7.83750         7.30054
     2009.72210        -7.96136         7.19065
     2009.72484         6.04978         7.27339
     2009.72758         4.01292         7.21909
     2009.73032         8.40606         7.24237
     2009.73305         6.06020         7.34708
     2009.73579        -0.16666         7.64055
     2009.73853        10.25548         7.19970
     2009.74127        13.20062         7.47637
     2009.74401        30.48676         7.55911
     2009.74674         5.37290         7.27727
     2009.74948         1.27804         7.36518
     2009.75222         9.35418         7.43112
     2009.75496         5.01032         7.19712
     2009.75770         2.25846         7.20617
     2009.76043         0.13160         7.14928
     2009.76317         3.49274         7.22168
     2009.76591         1.05788         7.27986
     2009.76865         0.35302         7.36777
     2009.77138        -0.23884         7.24107
     2009.77412         3.97130         7.30959
     2009.77686         5.11344         7.22814
     2009.77960         9.89158         7.30313
     2009.78234        14.45272         7.32640
     2009.78513        13.70597         7.61340
     2009.78781         4.13000         7.52420
     2009.79055        -9.96386         7.59530
     2009.79329        -0.46272         7.62763
     2009.79603         9.91442         7.74786
     2009.79876        -1.12544         7.45051
     2009.80150        -6.98530         7.37940
     2009.80424         4.30484         7.39750
     2009.80698         5.82398         7.49059
     2009.80971         3.37312         7.59918
     2009.81245        20.73426         7.63538
     2009.81519         8.39340         7.41431
     2009.81793         2.85254         7.63280
     2009.82067        16.75068         7.56816
     2009.82340         7.64582         7.26564
     2009.82614         6.86796         7.45051
     2009.82888        18.90110         7.59789
     2009.83162        20.46124         7.84482
     2009.83436         9.76638         7.34967
     2009.83709         3.23952         7.36389
     2009.83983         6.13666         7.43629
     2009.84257         8.37180         7.34321
     2009.84536         8.03905         7.67158
     2009.84804         1.41708         7.72847
     2009.85078         8.70022         7.47249
     2009.85352         7.50836         7.50610
     2009.85626         7.83150         7.35484
     2009.85900         1.08464         7.50739
     2009.86173         5.84078         7.44146
     2009.86447         2.72692         7.62892
     2009.86721        -0.86594         7.57462
     2009.86995         2.99720         7.45439
     2009.87269         6.13334         7.40914
     2009.87542         9.56348         7.46861
     2009.87816        11.94662         7.80991
     2009.88084        -2.95935         7.83835
     2009.88364         5.34890         7.42724
     2009.88637         0.78904         7.40785
     2009.88911         7.24918         7.34579
     2009.89185         7.11732         7.45180
     2009.89459        -0.41754         7.27986
     2009.89733        -3.10540         7.24495
     2009.90006        -8.68426         7.30184
     2009.90280        -7.44612         7.29796
     2009.90554         2.55002         7.66124
     2009.90828        -1.22484         7.23461
     2009.91102        -5.33070         7.17902
     2009.91375        -1.70656         7.16997
     2009.91649         4.02658         7.36648
     2009.91923        -4.32328         7.18936
     2009.92197        -3.93114         7.27081
     2009.92470         2.90000         7.18807
     2009.92744        -1.54786         7.21005
     2009.93018        -6.09472         7.42465
     2009.93292        -1.07158         7.21780
     2009.93566        -2.08844         7.19582
     2009.93839         0.49970         7.40526
     2009.94113         1.20384         7.20487
     2009.94387         0.73498         7.31218
     2009.94661         3.57612         7.35613
     2009.94935         3.06726         7.16997
     2009.95208         2.93140         7.74656
     2009.95482       -24.09246         7.33028
     2009.95756        -8.82033         7.58238
     2009.96030        -5.02419         7.24883
     2009.96303        -8.18505         7.18160
     2009.96577        -7.93191         7.32123
     2009.96851        -2.47977         7.44792
     2009.97130         3.89948         7.68322
     2009.97399        -0.22549         7.29925
     2009.97672        -7.03435         7.11567
     2009.97946       -12.68321         7.11955
     2009.98220        -7.05007         7.09628
     2009.98494        -1.36593         7.10403
     2009.98767        -1.10679         7.16609
     2009.99041        -6.79165         7.11050
     2009.99315        -7.91451         7.17126
     2009.99589       -18.28737         7.10274
     2009.99863       -20.43823         7.18160
     2010.00410        -0.22795         7.20617
     2010.00684        -9.87481         7.18290
     2010.00958       -10.08767         7.23202
     2010.01232        -2.81953         7.37035
     2010.01505       -11.98239         7.12084
     2010.01779       -12.06925         7.15575
     2010.02053        -6.38911         7.24107
     2010.02327       -19.21597         7.56816
     2010.02600       -21.24083         7.23073
     2010.02874       -25.44569         7.26434
     2010.03148       -17.53255         7.16350
     2010.03422       -12.15741         7.29925
     2010.03696        -7.36127         7.54618
     2010.03969        -3.76013         7.52679
     2010.04243         0.32101         7.11179
     2010.04517         4.66315         7.09757
     2010.04791         3.84329         7.59013
     2010.05065         4.81043         7.37553
     2010.05338         1.65157         7.43241
     2010.05612         3.76071         7.28244
     2010.05886         0.42385         7.13377
     2010.06160        -1.35501         7.15445
     2010.06433        -2.17387         7.06913
     2010.06707       -14.34773         7.16092
     2010.06987        -8.57748         7.42595
