# ================= DQRFIT RESULTS ================
# INPUT FILE: series/PLS1.rad
# OUTPUT: LDETRENDED
# FILTER FUNCTION: f(t)
# f(t)=+line(t)+annual(t)
# line(t)=+P 1+P 2*t
# annual(t)=+P 3*sin(2*pi*t+P 4)
# heav(t)=(t<0?0:1)
# TOTAL OBSERVATIONS MTOT= 2614
# INITIAL TIME INTERVAL= 2008.2950 - 2001.0852 =  7.2098
# TOTAL OBSERVATIONS AFTER PREFILTER M= 2602
# TIME-SPAN= 2008.2950 - 2001.0852 =  7.2098
# OBSERVATIONS: USED M=  2602 REJECTED MTOT-M=    12 %USED=   99.5409
# N=  4 PARAMETERS
# MAXSIG= 175.00000
# MAXRES=  56.14704
# SCALE FACTOR FOR LENGTHS: SCL=  10.00000
# SCALE FACTOR FOR SIGMAS: SCLSIG=   1.00000
# CHI^2=   2653.771 DOF=  2598 CHI^2/DOF=   1.02147
# RMS=      6.301 SDEV=      6.302 MEAN=   -0.02310
#  P #       PARAMETER +-    SIGMA %error PARAMETER NAME
# P 1 =      4008.08482 +-  117.552   2.93 YZERO                              
# P 2 =        -1.98944 +-    0.059   2.95 SLOPE                              
# P 3 =         4.53092 +-    0.167   3.68 ANNUAL AMPLITUDE                   
# P 4 =        -2.97762 +-    0.051   1.72 ANNUAL PHASE                       
#       T            LDETRENDED       SIG_OBS
     2001.08523       -19.80154        18.25888
     2001.08693        -2.92515         6.28236
     2001.08967         0.15529         6.28742
     2001.09241        -0.44526         6.59770
     2001.09515        -1.01681         6.34199
     2001.09788        -6.73136         6.23789
     2001.10062        -7.02892         6.34604
     2001.10336        -2.26947         6.37231
     2001.10610       -14.77502         6.27428
     2001.10883       -10.07158         6.28540
     2001.11157        -5.37613         6.17422
     2001.11431         1.63832         6.28439
     2001.11705        -8.38624         6.25002
     2001.11979        -5.97979         6.23992
     2001.12252        -5.81234         6.32077
     2001.12526        -9.43190         6.15098
     2001.12800       -13.54945         5.93975
     2001.13074        -9.04600         5.89730
     2001.13347        -0.38456         6.06406
     2001.13621        -5.94611         5.97815
     2001.13895       -11.00366         6.25103
     2001.14169        -6.44822         6.13582
     2001.14443        -9.95477         6.03778
     2001.14716        -4.98932         6.16310
     2001.14990        -5.06288         6.46226
     2001.15264       -10.60343         6.46631
     2001.15538         4.49802         6.23385
     2001.15812       -16.70354         6.22172
     2001.16085       -10.28209         6.28236
     2001.16359        -3.83064         6.40061
     2001.16633        -5.06820         6.49461
     2001.16907       -17.99775         6.30460
     2001.17180        -7.15730         6.34098
     2001.17728       -16.80441         6.28236
     2001.18002       -12.50696         6.33189
     2001.18276       -19.85751         6.27529
     2001.18549       -10.81207         6.54514
     2001.18823       -14.33062         6.50471
     2001.19097         1.73883         6.35513
     2001.19371        -5.68273         6.43599
     2001.19645         3.05272         6.39657
     2001.19918        -1.48583         6.28034
     2001.20192       -10.81339         6.20050
     2001.20466        -3.67594         6.41678
     2001.20740       -14.46749         6.50673
     2001.21013        -8.28405         6.36827
     2001.21287       -13.94160         6.35109
     2001.21560       -31.58918         7.37996
     2001.21835       -10.28071         6.34503
     2001.22109        -5.52926         6.45418
     2001.22382        -5.90281         6.64014
     2001.22656       -14.08137         6.58557
     2001.22930        -2.90392         6.55019
     2001.23204       -12.10947         6.76345
     2001.23478        -6.31203         6.71291
     2001.23751        -6.11758         6.69876
     2001.24025       -11.36813         6.44407
     2001.24299        -8.06369         6.43194
     2001.24573       -16.23624         9.85308
     2001.24846        -2.24279         6.44710
     2001.25120        -1.09034         6.82914
     2001.25394        -4.08490         6.41780
     2001.25668        -6.10445         6.60073
     2001.25942        -8.94500         6.64115
     2001.26215         2.15244         6.41173
     2001.26489        -3.02311         6.44306
     2001.26763       -12.35166         6.91404
     2001.27037        -9.51022         6.47136
     2001.27309        -2.49080         6.46833
     2001.27584        -4.43032         6.66541
     2001.27858        -1.15588         6.57748
     2001.28132        -8.98743         6.49663
     2001.28406        -7.59198         6.71493
     2001.28679       -10.64854         6.76648
     2001.28953        -4.63309         7.09192
     2001.29227        -8.97264         6.50168
     2001.29501       -16.71620         7.34459
     2001.29775         1.30025         6.51381
     2001.30048        -2.41230         6.38343
     2001.30322        -5.74486         6.37939
     2001.30596        -4.76741         6.84733
     2001.30870        -4.54196         6.50067
     2001.31144       -10.16552         6.70180
     2001.31417        -9.09007         6.63812
     2001.31691        -3.50462         6.40971
     2001.31965         5.01083         6.40971
     2001.32239         9.48627         6.54211
     2001.32512        -8.26928         6.39657
     2001.32786       -11.60383         6.47945
     2001.33060        -5.85639         6.62296
     2001.33334        -6.12894         6.21263
     2001.33608       -15.13349         6.27731
     2001.33881       -13.49405         6.32077
     2001.34155       -14.07660         6.55727
     2001.34429        -8.22715         6.33290
     2001.34703       -11.97871         6.61387
     2001.34977         0.16674         6.52392
     2001.35250        -2.67381         6.66945
     2001.35524        -5.84737         6.43093
     2001.35798       -11.94792         6.32886
     2001.36072        -3.20447         6.65429
     2001.36345         2.48497         6.48551
     2001.36619         6.85842         6.60679
     2001.36893         1.75987         6.38545
     2001.37167        -7.05069         6.46631
     2001.37441        -9.88124         6.64115
     2001.37714        -2.92779         6.51078
     2001.37988        -7.34135         6.33290
     2001.38262        -6.20590         6.44407
     2001.38536        -5.85945         6.34199
     2001.38810         2.29699         6.97973
     2001.39083        -5.18756         6.33997
     2001.39357        -6.41511         6.20454
     2001.39631         6.82034         6.41982
     2001.39905         1.19978         6.22779
     2001.40178         1.41823         6.32481
     2001.40452        -5.76232         7.22229
     2001.40726       -11.68188         7.77311
     2001.41000        -3.87943         6.50673
     2001.41274        -3.94598         6.12975
     2001.41547         2.05246         6.40162
     2001.41821        -8.01009         6.78467
     2001.42095        -1.83764         6.34301
     2001.42369       -17.02120         6.71392
     2001.42643        -2.46375         6.25508
     2001.42916        -7.57630         6.46429
     2001.43190        -1.73686         6.39455
     2001.43464        -1.89841         6.14693
     2001.43738        10.32204         6.29550
     2001.44011        -0.37752         6.33694
     2001.44285        -1.37407         6.35513
     2001.44559       -10.50662         6.21364
     2001.44833        -8.32318         6.24194
     2001.45107        -6.91773         6.24497
     2001.45380        -0.21328         6.27428
     2001.45654         1.31316         6.37333
     2001.45928        -6.72739         6.48652
     2001.46202         1.09306         6.54110
     2001.46475        -2.65249         6.61690
     2001.46749        -3.34905         6.52493
     2001.47023       -10.94960         6.45923
     2001.47297         0.68785         6.25912
     2001.47571       -11.99971         6.41072
     2001.47844         2.66974         6.61791
     2001.48118       -12.04381         6.56636
     2001.48392        -4.05337         6.11560
     2001.48666        -3.42992         6.38646
     2001.48940        -6.47747         6.33391
     2001.49213        -8.79603         6.20252
     2001.49487        -3.17858         6.09741
     2001.49761        -1.72113         6.21970
     2001.50035        -0.69469         6.42386
     2001.50308        -5.76724         7.29708
     2001.50582        -0.14779         6.36726
     2001.50856         7.73365         6.62701
     2001.51130        15.10510         7.03431
     2001.51404        -6.38345         6.26215
     2001.51677         4.24999         6.29348
     2001.51951        -1.01756         6.26013
     2001.52225         0.66589         6.95649
     2001.52499        -4.26667         6.23183
     2001.52773        -9.44022         6.27125
     2001.53046         0.84023         6.40061
     2001.53320         7.61267         6.67451
     2001.53594         4.09412         6.13177
     2001.53868        -3.80343         6.20454
     2001.54141         1.36502         6.28843
     2001.54415        -2.46754         6.40870
     2001.54689        -1.61309         6.45620
     2001.54963         2.08336         6.82813
     2001.55237         3.79080         6.51280
     2001.55510        -0.97975         6.26720
     2001.55784         6.12170         6.27832
     2001.56058        10.16714         6.28641
     2001.56332         9.88859         6.26821
     2001.56606         1.09704         7.02824
     2001.56879         3.72048         6.39758
     2001.57153        -2.52008         6.35210
     2001.57438        -7.90940         6.67350
     2001.57712         8.94505         6.81802
     2001.57986         4.66650         6.73818
     2001.58254         4.17884         6.39758
     2001.58533         9.62739         6.42083
     2001.58807        18.47784         7.07676
     2001.59081        14.53028         6.61387
     2001.59349         6.23562         6.44205
     2001.59623        10.72206         6.37939
     2001.59897         6.12251         6.37434
     2001.60165         1.76584         6.77861
     2001.60444         9.15440         6.63812
     2001.60718         2.19585         6.62397
     2001.60992         6.22730         6.29348
     2001.61260         5.87363         6.27226
     2001.61534         3.67309         6.33088
     2001.61807        16.23853         6.43498
     2001.62081         8.11297         6.31167
     2001.62355         8.31642         6.16614
     2001.62629        -1.23013         8.28148
     2001.62903        -2.46369         6.67147
     2001.63176         1.98876         6.76041
     2001.63444        -0.55291         6.63206
     2001.63724        -1.64835         6.75233
     2001.63998         9.84610         6.30763
     2001.64277         7.47666         6.51179
     2001.64545         3.38499         6.52493
     2001.64819        -4.64356         6.66036
     2001.65093        -0.24211         6.41678
     2001.65367         2.75833         6.41375
     2001.65640        12.99578         6.63307
     2001.65914         5.39423         6.60982
     2001.66188         3.07567         6.65429
     2001.66462        13.24512         7.22533
     2001.66736         5.97057         7.06867
     2001.67009        10.67101         7.04138
     2001.67283         6.16646         7.13032
     2001.67557        -4.62208         7.14447
     2001.67831        16.99836         7.06766
     2001.68105         8.59480         6.50168
     2001.68378         3.55225         6.42285
     2001.68652         1.71670         6.32987
     2001.68926         6.16014         6.39354
     2001.69200        10.23859         6.09539
     2001.69473         8.33704         6.49157
     2001.69747        13.05348         6.79781
     2001.70021        12.62893         6.95446
     2001.70295         1.84638         6.37231
     2001.70569         3.65283         6.25002
     2001.70842         8.81227         6.45317
     2001.71116        18.66172         6.34806
     2001.71390        17.64917         6.47844
     2001.71664         3.46461         6.54211
     2001.71914         7.57859         7.49315
     2001.72485         3.59195         6.32987
     2001.72759         6.84840         6.76244
     2001.73033         6.08784         6.29045
     2001.73306         8.20429         6.85138
     2001.73580        10.54774        11.25894
     2001.73854        13.71019         8.18244
     2001.74128        17.88363         7.52752
     2001.74402         0.32008         7.77311
     2001.74676         1.55153         8.59479
     2001.74950        -1.62402        12.38887
     2001.75224         2.04444        10.44433
     2001.75497         3.20387         8.00860
     2001.75771         4.78932        11.20032
     2001.76045         9.33477         9.68733
     2001.76319        16.86721         6.60982
     2001.76592        18.37865         7.37996
     2001.76869        18.38217         6.64924
     2001.77139        20.79955         7.20511
     2001.77413        12.13999         6.43296
     2001.77687         5.94344         6.47844
     2001.77961        25.79289         6.39960
     2001.78463        12.06688         7.72157
     2001.78970         3.55797        11.87039
     2001.79250       -18.30647        15.95757
     2001.79518       -12.44114        16.32242
     2001.79792        11.27531        11.98359
     2001.80088        18.93221         8.65139
     2001.80596         3.36631        27.07602
     2001.81138       -13.07391        17.02383
     2001.81440         7.81211        11.31856
     2001.81708         6.18244        11.79257
     2001.81948        -8.21679        22.04285
     2001.82530        -2.15422        12.47276
     2001.82798        11.39511        14.92567
     2001.83322       -32.10445        25.67118
     2001.83607        16.51422        20.08012
     2001.84982        -7.04943        14.63763
     2001.85279         6.13747        10.94259
     2001.85535        -3.29842        15.54319
     2001.85815        10.67614        13.22369
     2001.86083        16.01947        13.58652
     2001.86351        -7.15919        14.44863
     2001.86722         7.56518         6.23385
     2001.86996         5.76563         6.32077
     2001.87269        10.06508         6.20050
     2001.87543        14.58952         6.41780
     2001.87817        14.61197         6.12268
     2001.88091         1.06442         6.13278
     2001.88365         2.83886         6.17018
     2001.88536       -11.40873        16.21933
     2001.88827        40.05106        12.34036
     2001.89186        19.46620         6.07214
     2001.89460        12.79565         6.19646
     2001.89730         6.99103         7.99445
     2001.90007         8.94054         8.15414
     2001.90281         1.79599         6.22981
     2001.90555        -3.04356         6.38849
     2001.90720       -18.19427        19.27966
     2001.91102        14.39533         6.16209
     2001.91376         4.90578         6.23688
     2001.91650         9.74923         6.02666
     2001.91924        10.20067         6.37737
     2001.92198         5.20012         6.01251
     2001.92471        -1.05743         6.23688
     2001.92745         4.32001         6.19039
     2001.93019         5.26946         6.24598
     2001.93293        -4.15909         6.07821
     2001.93567        -4.61565         6.01454
     2001.93840         9.64180         6.31572
     2001.94017         2.58132        20.01240
     2001.94388         2.90369         6.32582
     2001.94662        -2.32086         6.20960
     2001.94935        20.43059         5.97209
     2001.95209        10.84603         5.99432
     2001.95483         9.46048         6.01150
     2001.95757        -4.26907         6.14592
     2001.96031         0.57037         6.30157
     2001.96304        -1.35718         6.11257
     2001.96578        -8.95473         5.93368
     2001.96852        -5.71529         6.09135
     2001.97126        -6.83384         5.95794
     2001.97400        -5.17839         6.20960
     2001.97673        -3.74494         6.14997
     2001.97947        -6.50650         6.44306
     2001.98221       -10.82605         5.97007
     2001.98409       -10.79231        10.35943
     2001.98768        -0.80016         5.95592
     2001.99042        -2.63471         6.05900
     2001.99316        -3.61626         6.02767
     2001.99481       -11.91297        16.28806
     2001.99864        -2.51337         6.20859
     2002.00411         2.79152         6.09640
     2002.00685         8.03397         6.18433
     2002.00959        -1.17858         6.24800
     2002.01233         3.35086         6.08933
     2002.01506         4.72431         6.04283
     2002.01780         0.41476         6.17725
     2002.02053         0.49419         6.42689
     2002.02329         2.69768         6.26417
     2002.02601       -10.51890         6.92920
     2002.02875        -4.53946         6.57849
     2002.03149        -2.85001         6.54817
     2002.03697        -4.04912         6.35008
     2002.03970         5.11533         6.42790
     2002.04124       -10.62060        29.53297
     2002.04518         1.62322         6.32582
     2002.04792        -5.54033         6.17928
     2002.05065        13.39012         6.01555
     2002.05339         6.92457         6.09842
     2002.05613         5.46001         6.13278
     2002.05887         2.67146         6.05900
     2002.06161        -0.65809         6.15603
     2002.06434        -3.90865         6.03576
     2002.06708         1.70480         6.04587
     2002.06982         7.62925         5.99938
     2002.07256         4.17269         6.05698
     2002.07530         4.95814         6.07315
     2002.07803        -5.27741         5.91044
     2002.08077        -3.51597         6.13784
     2002.08351       -10.14152         5.98118
     2002.08625        -7.99007         6.25305
     2002.08898         5.82637         6.92212
     2002.09172       -13.77118         5.97411
     2002.09446        -9.60273         5.99836
     2002.09720        -8.13529         6.21970
     2002.09994         7.49616         6.38141
     2002.10267         8.76661         6.45923
     2002.10541         6.80205         6.15603
     2002.10815        -8.18450         6.04486
     2002.11089       -12.66205         6.26417
     2002.11363       -10.35561         6.32279
     2002.11636        -5.76716         6.29045
     2002.11910        -0.19271         9.13550
     2002.12184        -4.33926         6.36120
     2002.12458        -7.23882         6.25912
     2002.12731         0.21563         6.27529
     2002.13005         6.58708         6.23183
     2002.13279         1.77952         6.38242
     2002.13553         0.15297         6.16007
     2002.13827        -1.53358         6.16513
     2002.14100        -7.19114         6.31976
     2002.14374        -2.21869         6.43599
     2002.14648        -3.69924         6.32582
     2002.14922        -8.86780         6.19848
     2002.15196       -11.51635         6.20454
     2002.15469       -14.60590         6.39455
     2002.15743        -9.74046         6.31066
     2002.16017        -3.92701         6.53604
     2002.16291        -3.59456         6.57243
     2002.16564       -11.99712         6.37029
     2002.16837        -7.86069         6.59871
     2002.17111       -11.38324         6.30662
     2002.17386         1.18922         6.36524
     2002.17660        -9.15733         6.33694
     2002.17933        -4.80088         6.21970
     2002.18207        -4.69844         6.21263
     2002.18480       -12.86701         6.47338
     2002.19028         7.04089         6.49056
     2002.19302         2.00435         6.38545
     2002.19576        11.59080         6.32683
