# ================= DQRFIT RESULTS ================
# INPUT FILE: series/PNCL.rad
# OUTPUT: LDETRENDED
# FILTER FUNCTION: f(t)
# f(t)=+line(t)+annual(t)+jumps(t)
# line(t)=+P 1+P 2*t
# annual(t)=+P 3*sin(2*pi*t+P 4)
# jumps(t)=+P 5*heav(t-2011.1260  )+P 6*heav(t-2011.3210  )
# heav(t)=(t<0?0:1)
# TOTAL OBSERVATIONS MTOT= 1854
# INITIAL TIME INTERVAL= 2012.0628 - 2006.6721 =  5.3906
# TOTAL OBSERVATIONS AFTER PREFILTER M= 1804
# TIME-SPAN= 2012.0628 - 2006.6721 =  5.3906
# OBSERVATIONS: USED M=  1804 REJECTED MTOT-M=    50 %USED=   97.3031
# N=  6 PARAMETERS
# MAXSIG= 175.00000
# MAXRES=  22.50020
# SCALE FACTOR FOR LENGTHS: SCL=  10.00000
# SCALE FACTOR FOR SIGMAS: SCLSIG=   1.00000
# CHI^2=   2088.221 DOF=  1798 CHI^2/DOF=   1.16141
# RMS=      6.280 SDEV=      6.280 MEAN=    0.14255
#  P #       PARAMETER +-    SIGMA %error PARAMETER NAME
# P 1 =      -853.42657 +-  246.659  28.90 YZERO                              
# P 2 =         0.45814 +-    0.123  26.80 SLOPE                              
# P 3 =         4.55479 +-    0.220   4.83 ANNUAL AMPLITUDE                   
# P 4 =        -3.04473 +-    0.068   2.23 ANNUAL PHASE                       
# P 5 =      -165.72954 +-    0.990   0.60 OFFSET 2011.1260                   
# P 6 =        95.85392 +-    1.016   1.06 OFFSET 2011.3210                   
#       T            LDETRENDED       SIG_OBS
     2006.67215        18.96305         6.53079
     2006.67488        17.43680         6.60515
     2006.67762        14.53954         6.67413
     2006.68036        11.44129         6.47583
     2006.68310        13.43003         6.71292
     2006.68584        11.07878         6.80560
     2006.68807        14.14275         9.02564
     2006.69131        15.44327         6.37561
     2006.69405        14.41702         6.26245
     2006.69679         9.96176         6.36591
     2006.69953        11.83251         6.37561
     2006.70226        26.90025         6.36160
     2006.70500        16.42200         6.21611
     2006.70774        19.22174         6.12558
     2006.71048        16.77149         6.15791
     2006.71321        16.52423         6.42841
     2006.71595        14.50098         6.18809
     2006.71869        15.12573         6.18486
     2006.72143        16.92947         6.32064
     2006.72417        16.20522         6.36806
     2006.72690        18.35696         6.18378
     2006.72964        14.95471         6.22904
     2006.73238        20.35745         6.17516
     2006.73512        16.54520         6.24844
     2006.73786        13.63195         6.19132
     2006.74059        14.27369         6.23227
     2006.74333        15.71244         6.17300
     2006.74607        23.39418         6.15468
     2006.74881        17.85693         6.29155
     2006.75154        16.58367         6.37022
     2006.75428        14.42042         6.66658
     2006.75702        17.68517         6.14714
     2006.75976        16.74291         6.16438
     2006.76250        13.65166         6.33358
     2006.76523         6.38240         6.39824
     2006.76797         6.81315         6.38962
     2006.77071        -2.97111         6.12235
     2006.77345         6.89764         6.25598
     2006.77619        16.59539         6.22473
     2006.77892        19.13313         6.20210
     2006.78166        17.91788         6.05014
     2006.78440        14.95462         6.04152
     2006.78714        11.59537         6.33897
     2006.78987        15.72311         6.11481
     2006.79261        12.72086         6.06092
     2006.79473         5.65989         8.64091
     2006.79809         2.60835         6.21611
     2006.80083         8.49310         6.16546
     2006.80339         6.59892         6.31202
     2006.80630         6.45459         6.03506
     2006.80904         6.01733         6.07816
     2006.81178         7.17908         6.14606
     2006.81452         5.27483         6.18593
     2006.81725         5.53257         6.20318
     2006.81999         8.02032         6.06200
     2006.82273         9.34806         5.99303
     2006.82546        10.85681         6.43272
     2006.82826        11.64553         6.12774
     2006.83100        11.68327         6.12558
     2006.83414        16.56484         7.68392
     2006.83648        10.36176         6.25814
     2006.83921         7.39351         6.40039
     2006.84195        -4.04074         6.51786
     2006.84469         0.39800         6.35405
     2006.84737        -9.19923         6.38746
     2006.85011         9.89552         6.37992
     2006.85285         9.75526         6.35621
     2006.85558         4.43601         6.29155
     2006.85832        11.97776         6.24628
     2006.86106        -0.12550         6.44781
     2006.86380         2.31225         6.27430
     2006.86653         3.01999         6.33681
     2006.86927         8.95874         6.07062
     2006.87192        -6.20747         6.73987
     2006.87455         5.27832         6.48338
     2006.87749         9.90898         6.07062
     2006.88022        -1.41828         6.10187
     2006.88296         0.39547         6.40147
     2006.88570         8.31721         6.20210
     2006.88844        -5.28504         6.21395
     2006.89118        -4.43430         6.12343
     2006.89391        -7.70255         6.35836
     2006.89665        -5.09680         6.26784
     2006.89939        -0.34706         6.11265
     2006.90213        -2.34231         6.10080
     2006.90486       -13.86657         6.22365
     2006.90760        -7.61482         6.15576
     2006.91034        -1.62608         6.19563
     2006.91308         6.97867         6.48338
     2006.91582        -7.08458         6.16222
     2006.91855        -7.13084         6.09325
     2006.92129         0.82691         6.07924
     2006.92403        -1.06035         6.18270
     2006.92677        -7.93660         6.09110
     2006.92859         4.94656        10.00095
     2006.93224         4.01589         6.12019
     2006.93498         7.84264         6.52648
     2006.93772         7.11538         6.16438
     2006.94046         8.07313         6.23982
     2006.94319         0.87287         6.25922
     2006.94593        -2.46938         6.17085
     2006.94867        -0.86864         6.35621
     2006.95067         1.66045         8.66677
     2006.95415        -8.89614         6.52217
     2006.95688         6.55960         6.13636
     2006.95962         1.66935         6.09217
     2006.96236         6.25109         6.08355
     2006.96510        -0.62016         6.31095
     2006.96784         3.09058         6.20641
     2006.97057         5.81933         6.31202
     2006.97331        -8.88592         6.22150
     2006.97605        -0.55818         6.08355
     2006.97879        -3.31843         6.11157
     2006.98152        -4.05269         6.28185
     2006.98426        -1.97194         6.16869
     2006.98700        -3.71920         6.32711
     2006.98974        -5.35745         6.23766
     2006.99248        -6.84971         6.33142
     2006.99521        -2.62096         6.26137
     2006.99795        -3.83021         6.26460
     2007.00343         4.90728         6.62132
     2007.00616        -3.09998         6.18378
     2007.00890        -3.94523         6.19455
     2007.01164         2.56351         6.13528
     2007.01438        -0.71674         6.42302
     2007.01712       -16.75799         6.83039
     2007.01985        -8.91925         6.11265
     2007.02259       -20.55650         6.24628
     2007.02533       -10.51576         6.02859
     2007.02807       -14.83301         6.12019
     2007.03081        -9.44627         6.03182
     2007.03354        -3.78852        17.57710
     2007.03628        -9.43677         5.83461
     2007.03815        -6.51363         9.45672
     2007.04176       -11.67328         5.93806
     2007.04342        -4.73404        12.74367
     2007.04723       -17.70879         5.98117
     2007.04997       -13.76405         6.04583
     2007.05271        -6.54730         6.04152
     2007.05545        -5.23255         5.85616
     2007.05818       -14.85081         5.92621
     2007.06092        -9.49706         5.94345
     2007.06366       -15.06232         5.90897
     2007.06640        -6.06957         5.98117
     2007.06914        -7.78083         5.82060
     2007.07187         1.59892         5.82383
     2007.07461        -2.65433         5.82814
     2007.07735        -4.60859         5.82706
     2007.07987        -7.51474         6.54265
     2007.08282         1.33490         5.80874
     2007.08556         0.20565         5.96501
     2007.08830         0.05039         5.90573
     2007.09104         4.06314         6.01566
     2007.09378        -2.10211         5.94130
     2007.09623        -9.39624         6.96402
     2007.09919        -6.85760         6.09864
     2007.10199         0.21912         5.88741
     2007.10473        -4.34413         5.99842
     2007.10747        -5.83139         5.98117
     2007.11020         2.56236         5.91005
     2007.11182        -3.68838        14.04013
     2007.11568        -3.15415         5.88526
     2007.11842        -3.62840         5.87771
     2007.12115        -3.28166         5.85185
     2007.12389        -2.93891         5.94992
     2007.12663         4.91383         5.89388
     2007.12937         2.30458         6.14929
     2007.13211        -7.12468         6.02644
     2007.13484         2.15807         5.85077
     2007.13758         3.17282         5.95639
     2007.13996         6.39573         7.11167
     2007.14306         1.95631         5.89065
     2007.14580        -4.53895         5.88203
     2007.14853        -4.59620         5.90789
     2007.15127        10.25054         5.88095
     2007.15401         1.77329         6.02536
     2007.15675         8.01504         5.88957
     2007.15948         9.01478         5.90358
     2007.16222         2.84653         6.18593
     2007.16496         6.73127         6.07601
     2007.16770        11.12902         6.11588
     2007.17044        18.30976         6.13636
     2007.17317         9.82751         6.06954
     2007.17591         6.21426         6.07062
     2007.17865        -3.43900         6.40039
     2007.18139         4.53075         6.01781
     2007.18413        -0.16751         6.12019
     2007.19062         4.13352        11.55067
     2007.19234        -6.21827         6.16869
     2007.19508        -3.41652         5.90035
     2007.19781        -5.34578         5.95639
     2007.20055        -4.64903         5.97255
     2007.20329       -11.92629         6.00919
     2007.20603        -3.77954         5.90681
     2007.20877        -4.72880         5.94022
     2007.21150        -6.19705         6.02428
     2007.21652         0.80765         7.51149
     2007.21924         1.86641         7.63219
     2007.22246        -0.04707         6.01135
     2007.22519         8.51268         6.05338
     2007.22793         1.91442         5.97902
     2007.23067        -4.29383         5.85401
     2007.23341        -0.35308         5.96932
     2007.23614        -4.49234         6.03075
     2007.23888        -0.58959         5.97040
     2007.24129        -5.27770         6.91122
     2007.24436         1.82990         5.92298
     2007.24710         2.43164         5.88741
     2007.24983         0.96239         5.92190
     2007.25257        -1.89587         5.94453
     2007.25531        -2.12912         5.90573
     2007.25779         2.54974         6.65149
     2007.26079         1.98137         5.98117
     2007.26352         2.70712         6.18162
     2007.26626        -1.27214         6.25706
     2007.26900         8.65461         6.01997
     2007.27174         2.67235         6.05877
     2007.27447         7.27310         5.91328
     2007.27721         9.26785         5.89172
     2007.27991        12.72761         6.17731
     2007.28271         3.70133        11.83518
     2007.28543         5.31108         5.92082
     2007.28816         6.76483         5.93268
     2007.29090         5.56457         5.93806
     2007.29364         2.43632         5.87556
     2007.29638        -0.52293         5.87125
     2007.29911         1.85581         8.73143
     2007.30185         4.02356         5.91651
     2007.30459         6.85030         5.88957
     2007.30733         0.63405         5.98656
     2007.31007         2.27879         6.25706
     2007.31280         5.31354         6.01243
     2007.31500         6.57554         7.85096
     2007.31828         4.78703         5.99842
     2007.32008         0.44121        10.81568
     2007.32922         1.89102         5.93483
     2007.33196         7.74276         6.24952
     2007.33470         1.25151         6.10726
     2007.33744        -4.89474         5.95962
     2007.34017        -1.71500         5.94776
     2007.34291        -4.23425         6.00704
     2007.34565        -8.69451         5.91220
     2007.34839        -9.17276         6.02320
     2007.35112         1.04098         5.97794
     2007.35386        -0.58227         6.33142
     2007.36208        -1.15303         5.98333
     2007.36481        -4.37929         6.35836
     2007.36755        -4.09454         6.06631
     2007.37029        -7.16280         6.23443
     2007.37303         3.32295         6.14606
     2007.37577        -3.31230         6.24090
     2007.37850        -9.68856         6.08140
     2007.38124        -5.64081         6.06739
     2007.38398        -2.69607         5.99949
     2007.38672        -0.81332         6.16653
     2007.38945        -2.21758         5.97902
     2007.39219       -15.13783         6.22689
     2007.39493        -7.42809         5.95746
     2007.39767        -2.78734         5.98441
     2007.40041         0.24441         5.99303
     2007.40314        -1.60485         5.96608
     2007.40588        -9.06510         5.95746
     2007.40862       -11.63236         6.14821
     2007.41136       -13.41461         5.98548
     2007.41410        -4.38187         5.96393
     2007.41683        -6.27912         5.91112
     2007.41957        -4.99837         6.03398
     2007.42231         6.35137         6.06092
     2007.42505        -0.45288         6.17408
     2007.42778         6.99486         5.91543
     2007.43052         1.20261         5.90897
     2007.43326         1.48535         5.93375
     2007.43600        -7.24990         5.95315
     2007.43874        -6.77815         6.04583
     2007.44421         1.17834         6.07709
     2007.44695        -2.80892         5.98225
     2007.44969        -5.73317         5.94345
     2007.45243        -6.38743         5.96070
     2007.45516        -4.80568         5.91974
     2007.45790         1.11107         5.88634
     2007.46064        -0.12619         5.90250
     2007.47159        -5.01221         6.05661
     2007.47433       -11.05346         5.92190
     2007.47707       -10.17771         6.18809
     2007.47980       -11.60197         5.96824
     2007.48254       -11.78022         5.93268
     2007.48528        -3.57048         5.99842
     2007.48802        -6.78473         6.08894
     2007.49076         6.10301         6.31849
     2007.49453         4.67228        12.88592
     2007.49623       -29.63449        16.87445
     2007.49937         2.63507         9.31231
     2007.50172       -11.95701         7.62680
     2007.50537        -1.95468        20.74012
     2007.50718        -5.08251         5.94022
     2007.50992       -12.79677         6.11912
     2007.51266       -11.02302         6.03398
     2007.51894        -8.07590         9.62053
     2007.52087         0.74222         5.92513
     2007.52361        -3.59504         5.89819
     2007.52635        -2.83429         6.03937
     2007.52908        -2.41055         6.63641
     2007.53189        -5.80783         6.18917
     2007.53456         5.97594         6.15684
     2007.53730        -3.40531         5.99842
     2007.54004        -3.53356         6.00380
     2007.54277        -4.34782         6.00273
     2007.54551        -8.67707         6.01781
     2007.54825         4.43267         6.05014
     2007.55099         0.96242         6.03506
     2007.55373         0.54616         6.08248
     2007.55646        -6.83209         6.11157
     2007.55920         3.95966         5.99410
     2007.56194        -6.22360         6.74094
     2007.56468         0.18615         5.94992
     2007.56741        -7.16111         6.10187
     2007.56981         7.30580         7.02330
     2007.57563        -1.38387         5.96285
     2007.57837         1.68988         5.95531
     2007.58110         4.48362         5.93160
     2007.58384         5.58837         5.94130
     2007.58658        -0.49489         5.94022
     2007.58932         0.35486         5.95423
     2007.59206         5.68460         5.91005
     2007.59479         5.47635         6.04152
     2007.59753         0.17710         6.10942
     2007.60027         3.05484         5.88634
     2007.60301         5.88359         5.97255
     2007.60574         4.11333         5.90035
     2007.60848         1.95208         5.88310
     2007.61122         5.22082         5.99195
     2007.61396         1.91857         5.95962
     2007.61670         0.89132         6.44997
     2007.61943         5.97606         6.43380
     2007.62303        10.54941        12.35570
     2007.62491        11.83155         6.23766
     2007.62769         8.15628         6.39069
     2007.63039         0.90504         6.28185
     2007.63312         3.77579         6.11157
     2007.63586         3.78354         6.08355
     2007.63860         1.15228         6.07601
     2007.64134         7.47703         5.99518
     2007.64407         1.24277         6.27323
     2007.64681         8.17552         6.31418
     2007.64955        10.44426         6.31957
     2007.65229         5.62201         6.26137
     2007.65503         6.86976         6.19887
     2007.65776         9.73550         6.16977
     2007.66050         4.00025         6.23658
     2007.66324        -3.56201         6.47475
     2007.66598         6.06574         6.20856
     2007.66872         7.40148         6.33034
     2007.67145         3.36023         6.34328
     2007.67419         6.33697         6.28831
     2007.67693         6.19372         6.17085
     2007.67967        12.66747         8.26264
     2007.68526         6.78891         7.06317
     2007.69142         4.88908         9.31123
     2007.69336         8.73919         6.16653
     2007.69609         6.44094         6.22581
     2007.69883         8.19569         6.19024
     2007.70157         7.59643         6.17408
     2007.70431         6.23418         6.38746
     2007.70705        -0.99308         6.42734
     2007.70978         3.16067         6.28616
     2007.71252         1.90741         6.33358
     2007.71526        11.40916         6.01135
     2007.71800         7.77791         6.02751
     2007.72159        -9.44274        10.30486
     2007.72347         9.43440         6.07170
     2007.72621         7.92714         5.92944
     2007.72895         4.63189         6.00596
     2007.73169         6.27463         6.11696
     2007.73442         3.36538         6.13313
     2007.73716         2.59213         6.28508
     2007.73990         4.90587         6.09110
     2007.74264        15.89262         5.98333
     2007.74538        22.56236         6.13744
     2007.74811         2.84011         6.20964
     2007.75085         5.25885         6.64718
     2007.75387        -8.81753        10.01281
     2007.75633         3.43535         6.01243
     2007.75906        14.16509         6.01781
     2007.76178         5.66085         6.06415
     2007.76454         4.46958         6.32927
     2007.76728         1.29433         6.49739
     2007.77002        17.25507         6.66874
     2007.77275         0.09682         6.41979
