# ================= DQRFIT RESULTS ================
# INPUT FILE: series/PNDL.rad
# OUTPUT: LDETRENDED
# FILTER FUNCTION: f(t)
# f(t)=+line(t)+annual(t)+jumps(t)
# line(t)=+P 1+P 2*t
# annual(t)=+P 3*sin(2*pi*t+P 4)
# jumps(t)=+P 5*heav(t-2011.0088  )
# heav(t)=(t<0?0:1)
# TOTAL OBSERVATIONS MTOT= 1402
# INITIAL TIME INTERVAL= 2011.1622 - 2007.0883 =  4.0739
# TOTAL OBSERVATIONS AFTER PREFILTER M= 1398
# TIME-SPAN= 2011.1622 - 2007.0883 =  4.0739
# OBSERVATIONS: USED M=  1398 REJECTED MTOT-M=     4 %USED=   99.7147
# N=  5 PARAMETERS
# MAXSIG= 175.00000
# MAXRES=  17.11126
# SCALE FACTOR FOR LENGTHS: SCL=  10.00000
# SCALE FACTOR FOR SIGMAS: SCLSIG=   1.00000
# CHI^2=   1005.560 DOF=  1393 CHI^2/DOF=   0.72187
# RMS=      5.044 SDEV=      5.045 MEAN=    0.07366
#  P #       PARAMETER +-    SIGMA %error PARAMETER NAME
# P 1 =      3912.92118 +-  253.768   6.49 YZERO                              
# P 2 =        -1.93251 +-    0.126   6.54 SLOPE                              
# P 3 =         4.21069 +-    0.190   4.52 ANNUAL AMPLITUDE                   
# P 4 =        -2.70522 +-    0.058   2.13 ANNUAL PHASE                       
# P 5 =       -19.78646 +-    0.774   3.91 OFFSET 2011.0088                   
#       T            LDETRENDED       SIG_OBS
     2007.08830        -6.18102         4.72138
     2007.09104        -6.16773         4.75706
     2007.09378        -8.79344         4.68145
     2007.09651        -6.80915         4.64916
     2007.09925        -5.39786         4.67805
     2007.10199        -6.66157         4.66870
     2007.10473        -7.92028         4.76471
     2007.10747        -4.81699         4.85052
     2007.11020        -5.86370         4.66190
     2007.11294        -4.65340         4.66105
     2007.11568        -9.47411         4.64661
     2007.12115        -7.87453         4.65851
     2007.12389        -6.67424         4.74687
     2007.12663        -2.16395         4.76301
     2007.12937        -2.49566         4.80464
     2007.13211        -4.71737         4.65256
     2007.13484         5.48892         4.67465
     2007.13758         2.21121         4.69589
     2007.14032         0.36850         4.68909
     2007.14306         0.99580         4.70693
     2007.14580        -4.93791         4.68909
     2007.15127         0.03867         4.71543
     2007.15401         0.17696         4.74347
     2007.15675         6.05925         4.74602
     2007.15948         4.25454         4.73242
     2007.16222        -2.33517         4.88111
     2007.16496         1.72912         4.85987
     2007.16767        -7.93663         4.85732
     2007.17046        -6.07424         4.88790
     2007.17317        -2.89900         4.84033
     2007.17591        -3.81871         4.79954
     2007.17865         0.80758         4.81059
     2007.18139         2.23087         5.05613
     2007.18413        -1.97284         4.81739
     2007.19062        -6.08928         9.24394
     2007.19234        -6.22597         4.88196
     2007.19508        -1.45768         4.76811
     2007.19781        -2.93639         4.75026
     2007.20055        -7.60409         4.81229
     2007.20329        -5.02480         4.79699
     2007.20603        -3.40351         4.75196
     2007.20877         1.37978         4.77915
     2007.21150        -3.92693         4.80719
     2007.21424        -0.41064         4.83098
     2007.21698         1.38565         4.80889
     2007.21972        -2.35306         4.72902
     2007.22246         2.20623         4.72987
     2007.22519        -0.47748         4.77151
     2007.22793        -1.61619         4.79020
     2007.23341        -1.62660         4.79360
     2007.23614        -8.50131         4.78255
     2007.23779        -7.89713        11.07744
     2007.24162        -7.80573         4.74262
     2007.24436        -1.28144         4.75706
     2007.24710        -0.94215         4.70354
     2007.24983         0.76614         4.67125
     2007.25257        -4.38357         4.75621
     2007.25531        -8.82628         4.85052
     2007.25805        -4.96099         4.80549
     2007.26079        -5.67469         4.73412
     2007.26352         1.59160         4.71883
     2007.26626        -0.94611         4.69419
     2007.26900         2.91018         4.84033
     2007.27174        -0.34753         4.79445
     2007.27447         3.71176         4.66615
     2007.27721         8.23805         4.69504
     2007.27995         1.45834         4.79614
     2007.28271        12.46567         9.21336
     2007.28543        -1.93108         4.74347
     2007.28816        -0.12379         4.77490
     2007.29090         1.32751         5.34925
     2007.29364         2.11580         4.90999
     2007.29638         1.42809         4.78255
     2007.29911         0.04138         7.04851
     2007.30186         1.77168         4.92614
     2007.30459        -0.15904         5.10456
     2007.30733         1.11425         4.83608
     2007.31007        -1.53746         4.96692
     2007.31228         1.72382         6.61265
     2007.32102         0.93671         4.96267
     2007.32376        -3.68000         4.79530
     2007.32648         0.82627         4.78510
     2007.32922         2.51656         4.83778
     2007.33196        -2.00715         4.95757
     2007.33428        -0.94667         5.92530
     2007.33744         0.76343         4.83693
     2007.34017        -0.07328         4.86411
     2007.34291        -2.69299         4.84287
     2007.34565        -7.06169         4.86242
     2007.34839        -0.24540         4.98476
     2007.35112         9.28289         5.09946
     2007.35386       -11.57282         5.22096
     2007.36208        -2.13095         4.89215
     2007.36481        -4.45066         4.88536
     2007.36755       -10.44237         4.82843
     2007.37029        -1.59508         4.84882
     2007.37303        -0.64079         4.96692
     2007.37577        -3.00549         4.98646
     2007.37850        -3.70520         4.86496
     2007.38124         0.21609         4.85392
     2007.38398        -0.02762         4.92444
     2007.38672        -3.98933         4.79020
     2007.38945        -2.62504         4.88875
     2007.39219        -6.18775         4.97712
     2007.39493        -5.60246         4.87516
     2007.39767        -3.51217         4.89385
     2007.40041        -6.48688         4.94653
     2007.40314         0.37141         4.86242
     2007.40588        -6.65129         4.83523
     2007.40862        -8.47800         4.89045
     2007.41136        -6.13771         4.82333
     2007.41410        -6.55242         4.84712
     2007.41683        -4.41313         4.85392
     2007.42231         2.50045         4.91934
     2007.42505        -3.97126         4.98561
     2007.42778         5.70203         4.81229
     2007.43052         2.48732         4.78765
     2007.43326         4.06361         4.79105
     2007.43600        -5.52109         4.86751
     2007.43874        -5.14580         4.88196
     2007.44421        -7.80422         4.91169
     2007.44695        -1.15893         4.94993
     2007.44969        -8.96864         4.95503
     2007.45243        -0.44835         4.91594
     2007.45516        -0.14706         4.84202
     2007.45790        -0.39377         4.85477
     2007.46064        -0.75248         4.81908
     2007.48254       -13.39515         4.80889
     2007.48528        -6.34286         4.79360
     2007.48802        -2.14957         4.74602
     2007.49076        -3.23828         5.18273
     2007.49453         1.04503         9.80640
     2007.49623         3.76031        13.53541
     2007.49937        10.54937         9.68490
     2007.50172        -0.78209         6.17509
     2007.50537       -18.07504        15.88463
     2007.50718        -4.23453         4.76131
     2007.50992        -2.75224         4.79699
     2007.51266        -3.30695         4.80974
     2007.51540        -0.86166         4.85902
     2007.51813         1.58863         4.82078
     2007.52087        -0.15808         4.75111
     2007.52361        -1.27879         4.77320
     2007.52635         2.76551         4.82843
     2007.52908        -0.38020         5.43506
     2007.53189         0.50222         5.02809
     2007.53456        -2.46062         4.86581
     2007.53730         0.22067         4.79699
     2007.54004         0.83796         4.80549
     2007.54277         5.49325         4.84882
     2007.54551        -0.87546         4.92699
     2007.54825         7.30483         4.80549
     2007.55099        -2.36688         4.73667
     2007.55373        -1.99259         4.79784
     2007.55646        -0.79929         4.81569
     2007.55920         3.70400         4.88281
     2007.56194         0.28229         5.55316
     2007.56468        -1.41542         4.82163
     2007.56741         5.34687         4.83608
     2007.57015         0.66916         4.80209
     2007.57289         2.56245         4.78340
     2007.57563         2.92774         4.85902
     2007.57837         4.40303         4.76216
     2007.58110         2.75032         4.82418
     2007.58384         5.17461         4.78935
     2007.58658         0.64991         4.87771
     2007.58932         3.20320         4.83268
     2007.59206         9.02849         4.79445
     2007.59479         9.55178         4.87771
     2007.59753         7.49107         4.94483
     2007.60027         4.29436         4.82673
     2007.60301        12.71665         4.85307
     2007.60574         4.78994         4.86157
     2007.60848         6.88123         4.71373
     2007.61122         7.08152         4.74432
     2007.61396        -0.02319         4.76301
     2007.61670        -0.90689         5.01620
     2007.61943         6.46940         5.15724
     2007.62303        11.33535         8.30680
     2007.62491         5.07298         4.97542
     2007.62769         5.10135         5.15894
     2007.63039         8.89056         5.03234
     2007.63312         3.81085         4.98306
     2007.63586        -1.31286         4.87261
     2007.63860        -0.21657         4.95503
     2007.64134         0.07172         4.80634
     2007.64407        10.10301         4.99411
     2007.64681        -1.98969         5.10796
     2007.64955         3.11060         5.14449
     2007.65229         1.77589         5.06293
     2007.65503         2.26618         4.93209
     2007.65776         1.57347         4.95672
     2007.66050         0.20276         5.01195
     2007.66324       -10.85795         5.37389
     2007.66598         5.63534         5.11051
     2007.66872         9.83463         5.03574
     2007.67145         0.59892         4.97287
     2007.67419         2.61621         4.97202
     2007.67693        15.62451         4.98306
     2007.67967         7.89880         4.92104
     2007.68537         6.54182         5.42317
     2007.68750         0.18694         5.96608
     2007.69142        11.42550         7.32718
     2007.69336         7.19725         4.95757
     2007.69609         4.65554         4.96267
     2007.69883         3.85083         4.98476
     2007.70157         7.42212         4.97542
     2007.70431         7.95141         5.09776
     2007.70705        10.30571         5.02045
     2007.70978         8.96400         4.96522
     2007.71252         3.63329         5.01195
     2007.71526         8.24058         4.79445
     2007.71800         9.02787         4.82078
     2007.72073        11.36616         4.84287
     2007.72347        10.93945         4.87516
     2007.72621         8.99774         4.81908
     2007.72895         4.15803         4.78850
     2007.73169         7.79032         4.84542
     2007.73442         6.96761         4.80209
     2007.73716         5.83491         4.92869
     2007.73990         9.91820         4.82758
     2007.74264        14.28049         4.76046
     2007.74538         7.50478         4.81824
     2007.74811        -0.32393         4.94823
     2007.75085        12.38336         5.16998
     2007.75359         4.81065         5.05528
     2007.75633         8.86194         4.85137
     2007.75906         9.33823         4.77236
     2007.76180         7.75252         4.83438
     2007.76454         3.26981         4.81739
     2007.76728         4.91811         5.10796
     2007.77002         9.91440         5.13090
     2007.77275         5.12469         4.99751
     2007.77549         6.60498         4.79614
     2007.77823        11.41327         4.95927
     2007.78100         8.22862         4.83013
     2007.78371         6.12085         4.75706
     2007.78644        10.71514         4.80464
     2007.78918         5.30443         4.86581
     2007.79192         7.36172         4.91339
     2007.79466        11.28001         4.95757
     2007.79739        11.77231         5.05528
     2007.80013        15.48660         4.82503
     2007.80281        -0.22022         4.88026
     2007.80561         3.92418         4.78935
     2007.80835         6.67747         4.94228
     2007.81108         5.70976         4.94313
     2007.81382         3.53705         4.99071
     2007.81656        -2.62466         4.99921
     2007.81930         0.04063         4.85562
     2007.82203        -1.23808         4.87006
     2007.82477        -1.14179         4.86666
     2007.82751        -0.78849         4.95418
     2007.83025         4.31680         4.86496
     2007.83299         3.34509         5.06038
     2007.83572         0.78538         4.75791
     2007.83846         3.41067         4.81059
     2007.84120         4.61197         4.77405
     2007.84400        -0.03263         4.82333
     2007.84674        -0.99234         4.82758
     2007.84948         0.68995         4.80379
     2007.85221         3.55324         4.93633
     2007.85495         1.37353         4.97372
     2007.85769         2.00783         4.94823
     2007.86043         6.63112         4.79105
     2007.86316         4.03541         4.84627
     2007.86590         7.58670         4.87771
     2007.86864         2.08699         4.84797
     2007.87138         1.68328         5.03829
     2007.87412         6.55657         4.96352
     2007.87685         3.66086         4.90405
     2007.87959        -0.53585         4.89215
     2007.88233        -6.04756         4.86072
     2007.88507        -0.80427         4.88026
     2007.88781         0.71903         4.88196
     2007.89054        -1.71368         4.97627
     2007.89287        -3.86018         5.93040
     2007.89720        -7.41882        18.45050
     2007.89876         0.80019         5.01535
     2007.90149        -5.68752         4.93548
     2007.90423         0.72277         5.07397
     2007.90697        -2.27194         4.98476
     2007.90971       -13.03065         5.05868
     2007.91518        -8.06307         4.97287
     2007.91792       -16.99677         5.01280
     2007.92066         2.92952         5.21671
     2007.92340         0.78281         5.06633
     2007.92614         4.60010         4.98986
     2007.92887        -0.46061         4.94823
     2007.93161        12.65468         5.00006
     2007.93435       -10.74203         4.96607
     2007.93709       -10.81874         4.98136
     2007.93982       -20.92445         4.96862
     2007.94256        -9.72016         4.90065
     2007.94530       -12.19087         5.11815
     2007.94804        -6.82657         4.92699
     2007.95078        -2.87928         4.92784
     2007.95345         3.54489         4.93293
     2007.95619         3.84918         4.88960
     2007.95893         7.11647         4.95503
     2007.96167         6.65176         4.96522
     2007.96530         5.00278         8.79024
     2007.96714         7.22834         5.01195
     2007.96988        -4.56537         4.94993
     2007.97262        -4.77008         5.04424
     2007.97535        -6.10378         4.91254
     2007.97809         0.10751         4.86242
     2007.98083        -2.28920         4.83523
     2007.98357         0.50709         4.84712
     2007.98631        -0.37362         4.98221
     2007.98904         1.39767         5.04169
     2007.99178         1.68596         4.95757
     2007.99452        -2.60275         4.97202
     2007.99726        -4.91246         4.81484
     2008.00068       -20.42284         7.10798
     2008.00273       -10.79888         4.89045
     2008.00547         0.18042         4.79275
     2008.00821         9.59171         4.96437
     2008.01095        13.99000         4.82248
     2008.01368         1.49129         4.77660
     2008.01642         5.31358         4.75621
     2008.01916        -2.77213         4.82928
     2008.02190        -1.89684         4.83863
     2008.02464         3.71445         4.81484
     2008.02737        -3.40026         4.79445
     2008.03011        -0.67597         4.94058
     2008.03285        -9.56168         4.76556
     2008.03644        -4.16073         8.10289
     2008.03833        -6.92409         4.97457
     2008.04106       -10.03880         4.85477
     2008.04380        -7.11351         4.91084
     2008.04654        -9.28122         4.82758
     2008.04928        -6.52993         4.81059
     2008.05201        -7.56664         4.76896
     2008.05475        -2.41635         4.79954
     2008.05749       -10.86506         4.76726
     2008.06023        -4.80277         4.72902
     2008.06297        -1.80048         4.74007
     2008.08333         6.24788        12.43514
     2008.08510        -2.88171         5.22606
     2008.08761        -1.73786         4.75536
     2008.09034        -8.51057         4.70863
     2008.09308        -9.16328         4.75111
     2008.09582         0.71702         4.87091
     2008.09856        -2.76969         4.89725
     2008.10130         0.82860         5.02809
     2008.10403         3.40689         4.91424
     2008.10677         2.25118         4.75536
     2008.10951         2.50947         4.79614
     2008.11225        -4.13824         4.75026
     2008.11498        -4.72495         4.82418
     2008.11861        -3.65795         7.52940
     2008.12046        -2.34937         4.75536
     2008.12320        -0.29708         4.95333
     2008.12571        -6.37723         5.85903
     2008.12902        -4.53083         7.32803
     2008.13141        -1.99620         4.80294
     2008.13415         0.50609         4.75196
     2008.13689         2.67238         4.75536
     2008.13963         2.95667         4.74007
     2008.14236         4.52996         4.79020
     2008.14510         4.82425         4.80379
     2008.14784         4.70354         4.75196
     2008.15058        -1.44817         4.76811
     2008.15331        -7.33388         4.72053
     2008.15697        -7.80281         7.71461
     2008.15879        -0.12829         4.73497
     2008.16153        -6.61100         4.72733
     2008.16427         1.06229         4.78000
     2008.16700        -3.09442         4.72563
     2008.16974        -6.02513         4.77915
     2008.17248        -1.33984         4.75451
     2008.17522        -6.27455         4.80464
     2008.17796        -8.55526         4.69419
     2008.18069        -6.53097         4.70184
     2008.18343        -2.29868         4.73242
     2008.18611        -4.05649         4.82503
     2008.18891        -4.90909         4.72648
     2008.19164         1.40820         4.75621
     2008.19438        -8.43851         4.73752
     2008.19712        -2.40322         5.79786
     2008.19986         0.49007         4.78765
     2008.20260         0.18836         4.73497
     2008.20533         1.33965         4.74347
     2008.20807        -2.20906         4.93293
     2008.21081        -8.65777         4.89640
     2008.21355         0.71952         5.01875
     2008.21629        -3.31918         4.80549
     2008.21902        -7.33489         4.87176
     2008.22176        -9.33060         4.79530
