# ================= DQRFIT RESULTS ================
# INPUT FILE: series/PNHG.rad
# OUTPUT: LDETRENDED
# FILTER FUNCTION: f(t)
# f(t)=+line(t)+annual(t)+jumps(t)
# line(t)=+P 1+P 2*t
# annual(t)=+P 3*sin(2*pi*t+P 4)
# jumps(t)=+P 5*heav(t-2008.0700  )+P 6*heav(t-2008.3700  )+P 7*heav(t-2010.7460  )+P 8*heav(t-2012.7500  )
# heav(t)=(t<0?0:1)
# TOTAL OBSERVATIONS MTOT= 2145
# INITIAL TIME INTERVAL= 2022.7187 - 2007.8522 = 14.8665
# TOTAL OBSERVATIONS AFTER PREFILTER M= 2041
# TIME-SPAN= 2022.7187 - 2007.8522 = 14.8665
# OBSERVATIONS: USED M=  2041 REJECTED MTOT-M=   104 %USED=   95.1515
# N=  8 PARAMETERS
# MAXSIG= 175.00000
# MAXRES=  68.64026
# SCALE FACTOR FOR LENGTHS: SCL=  10.00000
# SCALE FACTOR FOR SIGMAS: SCLSIG=   1.00000
# CHI^2=  15467.762 DOF=  2033 CHI^2/DOF=   7.60834
# RMS=     16.745 SDEV=     16.749 MEAN=    0.05302
#  P #       PARAMETER +-    SIGMA %error PARAMETER NAME
# P 1 =     18784.44469 +-  446.380   2.38 YZERO                              
# P 2 =        -9.37669 +-    0.222   2.37 SLOPE                              
# P 3 =         4.89401 +-    0.758  15.49 ANNUAL AMPLITUDE                   
# P 4 =         2.58125 +-    0.205   7.93 ANNUAL PHASE                       
# P 5 =        66.92588 +-    3.649   5.45 OFFSET 2008.0700                   
# P 6 =       -44.78932 +-    3.222   7.19 OFFSET 2008.3700                   
# P 7 =        14.44701 +-    1.308   9.06 OFFSET 2010.7460                   
# P 8 =        77.51296 +-    1.960   2.53 OFFSET 2012.7500                   
#       T            LDETRENDED       SIG_OBS
     2007.85215        -4.85220        15.86311
     2007.85489        -1.06052        16.26307
     2007.85763       -17.91485        15.74451
     2007.86036         3.01782        15.21491
     2007.86310         6.70849        15.74726
     2007.86584         0.22016        15.33352
     2007.86858         6.11383        15.53763
     2007.87132         3.18051        15.65900
     2007.87405         4.77518        15.53211
     2007.87679         2.03585        15.20387
     2007.87953         8.89052        15.41075
     2007.88227         7.82519        15.18457
     2007.88501        13.24987        15.18181
     2007.88774         0.26054        15.26732
     2007.89048         5.37121        15.12388
     2007.89322         8.26388        15.52936
     2007.89596         4.70355        15.66451
     2007.89869         8.38823        15.36386
     2007.90143         2.39190        15.40523
     2007.90417         0.90257        15.28111
     2007.90691         5.21224        15.19560
     2007.90965         7.03491        15.34179
     2007.91238        10.05159        15.36662
     2007.91512        12.09626        15.44109
     2007.91786         6.47593        15.46867
     2007.92060         0.80360        15.92655
     2007.92334        -2.33673        15.88794
     2007.92607         4.91695        15.65072
     2007.92881         9.24762        15.79691
     2007.93155        11.68229        15.45764
     2007.93429         7.96096        15.40523
     2007.93702         1.62763        15.73899
     2007.93976         4.97431        15.79416
     2007.94250         7.00398        15.73071
     2007.94524         3.62765        16.11136
     2007.94798         3.38832        15.62866
     2007.95071         9.04499        15.44661
     2007.95345         3.20267        15.68658
     2007.95619        -1.21766        16.10309
     2007.95893        10.09901        16.00930
     2007.96167         2.57068        16.15825
     2007.96440        12.68435        15.83553
     2007.96714         8.42103        15.63693
     2007.96988         3.36870        15.94586
     2007.97262        -8.18163        16.11964
     2007.97535       -13.93496        15.94862
     2007.97809        -5.63229        15.83553
     2007.98083         3.12739        15.94035
     2007.98357         8.87406        15.70589
     2007.98631         7.35173        16.91679
     2007.98904        -3.19760        16.16653
     2007.99178        -8.66893        16.12240
     2007.99452        -1.21525        18.02288
     2007.99726        31.12042        19.67236
     2008.00000       -15.45691        16.92231
     2008.00273       -12.26824        15.77761
     2008.00547        -1.81557        15.44936
     2008.00821         7.73511        15.46316
     2008.01095         9.46178        15.48798
     2008.01368        12.63445        15.28111
     2008.01642         6.86012        16.08930
     2008.04767        10.53212        34.99484
     2008.06297         8.83455        15.65348
     2008.06570         7.11122        15.46591
     2008.07118        11.32656        15.58728
     2008.07392        11.99423        15.60935
     2008.07666        16.35391        18.11942
     2008.07939        22.49058        19.39377
     2008.08213        38.15625        17.07953
     2008.08487        47.92492        16.79543
     2008.08761        52.61759        18.22148
     2008.09034        37.77827        18.86417
     2008.09308        39.91794        18.56903
     2008.09582        45.23161        18.67936
     2008.09856        26.96228        17.87117
     2008.11875        97.18561        34.32181
     2008.12046        62.55366        20.93291
     2008.12320        70.73233        20.43090
     2008.12594        76.69400        19.67787
     2008.12867        77.80967        19.31377
     2008.13141        82.21334        19.00484
     2008.13415        74.68402        19.11242
     2008.13689        77.69169        18.99933
     2008.13963        83.37336        18.64626
     2008.14236        78.46503        18.58834
     2008.14510        76.78370        18.58282
     2008.14784        76.57638        18.46145
     2008.15058        73.75305        18.51662
     2008.15331        62.65472        18.21596
     2008.15605        68.14539        18.27389
     2008.15879        75.04406        18.09184
     2008.16153        59.06674        18.37594
     2008.16427        66.77741        18.95243
     2008.16700        62.67508        21.98383
     2008.16974        62.21475        22.41137
     2008.17522       107.30510        22.19898
     2008.17796       103.54677        21.73282
     2008.18069       106.46444        21.60594
     2008.18343       112.04311        20.96325
     2008.18617       103.67278        21.30253
     2008.18891        12.88046        24.68699
     2008.19164        23.13913        23.16439
     2008.19438        84.60480        20.71224
     2008.19712       105.95447        20.49710
     2008.19986        99.52014        19.51789
     2008.20260       111.50482        19.10138
     2008.20807       112.73516        20.25988
     2008.21081       114.64483        21.75489
     2008.38329       -24.15983        21.42665
     2008.38603        -1.47616        19.74683
     2008.38877        12.61151        20.01439
     2008.39151         1.89918        20.19644
     2008.39425        -4.46315        20.03094
     2008.39698        13.95053        18.69591
     2008.39972        20.30020        18.05874
     2008.40246         9.70187        17.54569
     2008.40520         6.82754        16.86438
     2008.40794        -3.75079        16.73198
     2008.41067        -0.44111        15.46040
     2008.41341         1.36256        15.55694
     2008.41615         2.51523        15.41902
     2008.41889         4.28390        15.35282
     2008.42162         0.92857        15.70865
     2008.42436        -8.75975        15.68658
     2008.42710        -0.88608        15.43557
     2008.42984        -4.76041        15.65624
     2008.43258         8.26526        16.02861
     2008.43531         8.86493        15.66451
     2008.43805       -11.80539        15.96517
     2008.44079         0.72028        15.92104
     2008.44353         6.58995        15.46316
     2008.44626         5.00462        15.46867
     2008.44900         1.26929        15.36937
     2008.45174        -3.26203        15.66451
     2008.45448        -0.74836        15.61486
     2008.45722        -3.86069        15.02734
     2008.45995        -7.86702        15.13767
     2008.46269        -4.55635        15.25628
     2008.46543        -6.80667        15.30593
     2008.46817        -3.18100        15.09906
     2008.47091        -8.62633        15.16250
     2008.47364         2.33534        14.92804
     2008.47638         1.16001        14.99148
     2008.47912        -3.18731        14.99976
     2008.48186        10.33736        14.99700
     2008.48459         2.04103        15.28938
     2008.48733        -0.37630        14.89770
     2008.49007        -4.50063        14.88115
     2008.49281        -0.10695        14.97493
     2008.49555         2.60872        15.57073
     2008.49828         7.11539        15.64796
     2008.50102         5.50706        15.25077
     2008.50376         3.89173        15.62314
     2008.50650         7.44641        15.31972
     2008.50924        13.92508        15.11561
     2008.51197         5.52075        15.01631
     2008.51471         4.18142        14.92804
     2008.51745         6.30109        14.97769
     2008.52019         2.08777        14.95011
     2008.52292        -0.47456        15.46316
     2008.52566         6.08311        15.63969
     2008.52840        10.64978        14.94459
     2008.53114         5.23645        15.24801
     2008.53388        -3.96987        15.20663
     2008.53661         2.65980        14.89770
     2008.53935        14.72847        15.00803
     2008.54209        10.76314        14.88391
     2008.54483        11.82981        15.27559
     2008.54757        12.13949        15.10733
     2008.55030        12.18616        14.88667
     2008.55304        10.91783        14.92804
     2008.55578         9.91150        14.88391
     2008.55852        13.38017        15.01079
     2008.56125        10.61885        14.85633
     2008.56399        10.72052        14.91149
     2008.56673        11.58419        14.91149
     2008.56947         6.33986        14.89494
     2008.57221        16.85753        15.27007
     2008.57494         4.88721        15.57625
     2008.57768         2.49988        15.44936
     2008.58042         8.76655        15.07699
     2008.58316        -4.58678        15.82174
     2008.58590        20.49089        14.84529
     2008.58863        10.59056        15.32524
     2008.59137        11.50924        14.79288
     2008.59411        13.51091        14.80116
     2008.59685        14.20958        15.07423
     2008.59958         6.65325        16.15274
     2008.60232         4.55092        15.98724
     2008.60506         7.50660        15.12664
     2008.60780         3.36427        15.22318
     2008.61054         9.15494        15.04113
     2008.61327        17.35861        15.15698
     2008.61601        21.97628        15.15422
     2008.61875        11.87196        15.04941
     2008.62149        13.38963        15.09078
     2008.62423        13.42930        15.14595
     2008.62696        15.71997        15.14319
     2008.62970        20.33264        15.45764
     2008.63244         8.99832        15.16250
     2008.63518         1.50399        15.81898
     2008.63791        -9.76634        15.40247
     2008.64065        19.42633        15.09078
     2008.64339        15.63900        15.15974
     2008.64613        14.58668        15.52660
     2008.64887         7.54835        15.16526
     2008.65160        14.70402        15.06320
     2008.65434        -0.57531        15.44385
     2008.65708        18.11036        15.84105
     2009.59713        21.93490        28.53485
     2009.59890        31.11052        15.39971
     2009.60164        24.62020        15.48522
     2009.60438        22.08087        15.35282
     2009.60711        10.51454        15.49350
     2009.60985         7.75421        16.01758
     2009.61259        12.05088        15.99000
     2009.61533        17.20056        15.41626
     2009.61807        23.46823        15.43281
     2009.62080        24.53090        15.46040
     2009.62354        19.32457        15.39696
     2009.62628        22.28324        15.45764
     2009.62902        25.14392        15.48522
     2009.63175        23.85759        15.31421
     2009.63449        18.32626        15.54039
     2009.63723        17.59693        16.07275
     2009.63997        18.71360        15.63969
     2009.64271        17.78928        15.59004
     2009.64544        26.19695        15.45764
     2009.64818        17.72762        15.70865
     2009.65092        15.38929        15.64521
     2009.65366        14.07696        15.99000
     2009.65639        17.22364        15.27559
     2009.65913        14.99731        15.42730
     2009.66187        25.32598        15.24249
     2009.66461        24.36165        15.34455
     2009.66735        26.10632        15.53763
     2009.67008        17.84700        15.77761
     2009.67282        17.87467        16.07826
     2009.67556        12.26334        15.79967
     2009.67830        23.57201        15.80519
     2009.68104         5.01968        16.37064
     2009.68377        -0.43464        16.24100
     2009.68651        -7.46097        15.47419
     2009.68925        20.63170        15.83829
     2009.69199        23.77737        15.69761
     2009.69472        24.71204        15.38316
     2009.69746        14.72972        15.30869
     2009.70020        25.44539        15.60383
     2009.70294        29.63006        15.44661
     2009.70568        21.89273        15.41351
     2009.70841        12.63340        15.70865
     2009.71115        19.03708        15.60659
     2009.71389        21.17075        16.02310
     2009.71663        17.78642        15.74175
     2009.71937        22.27009        15.43281
     2009.72210        14.66076        15.33352
     2009.72470        20.10914        16.17205
     2009.72758        12.13611        15.44109
     2009.73032        19.80278        15.25904
     2009.73305        27.99845        15.51005
     2009.73579        27.01312        15.33627
     2009.73853        24.13880        15.06320
     2009.74127        19.63447        15.44936
     2009.74401        25.56914        16.17480
     2009.74674        24.62081        15.22042
     2009.74948        24.51948        15.18181
     2009.75222        24.78416        15.73899
     2009.75496        25.86783        15.16526
     2009.75770        26.49250        15.25352
     2009.76043        28.10117        15.25077
     2009.76317        27.98684        15.23697
     2009.76591        25.06752        15.25628
     2009.76865        25.90519        15.49626
     2009.77138        23.99186        15.28387
     2009.77412        27.99053        15.34731
     2009.77686        27.66320        15.35282
     2009.77960        26.30488        15.26456
     2009.78234        30.20655        15.35007
     2009.78507        26.16822        15.89897
     2009.78781        20.13289        16.10860
     2009.79055        -2.67844        16.49753
     2009.79329        10.25323        16.22445
     2009.79603        18.24191        15.95965
     2009.79876        26.73358        15.50177
     2009.80150        22.45825        15.58176
     2009.80424        20.57492        15.78312
     2009.80698        25.01459        15.78312
     2009.80971         8.52327        16.19687
     2009.81245        27.95294        15.85208
     2009.81519        30.52161        15.66176
     2009.81793        -2.18272        15.87966
     2009.82067        22.12495        15.42730
     2009.82340        28.68663        15.34455
     2009.82614        23.56830        15.65072
     2009.82888        16.37297        16.50029
     2009.83162         8.76664        16.41754
     2009.83436        29.70031        15.63969
     2009.83709        -7.18701        16.17756
     2009.83983        19.28566        15.45212
     2009.84257        24.33933        15.43833
     2009.84531        21.80800        15.86587
     2009.84804        22.91967        15.75830
     2009.85078        16.85335        15.67003
     2009.85352        15.99802        15.67831
     2009.85626        17.78869        15.70865
     2009.85900         9.00536        15.89621
     2009.86173        16.38103        15.59831
     2009.86447        29.63271        16.46719
     2009.86721        18.58538        16.15825
     2009.86995        22.30805        15.61211
     2009.87269        22.29672        15.65624
     2009.87542         4.84739        16.12515
     2009.87816        23.53707        16.10033
     2009.88090        17.43474        16.00655
     2009.88364        13.77341        15.72796
     2009.88637        19.00308        15.80795
     2009.88911        20.44075        15.41626
     2009.89185        11.54043        15.65624
     2009.89459        15.74210        15.93207
     2009.89733        -3.84523        15.85484
     2009.90006         7.08044        15.86035
     2009.90280         7.84711        15.91000
     2009.90554        22.66079        15.45488
     2009.90828        21.49046        15.57073
     2009.91102        13.44613        15.65900
     2009.91375        -3.32920        15.84380
     2009.91649        14.13147        15.62038
     2009.91923        12.09315        15.50177
     2009.92197        11.72782        15.49901
     2009.92470         6.68349        15.76657
     2009.92744        16.41716        15.73623
     2009.93018        17.48983        15.65900
     2009.93292        16.41951        15.80243
     2009.93566        20.85618        15.47695
     2009.93839        16.41185        16.05344
     2009.94113        16.09752        15.89621
     2009.94387        19.91819        16.11412
     2009.94661        34.16387        15.83277
     2009.94935        16.49554        15.68106
     2009.95208         8.93521        15.37489
     2009.95482        -4.88712        16.06723
     2009.95756         1.21755        15.53763
     2009.96030         7.01823        15.72796
     2009.97125        13.49491        16.19135
     2009.97399        15.06259        16.48374
     2009.97672        11.93626        18.21872
     2009.97946        16.84593        19.45721
     2009.98220        26.09160        18.38422
     2009.98494        30.02727        17.66706
     2009.98767        17.99095        17.49880
     2009.99041        23.56862        16.99954
     2009.99315        26.40129        16.76233
     2009.99589        27.02196        16.65199
     2009.99863        17.85563        16.77060
     2010.00410        20.36998        18.90003
     2010.00684        22.94265        18.24906
     2010.00958         3.36532        18.03115
     2010.01232        17.82499        18.94416
     2010.01505        23.81967        17.64775
     2010.01779        24.55534        17.42157
     2010.02053        42.97201        18.70419
     2010.02327        23.55868        18.50559
     2010.02600        37.13435        18.09735
     2010.02874        17.76402        18.06425
     2010.03148        44.88670        17.43260
     2010.03422        40.73037        18.70970
     2010.03696        40.36304        20.38676
     2010.03969        24.37071        18.76763
     2010.04243        31.88638        17.15677
     2010.04517        37.11506        16.51408
     2010.04791        43.49173        17.29468
     2010.05065        44.68040        16.74302
     2010.05303        49.47773        20.94394
     2010.09720        38.11696        16.51408
     2010.09993        30.32750        16.01758
     2010.10266        38.37117        16.06447
     2010.10540        34.84184        16.16101
     2010.10814        35.34351        15.98172
     2010.11088        33.50418        16.32375
     2010.11362        35.90486        16.30996
     2010.11635        50.29153        18.16355
     2010.11909        11.46020        17.32502
     2010.12183        23.08187        17.63120
