# ================= DQRFIT RESULTS ================
# INPUT FILE: series/PNHR.rad
# OUTPUT: LDETRENDED
# FILTER FUNCTION: f(t)
# f(t)=+line(t)+annual(t)+jumps(t)
# line(t)=+P 1+P 2*t
# annual(t)=+P 3*sin(2*pi*t+P 4)
# jumps(t)=+P 5*heav(t-2014.5000  )
# heav(t)=(t<0?0:1)
# TOTAL OBSERVATIONS MTOT=  843
# INITIAL TIME INTERVAL= 2015.7591 - 2012.6845 =  3.0746
# TOTAL OBSERVATIONS AFTER PREFILTER M=  834
# TIME-SPAN= 2015.7591 - 2012.6845 =  3.0746
# OBSERVATIONS: USED M=   834 REJECTED MTOT-M=     9 %USED=   98.9324
# N=  5 PARAMETERS
# MAXSIG= 175.00000
# MAXRES=  32.80080
# SCALE FACTOR FOR LENGTHS: SCL=  10.00000
# SCALE FACTOR FOR SIGMAS: SCLSIG=   1.00000
# CHI^2=   2702.898 DOF=   829 CHI^2/DOF=   3.26043
# RMS=     11.129 SDEV=     11.127 MEAN=   -0.44548
#  P #       PARAMETER +-    SIGMA %error PARAMETER NAME
# P 1 =      2910.81242 +- 1858.487  63.85 YZERO                              
# P 2 =        -1.44422 +-    0.923  63.91 SLOPE                              
# P 3 =        14.01292 +-    0.561   4.00 ANNUAL AMPLITUDE                   
# P 4 =        -3.11563 +-    0.057   1.82 ANNUAL PHASE                       
# P 5 =       -37.19514 +-    1.705   4.58 OFFSET 2014.5000                   
#       T            LDETRENDED       SIG_OBS
     2012.68446        10.08981         9.87700
     2012.68720        13.95477         9.88964
     2012.68993        17.70772        10.03409
     2012.69267        11.72668        10.29772
     2012.69541         9.33863        10.21285
     2012.69815         9.47058        10.12437
     2012.70089         9.76854         9.96006
     2012.70362         6.58649        10.01242
     2012.70636        12.68545         9.89686
     2012.70910         7.68940         9.91491
     2012.71184        11.98035         9.81560
     2012.71457        14.53931         9.96367
     2012.71731        18.88426         9.87519
     2012.72005        18.28222         9.75421
     2012.72279        15.35017         9.74699
     2012.72553        12.71412         9.76324
     2012.72826        14.09308         9.86436
     2012.73100        17.27003        10.00700
     2012.73374        14.05099        10.19479
     2012.73648        12.90094         9.95464
     2012.73921        15.90289         9.99436
     2012.74195        16.24485         9.99978
     2012.74469        30.98180         9.89686
     2012.74743        13.07076         9.82644
     2012.75017        12.64071         9.90227
     2012.75290        10.65767         9.89686
     2012.75564        13.38462         9.82644
     2012.75838        11.78657         9.89686
     2012.76112        11.77453         9.92033
     2012.76386        14.17948         9.71449
     2012.76659        16.50444        10.05215
     2012.76933        16.94139         9.94561
     2012.77207        18.28734         9.97089
     2012.77481         8.04130         9.92755
     2012.77754        10.22425         9.97811
     2012.78028         0.39821        10.28146
     2012.78302         4.59716        10.26160
     2012.78576        -6.44289        10.40064
     2012.78850        10.08807        10.11715
     2012.79123        15.34502        10.48551
     2012.79397        12.15398         9.92936
     2012.79671        15.37793         9.97811
     2012.79945        -5.07212        10.28327
     2012.80219        11.53584        10.14785
     2012.80492        19.61079        10.02506
     2012.80766        35.12975         9.95825
     2012.81040        34.70170         9.91130
     2012.81314        24.48565         9.98714
     2012.81587        23.40061        10.04673
     2012.81861        18.07456        10.20924
     2012.82135        16.01752        10.25619
     2012.82409         2.43347        10.55593
     2012.82683       -12.30258        10.42592
     2012.82956        -3.78762        10.58662
     2012.83230        14.90233        10.09006
     2012.83504        19.97229        10.05576
     2012.83778        18.80124        10.43495
     2012.84052        -0.00681        10.56495
     2012.84325         2.97615        10.22910
     2012.84599         4.16010        10.63718
     2012.84873       -10.38094        10.44397
     2012.85147        12.18101        10.21466
     2012.85420        11.63797         9.86797
     2012.85694        11.36192         9.90950
     2012.85968         9.96587        10.10632
     2012.86242        11.78083         9.94019
     2012.86516        18.22178        10.09909
     2012.86789        18.52574        10.30674
     2012.87063        22.68569         9.87880
     2012.87337        16.72164        10.08465
     2012.87611         3.55060        10.03770
     2012.87885        15.40555         9.91672
     2012.88158        16.52551         9.94019
     2012.88432        19.41246        10.39342
     2012.88706        14.48341        10.64982
     2012.88980         5.93937        10.51620
     2012.89253         5.46732        10.26702
     2012.89527         6.81528        10.41870
     2012.89801         2.48323        10.26883
     2012.90075         8.79918        10.22188
     2012.90349        15.98714        10.26702
     2012.90622         8.03809        10.31758
     2012.90896        -2.68395        10.37355
     2012.91170         0.99200        10.47828
     2012.91444        14.46295        10.31036
     2012.91718         7.52091        10.41689
     2012.91991        17.59786        10.32480
     2012.92265        -5.77218        10.59385
     2012.92539        -7.30123        10.47467
     2012.92813        -9.95928        10.30313
     2012.93086       -15.58532        10.46384
     2012.93360       -12.68037        10.78163
     2012.93634        -4.33841        11.44431
     2012.93908        -1.72146        11.58516
     2012.94182         5.82549        11.32333
     2012.94455        24.76745        11.27278
     2012.94729        23.95740        11.30347
     2012.95003        18.07736        11.26916
     2012.95277        25.76431        11.00554
     2012.95551        22.54826        10.82316
     2012.95824         4.44622        10.89900
     2012.96098        12.85817        11.72239
     2012.96372         9.92013        12.87982
     2012.96646         9.06308        11.96435
     2012.96919        11.94204        11.56168
     2012.97193        16.23599        11.40098
     2012.97467        22.44694        11.23125
     2012.97741        17.32090        11.10485
     2012.98015         7.17985        10.89720
     2012.98288         1.50881        10.91887
     2012.98562         0.18376        10.86289
     2012.98836        -0.91929        10.83942
     2012.99110        -0.54733        10.75274
     2012.99384         2.26162        10.75094
     2012.99657         8.30958        10.95678
     2012.99931        15.15253        10.95678
     2013.00205        22.60348        10.89900
     2013.00479        -0.53156        10.80330
     2013.00752       -15.05661        10.82316
     2013.01026        -2.46765        10.69496
     2013.01300         0.12230        11.02540
     2013.01574        12.33725        10.75636
     2013.20508        -5.92230        12.97552
     2013.20739         1.60904        11.12652
     2013.21013        -4.24001        10.93873
     2013.21286       -16.15005        10.96581
     2013.21560         8.46390        11.23486
     2013.21834         0.40085        11.18069
     2013.22108       -14.07919        11.24027
     2013.22381       -18.35124        11.32695
     2013.22655       -20.36428        11.33056
     2013.22929       -20.20433        11.42084
     2013.23203       -17.50338        11.30167
     2013.23477       -15.29842        11.27458
     2013.23750       -10.39447        11.67183
     2013.24024       -11.99451        13.19220
     2013.24298       -21.21956        11.84517
     2013.24572       -17.70661        14.10587
     2013.24846       -19.27065        11.48946
     2013.25119       -15.77670        11.39014
     2013.27583       -18.54611        12.44285
     2013.28172       -16.22261        20.93309
     2013.28722       -21.91566        29.27708
     2013.29518       -23.83817        28.18465
     2013.33701       -19.87876        21.40618
     2013.37267        -2.74926        19.40189
     2013.37440        -6.78677        10.44939
     2013.37713        -4.11981        10.62274
     2013.37987        -6.68286        10.49814
     2013.38261       -16.90290        10.70760
     2013.38535       -15.23795        11.16624
     2013.38809         2.59900        10.48731
     2013.39082        -3.63004        10.51981
     2013.39356         0.76791        10.43675
     2013.39630         1.07787        10.44397
     2013.39904       -13.58418        10.38258
     2013.40177        -3.55522        10.48189
     2013.40451         0.87873        10.48912
     2013.40725        -0.62132        10.44397
     2013.40999         4.99064        10.77622
     2013.41273        -0.91741        10.71302
     2013.41546        -7.21745        11.08860
     2013.41820        -8.74750        10.50356
     2013.42094        -6.28655        10.38800
     2013.42368       -12.12059        10.60829
     2013.42642         1.87336        10.37717
     2013.42915         1.77132        10.25077
     2013.43189       -11.08473        10.30133
     2013.43463       -15.78978        10.12618
     2013.43737        -5.43882        10.16771
     2013.44010        -4.03187        10.04131
     2013.44284         1.10809        10.06478
     2013.44558         4.99004        10.46384
     2013.44832         2.72599        10.68413
     2013.45106        -5.78805         9.95103
     2013.45379        -4.93210        10.07201
     2013.45653        -8.77314         9.91491
     2013.45927        -7.73619         9.98895
     2013.46201        -4.57224         9.92033
     2013.46475        -1.06628         9.90769
     2013.46748         1.54767         9.97992
     2013.47022         0.10163        10.20202
     2013.47296        -2.83242         9.76143
     2013.47570        -2.85847         9.74518
     2013.47843         8.09349         9.94381
     2013.48117        -8.99056         9.98353
     2013.48391       -13.46660        10.15507
     2013.48665       -12.60965        10.03409
     2013.48939       -19.79370        10.03770
     2013.49212       -11.69374        10.07562
     2013.49486        -0.16679         9.91491
     2013.49760        -3.19083        10.40244
     2013.50034        -8.62888        10.18396
     2013.50308         0.63008         9.78491
     2013.50581         2.87903         9.82102
     2013.50855        10.00698         9.74879
     2013.51129         5.16994         9.80838
     2013.51403         4.98289         9.84810
     2013.51676        12.45985         9.82102
     2013.51950        -0.03120         9.84269
     2013.52224        -0.39925         9.95825
     2013.52498         5.05971        10.17493
     2013.52772         6.06766         9.81199
     2013.53045         3.32162         9.78310
     2013.53319         7.38057         9.88783
     2013.53593         5.94752         9.97631
     2013.53867        -5.41152         9.93478
     2013.54141        -1.55957        10.13340
     2013.54414         6.85739         9.97992
     2013.54688         3.11334         9.94922
     2013.54962         7.33129         9.79393
     2013.55236        11.63925         9.83366
     2013.55509         4.37220         9.82824
     2013.55783         7.85916         9.96728
     2013.56057         4.51111        10.03589
     2013.56331         5.09806        10.12257
     2013.56605         5.38102         9.95464
     2013.56878         8.83697         9.98172
     2013.57152        19.82793         9.80838
     2013.57426         7.42788         9.85352
     2013.57700        11.90483         9.98895
     2013.57974         5.15479         9.94200
     2013.58247         9.91874         9.95283
     2013.58521        15.54870         9.96908
     2013.58795         6.45165         9.78852
     2013.59069         9.35960         9.81019
     2013.59342         8.16656        10.08104
     2013.59616        12.35251         9.91130
     2013.59890        12.53247        10.00700
     2013.60164        13.24642         9.96547
     2013.60438        12.79937         9.87519
     2013.60711        14.28333         9.97450
     2013.60985         9.06328         9.94742
     2013.61259         2.37224        10.04131
     2013.61533         9.61719        10.06659
     2013.61807         6.69815        10.16951
     2013.62080        -0.75090        10.16951
     2013.62354         0.81205        10.06478
     2013.62628        13.84801        10.23993
     2013.62902        13.06996        10.07020
     2013.63175        -9.04608         9.81741
     2013.63449         5.60087         9.98353
     2013.63723        12.18882         9.93839
     2013.63997        20.23678        10.09548
     2013.64271         8.68473         9.84630
     2013.64544         5.63669        10.03048
     2013.64818         4.93964         9.90047
     2013.65092         9.12359         9.88422
     2013.65366        -4.39045        10.20563
     2013.65639         6.74650        10.16951
     2013.65913         4.62646        10.18576
     2013.66187         7.65941        10.20563
     2013.66461         9.75136         9.79935
     2013.66735         2.33732        10.27785
     2013.67008        10.34527        10.20563
     2013.67282        17.76223        10.21285
     2013.67556         9.89818        10.25438
     2013.67830        17.07713        10.18035
     2013.68104        12.42009         9.86616
     2013.68377        11.27804         9.81560
     2013.68651         9.75400         9.79935
     2013.68925        15.40295         9.78852
     2013.69199         9.72690         9.83005
     2013.69472        10.60086         9.87519
     2013.69746         7.53481         9.91853
     2013.70020        15.47277         9.91311
     2013.70294        14.35172         9.83547
     2013.70568        16.76467         9.92394
     2013.70841        15.45163        10.09187
     2013.71115        14.34258         9.84630
     2013.71389         9.62954        10.09368
     2013.71663        13.56049         9.80657
     2013.71937         6.69545        10.08284
     2013.72210        22.61540         9.89325
     2013.72484        20.88335        10.03228
     2013.72758        17.97331        10.46564
     2013.73032        26.68726        10.06478
     2013.73305        25.75922         9.88964
     2013.73579         6.89917         9.77588
     2013.73853        12.80112         9.96908
     2013.74127        -9.74192        10.10270
     2013.74401        26.87503        10.25980
     2013.74674        21.71999        10.17312
     2013.74948         8.79394        10.10812
     2013.75222        14.29489        10.25980
     2013.75496        13.75385        10.02687
     2013.75770         3.32380         9.84088
     2013.76043         0.82376        10.08284
     2013.76317        -5.09529         9.98534
     2013.76591        -1.15034        10.63538
     2013.76865        19.13962        10.02325
     2013.77138         9.52757        10.07381
     2013.77412        12.87953        10.17854
     2013.77686         4.36248         9.97450
     2013.77960         9.36343        10.12618
     2013.78234        -1.96961        10.10632
     2013.78507        -1.70766         9.96367
     2013.78781        -0.25670        10.33744
     2013.79055         7.15625        10.24896
     2013.79329         2.38820        10.19660
     2013.79603         5.82916        10.01964
     2013.79876         2.96711         9.85172
     2013.80150         4.62907        10.08465
     2013.80424         4.56102        10.14965
     2013.80698         3.20397         9.94742
     2013.80971         7.48393         9.87338
     2013.81245        11.62788         9.83185
     2013.81519         2.63284         9.80477
     2013.81793         4.81979         9.89144
     2013.82067         3.39774        10.04312
     2013.82340        10.52170         9.87338
     2013.82614         7.90165        10.28146
     2013.82888         8.43761        10.06117
     2013.83162        -0.98544        10.40064
     2013.83436         3.03752        10.24716
     2013.83709         6.78747        10.27785
     2013.83983        30.82442         9.96006
     2013.84257        29.10938         9.86255
     2013.84531        17.65833        10.10812
     2013.84804         6.57629         9.98353
     2013.85078        -4.80076        10.20743
     2013.85352        21.46619         9.94200
     2013.85626        18.20215         9.94561
     2013.85900        -2.21690        10.19118
     2013.86173        -6.99194         9.99798
     2013.86447       -15.43799        10.23632
     2013.86721         2.72496        10.08104
     2013.86995         0.86092         9.86797
     2013.87269        13.33287         9.98172
     2013.87542        15.05583         9.92575
     2013.87816        12.91778        10.10090
     2013.88090        28.05173        10.22007
     2013.88364        29.58469        10.67691
     2013.88637        21.96164        10.01242
     2013.88911        -2.67840        10.07742
     2013.89185        -7.03545        10.09909
     2013.89459        -2.19250        10.02687
     2013.89733         5.67246        10.10812
     2013.90006         6.73641        10.11895
     2013.90280        -3.90763        10.07201
     2013.90554         0.65232        10.02506
     2013.90828         6.82727        10.09548
     2013.91102        -1.30177        10.02687
     2013.91375        -2.94482        10.05937
     2013.91649        10.67114        10.52884
     2013.91923        11.29609        10.95678
     2013.92197        23.64704        10.25077
     2013.92470        21.32500        10.09006
     2013.92744         7.68995        10.19118
     2013.93018        15.30191         9.95103
     2013.93292         9.43786         9.92214
     2013.93566        10.56382         9.93658
     2013.93839         8.13977        10.01423
     2013.94113        -2.68428        10.01242
     2013.94387         2.44968         9.98534
     2013.94661        -6.14337        10.26341
     2013.94935         5.47559         9.97089
     2013.95208         1.82154        10.10090
     2013.95482        -8.97151        10.40064
     2013.95756         0.87145        10.08645
     2013.96030         2.90240        10.06298
     2013.96303         4.62236        10.12257
     2013.96577        10.68131         9.84088
     2013.96851         9.12026        10.16771
     2013.97125        14.94322        10.13701
     2013.97399         4.74417        10.21646
     2013.97672         3.41213        10.14423
     2013.97946        -0.86192        10.13701
     2013.98220        -0.57997        10.11173
     2013.98494        -7.23001        10.14604
     2013.98767       -10.63406        10.12798
     2013.99041        -4.05010        10.00700
     2013.99315        -7.89415         9.96908
     2013.99589        -3.73420        10.16590
     2013.99863         4.69176        10.36633
     2014.00410       -25.08333        10.37717
     2014.00684         6.48362        10.37717
     2014.00958         4.21557        10.16410
     2014.01232        -2.04347        10.30313
     2014.01505        -0.02752        10.33202
     2014.01779         7.41744        10.35550
     2014.02053        14.61539        10.11534
     2014.02327        16.42934        10.74010
     2014.02600         7.02430        10.72566
     2014.02874         7.08025        10.32661
     2014.03148        12.92821        10.38439
     2014.03422         7.54716        10.68232
     2014.03696        -6.68589        10.46023
     2014.03969        -6.35293        10.53426
     2014.04243        -0.29898        10.89539
