# ================= DQRFIT RESULTS ================
# INPUT FILE: series/POUL.rad
# OUTPUT: LDETRENDED
# FILTER FUNCTION: f(t)
# f(t)=+line(t)+annual(t)
# line(t)=+P 1+P 2*t
# annual(t)=+P 3*sin(2*pi*t+P 4)
# heav(t)=(t<0?0:1)
# TOTAL OBSERVATIONS MTOT=  793
# INITIAL TIME INTERVAL= 2007.7967 - 2004.4326 =  3.3642
# TOTAL OBSERVATIONS AFTER PREFILTER M=  760
# TIME-SPAN= 2007.7967 - 2004.4326 =  3.3642
# OBSERVATIONS: USED M=   760 REJECTED MTOT-M=    33 %USED=   95.8386
# N=  4 PARAMETERS
# MAXSIG= 175.00000
# MAXRES=  79.51344
# SCALE FACTOR FOR LENGTHS: SCL=  10.00000
# SCALE FACTOR FOR SIGMAS: SCLSIG=   1.00000
# CHI^2=   1153.792 DOF=   756 CHI^2/DOF=   1.52618
# RMS=     15.566 SDEV=     15.259 MEAN=   -3.12295
#  P #       PARAMETER +-    SIGMA %error PARAMETER NAME
# P 1 =        -3.62698 +-  889.000 ****** YZERO                              
# P 2 =         0.00674 +-    0.443 ****** SLOPE                              
# P 3 =         7.43559 +-    0.544   7.32 ANNUAL AMPLITUDE                   
# P 4 =        -2.51140 +-    0.082   3.27 ANNUAL PHASE                       
#       T            LDETRENDED       SIG_OBS
     2004.43258        11.08181         7.50127
     2004.43531         9.27179         7.61369
     2004.43805        16.58278         7.45556
     2004.44079        13.33076         7.52598
     2004.45995         4.52163         7.80641
     2004.46269         0.53661         7.73105
     2004.46543         4.85659         7.71005
     2004.46817        10.68757         7.78541
     2004.47091         9.31555         7.65446
     2004.47364        14.22354         7.63716
     2004.47638         2.02452         7.62851
     2004.47912        11.36150         7.82000
     2004.49281         7.27741         8.03619
     2004.49555         2.78439         8.02260
     2004.49719         9.06638        19.88478
     2004.55028         6.84302         8.12637
     2004.55304         7.65700         7.71005
     2004.55578         6.34398         7.83853
     2004.55852        12.77896         7.87806
     2004.56125         5.45594         7.82370
     2004.56400         5.21393         7.90153
     2004.56673        13.97991         7.86077
     2004.56947         9.87289         8.04237
     2004.57221         7.68387         7.97071
     2004.57495         6.51185         7.98554
     2004.57768        13.08483         7.83112
     2004.58042        13.69182         8.08437
     2004.58316         7.02880         7.89536
     2004.58590         3.78378         7.88547
     2004.58863        11.50476         8.01148
     2004.59137        17.34174         8.08313
     2004.59411        13.37972         8.19061
     2004.59685        11.23370         8.17949
     2004.59958        14.09969         7.96207
     2004.60233         8.88767         7.86941
     2004.60506         5.65165        10.08323
     2004.60780         5.80163         8.16838
     2004.61054        13.04861         7.81753
     2004.61327        11.19559         8.13996
     2004.61601        13.08358         8.33639
     2004.61875        10.58656         7.94724
     2004.62149         4.96554         8.53282
     2004.62423        11.90152         8.36727
     2004.62696         9.09350         8.22026
     2004.62973        10.74748         8.78113
     2004.63244        12.46446         8.54764
     2004.63507         7.14545         9.20734
     2004.64147        20.18440        14.13035
     2004.64339        16.96539         8.84166
     2004.64613        15.64337         8.09672
     2004.64887         8.25435         8.09302
     2004.65160        12.73134         8.05225
     2004.65434         4.74332         8.29192
     2004.65708         2.93330         8.23632
     2004.65982         7.58628         8.03495
     2004.66256        12.87926         8.12020
     2004.66529        13.60024         8.08931
     2004.66803        17.88523         8.73789
     2004.67077        10.28521         8.19679
     2004.67351        16.01119        15.11866
     2004.67624        17.20117         8.13996
     2004.67899         6.08315         8.12143
     2004.68172        10.85013         7.95218
     2004.68446        10.91211         8.11896
     2004.68720         8.38410         8.45499
     2004.68957        10.17008         9.94239
     2004.69253         2.76506         8.81201
     2004.69541         7.54304         9.91645
     2004.69815        11.29302         8.92073
     2004.70089         7.93900         9.32964
     2004.70362         7.48499        10.36242
     2004.70545       -15.01603        21.70327
     2004.71184        14.61993        11.12219
     2004.71457        10.89091        10.33895
     2004.71732         9.63289         9.89298
     2004.71954        14.88888        12.43664
     2004.72281       -13.49514        11.83006
     2004.72501       -22.49716        16.77037
     2004.72735         4.14083        25.26860
     2004.73052       -32.17920        17.68703
     2004.73374       -12.88122        13.59049
     2004.73648       -17.87224        12.65159
     2004.74196       -20.96627        17.13728
     2004.74469         4.89771        17.17805
     2004.74743        16.37769        20.95092
     2004.75015       -29.15633        16.91491
     2004.75291       -11.73035        11.12713
     2004.75945         7.28161        25.55644
     2004.76112        -2.37340        11.55457
     2004.76386        -7.86142        11.83871
     2004.76659        -6.25344        12.39093
     2004.76933       -10.15946        12.48605
     2004.77207        -9.55948        14.90370
     2004.77481        -6.03749        13.44595
     2004.77754        -7.65051        13.80421
     2004.78029         0.23947        14.43302
     2004.78302       -14.31455        15.60787
     2004.78576        -4.70757        16.10697
     2004.78850        -6.03659        15.45839
     2004.79123        -7.34161        14.79499
     2004.79398         4.45738        15.05319
     2004.79671        -1.79064        14.93088
     2004.79945       -12.31666        15.48063
     2004.80219        -5.45068        15.40527
     2004.80492        10.54630        18.30843
     2004.80767       -30.95572        22.02200
     2004.81040       -15.75273        21.66498
     2004.81314       -19.31975        20.42218
     2004.81588        -6.02577        19.98238
     2004.81862        -7.07479        21.84164
     2004.82136       -45.57581        23.70583
     2004.82409       -25.90283        21.24371
     2004.82683       -14.01785        17.34977
     2004.82956        -3.38886        18.97554
     2004.83231       -14.44988        17.37942
     2004.83504       -16.44490        18.39985
     2004.83778       -27.42492        21.03616
     2004.84052       -25.72494        17.89458
     2004.84325       -19.51396        17.44366
     2004.84600       -16.25397        18.13177
     2004.84873       -16.70399        17.27565
     2004.85147       -24.93201        19.27944
     2004.85420       -11.58303        22.69405
     2004.85695       -28.26005        22.42968
     2004.85969       -53.01407        25.05488
     2004.86242       -51.41109        23.54894
     2004.86516       -69.07710        23.94797
     2004.86790       -33.19212        24.17157
     2004.87064       -59.31714        22.07883
     2004.87337       -41.04016        22.46674
     2004.87611       -59.85418        21.10164
     2004.87885       -46.16820        21.93058
     2004.88159       -10.09921        21.67980
     2004.88433         0.27477        11.84365
     2004.88712         0.41575        11.26055
     2004.88986       -16.63227        11.45698
     2004.89260         1.83571        11.17407
     2004.89533        11.19369        11.81771
     2004.89807        13.79367        11.81153
     2004.90629        -9.68338        11.32355
     2004.90902        -5.92340        10.50202
     2004.91176         0.24458        10.09064
     2004.91360         3.83357        20.86939
     2004.92271       -17.53149        11.90666
     2004.92545        -7.28451        12.15744
     2004.92819        10.71947        11.75717
     2004.93093         7.24345        11.74606
     2004.93366        11.89143        12.71831
     2004.93640        -6.95858        12.51694
     2004.93914       -15.56560        12.77760
     2004.94188        -3.60462        13.29647
     2004.96925       -15.40381        12.50705
     2004.97194       -13.68482        13.73379
     2004.97473       -13.31784        13.60161
     2004.97747       -16.15086        12.64542
     2004.98021        -5.43488        12.08949
     2004.98295        -4.66590        13.28905
     2004.98568       -11.55192        13.14328
     2004.98842         1.33307        13.24334
     2004.99118       -10.42195        14.08094
     2004.99390        -3.88497        13.65226
     2004.99663        -9.36899        13.71650
     2004.99937        -5.19801        13.60531
     2005.00479         7.39496        13.77950
     2005.00752         0.71394        13.24334
     2005.00929        -1.21207        22.13689
     2005.01306       -38.71610        17.98723
     2005.01580        -0.87512        18.11077
     2005.01854         1.37586        18.45297
     2005.02128       -78.45916        21.31165
     2005.02401       -67.51517        20.92745
     2005.02676       -28.39219        17.19782
     2005.02949       -14.40221        17.65367
     2005.03199       -18.88723        21.04605
     2005.03770       -40.54227        18.20342
     2005.04044       -56.91528        20.53336
     2005.04318       -32.98230        19.65006
     2005.04592       -66.34232        21.68721
     2005.04865       -61.71434        22.50504
     2005.05139       -60.41036        22.24067
     2005.05961       -42.79641        26.41257
     2005.06234       -39.30043        24.87945
     2005.08425       -45.49758        27.89997
     2005.08698        -4.83460        14.65663
     2005.08972       -11.40462         8.65759
     2005.09246        -6.67064         8.69589
     2005.09520        -3.92765         8.53405
     2005.09794       -16.60667         8.67118
     2005.10067       -12.65569         8.24744
     2005.10341        -5.02571         8.05101
     2005.10615        -5.82273         8.37592
     2005.10889        -0.46175         8.38333
     2005.11162        -4.03876         8.35245
     2005.11436        -7.39678         8.36110
     2005.11710         4.09920         8.42534
     2005.11984         3.25418         8.44881
     2005.12258        -3.78084         8.05472
     2005.12531        -4.69686         8.61682
     2005.12805       -11.58088         8.54517
     2005.13079        -4.03989         8.52046
     2005.13353       -10.23491         8.54888
     2005.13627         1.90907         8.40063
     2005.13900        -0.04295         8.58470
     2005.14174        -6.20997         8.33886
     2005.14448        -8.66999         8.77372
     2005.14722        -3.94700         8.68724
     2005.14995        -4.35802         8.73048
     2005.15269        -0.77904         8.74036
     2005.15543         4.99494         8.73048
     2005.15817        -0.48508         8.80707
     2005.16091         7.02290         8.68230
     2005.16364         1.38788         8.79595
     2005.16638         2.78487         9.03315
     2005.16912        -2.28215         8.78854
     2005.17186        -3.16217         8.86637
     2005.17368        12.40082        15.48681
     2005.20471        -0.50739         9.52112
     2005.20745         3.82459         8.98991
     2005.21019         2.66857         9.00720
     2005.21292        -6.42745         9.35188
     2005.21566         5.79153         8.72059
     2005.21840         3.48352         8.63659
     2005.22113        -5.62550         9.28640
     2005.22382         9.75248         8.71071
     2005.22661         6.63746         9.01956
     2005.22936        -0.31356         9.08874
     2005.24578         2.48833         9.50630
     2005.24852         3.16531         9.25181
     2005.25125        -1.19171         9.46059
     2005.25399         4.07728         9.32840
     2005.25673         5.08426         9.82009
     2005.54688         1.97130         8.16096
     2005.54962         6.75028         8.41051
     2005.55236        -0.19974         8.26844
     2005.56057        17.90221         8.71442
     2005.56331         2.79619         8.47722
     2005.56878         9.36215         8.83796
     2005.57152         5.61514         8.54640
     2005.57426        -0.40988         8.88490
     2005.57700         1.12210         8.64029
     2005.57974        -0.35892         8.74283
     2005.58247        13.44506         9.03191
     2005.58521         3.42204         8.58717
     2005.58795         1.24603         8.34504
     2005.59069         4.91801         8.53034
     2005.59342         1.04399         8.44387
     2005.59616        -4.48903         8.61064
     2005.59890         6.19895         8.56617
     2005.60164         0.53593         8.43769
     2005.60438         6.01291         8.56123
     2005.60711         1.89690         8.47105
     2005.60985         4.41988         8.82190
     2005.61259        -8.64614         8.51923
     2005.61533        -4.39416         8.73048
     2005.61807         5.86582         8.79472
     2005.62080        -0.69220         8.52911
     2005.62354        -8.05021         8.80337
     2005.62628         6.15777         8.64029
     2005.62902        -2.05225         8.49699
     2005.63175         8.63573         8.54640
     2005.63449         3.79271         8.45993
     2005.63723        -0.39631         8.62670
     2005.63997         6.74367         8.85525
     2005.64271         3.67366         8.41916
     2005.64544        -4.70936         8.60200
     2005.64818         4.70062         8.60570
     2005.65092         7.04160         8.42904
     2005.65366        -6.92342         8.74036
     2005.65640         6.82056         8.37469
     2005.65913         5.96755         8.63041
     2005.66188         3.84253         8.48464
     2005.66461        -0.88149         8.92443
     2005.66735         1.84049         8.90590
     2005.67008         2.31447         8.54640
     2005.67282         9.46245         8.83672
     2005.67556        12.78343         8.52540
     2005.67830         7.47442         8.66747
     2005.68104        -4.04760         8.64647
     2005.68377        -2.65662         8.83054
     2005.68651         2.02136         8.47228
     2005.68925         6.28534         8.52911
     2005.69199         2.16832         8.55876
     2005.69473         4.46631         8.41792
     2005.69746        -5.03671         8.69589
     2005.70020         6.50427         9.18633
     2005.70294         7.06125         8.62423
     2005.70568         5.02523         8.92567
     2005.70841         5.93621         8.80707
     2005.71115        -8.78781         8.65265
     2005.71389        -1.71682         8.58223
     2005.71663         3.43816         8.93555
     2005.71937        15.17514         8.77001
     2005.72210         4.61412         8.49699
     2005.72484         1.17610         8.46240
     2005.72758        -5.89192         8.40434
     2005.73032        -8.15193         8.77495
     2005.73306        -3.54795         8.88984
     2005.73579         3.79503         9.01709
     2005.82067         0.74146         8.63165
     2005.82340        15.70344         8.94667
     2005.82614        11.58142         8.70824
     2005.82888         5.08640         8.87008
     2005.83162        12.50838         9.29505
     2005.83404         1.89937        10.34883
     2005.83710        -0.20365         9.17892
     2005.83989         9.82533         8.71071
     2005.84263        -1.98969         9.34323
     2005.84531         1.76129         9.23575
     2005.84805         7.22927         9.32099
     2005.85078        -0.29175         8.92196
     2005.85352        -5.83276         9.09862
     2005.85626         5.13222         9.26046
     2005.85900         1.15420         9.49395
     2005.86173        -2.31682         9.08503
     2005.86447        -1.92184         8.98126
     2005.86721         6.07714         8.90467
     2005.86995        -0.65788         9.08133
     2005.87269        -7.85589         9.07391
     2005.87542        -9.52391         8.83178
     2005.87816        -1.45393         8.94791
     2005.88084       -11.28195         9.10109
     2005.88358       -10.10097         9.53842
     2005.88632        -6.09199         9.06033
     2005.88906        -3.02300         9.37041
     2005.89179         4.55798         9.00844
     2005.89453         6.28896         9.06774
     2005.89727        -1.78906         9.32223
     2005.90001         0.68192         9.36176
     2005.90274        -3.97110         9.44947
     2005.90548        -4.30511         9.11468
     2005.90822        -6.95313         8.91702
     2005.91096       -12.00915         9.87939
     2005.91370        -6.39617         9.19128
     2005.91643       -16.02519         9.45441
     2005.91917       -24.32421         9.52607
     2005.92191         1.99677         8.97879
     2005.92465        -8.50124         9.05662
     2005.92739        -0.96526         9.25305
     2005.93012        -7.27728         9.24934
     2005.93286       -12.51430         8.98126
     2005.93560        -2.03632         9.02079
     2005.93834        -7.89734         9.14433
     2005.94107        -9.82235         9.31111
     2005.94382        -6.19637         9.28393
     2005.94655        -2.39339         9.30987
     2005.94929        -7.42741         8.94914
     2005.95203        -6.85643         9.20363
     2005.95482       -11.66045         9.44206
     2005.95756        -6.89347         9.39388
     2005.96030        -0.54448         8.85155
     2005.96304        -9.09250         9.10974
     2005.96577        11.65148         9.75955
     2005.96851        -1.14654         9.93251
     2005.97125       -11.91956         9.58907
     2006.00410        -0.45978         9.51124
     2006.00684        -1.14780         9.74226
     2006.00958       -10.63682         9.45071
     2006.01232       -11.68583         9.73361
     2006.01505       -17.72285         9.81515
     2006.01779         1.59513         9.79415
     2006.02053        -9.32289        10.00787
     2006.02327        -5.73191        10.04740
     2006.02600        -8.76893        10.12276
     2006.02874        -3.42095         9.80897
     2006.03148        -9.43496         9.89298
     2006.03422        -7.08898         9.80403
     2006.03696        -5.61600         9.72743
     2006.03970        -9.62202         9.43465
     2006.04243       -12.65804         9.32840
     2006.04517        -2.05706        10.09558
     2006.04791        -5.78007         9.47294
     2006.05065        -7.50109         9.39141
     2006.05338        -7.73511         9.78056
     2006.05612        -9.37413         9.45441
     2006.05886       -14.05115         9.48036
     2006.06160       -20.45717         9.71879
     2006.06433        -6.01019         9.62860
     2006.06707       -26.35920         9.36794
     2006.06981        -9.73422         9.13815
     2006.07255       -14.53524         9.21104
     2006.07529       -21.48126         9.68914
     2006.07802       -21.97028         9.54460
     2006.08076       -18.73630         9.34570
     2006.08350       -16.84131         9.77561
     2006.08624       -10.21933         9.47542
     2006.08898       -10.90935         9.18386
     2006.09171        -9.77937         9.29505
     2006.09354        -0.56038        17.57832
     2006.10266       -20.97144         8.85155
     2006.10540       -20.87946         8.99979
     2006.10814       -24.62848         9.33582
     2006.11088       -13.07350         9.55448
