# ================= DQRFIT RESULTS ================
# INPUT FILE: series/PSEA.rad
# OUTPUT: LDETRENDED
# FILTER FUNCTION: f(t)
# f(t)=+line(t)+annual(t)
# line(t)=+P 1+P 2*t
# annual(t)=+P 3*sin(2*pi*t+P 4)
# heav(t)=(t<0?0:1)
# TOTAL OBSERVATIONS MTOT= 2154
# INITIAL TIME INTERVAL= 2014.7269 - 2006.6010 =  8.1259
# TOTAL OBSERVATIONS AFTER PREFILTER M= 2154
# TIME-SPAN= 2014.7269 - 2006.6010 =  8.1259
# OBSERVATIONS: USED M=  2154 REJECTED MTOT-M=     0 %USED=  100.0000
# N=  4 PARAMETERS
# MAXSIG= 175.00000
# MAXRES=  25.61327
# SCALE FACTOR FOR LENGTHS: SCL=  10.00000
# SCALE FACTOR FOR SIGMAS: SCLSIG=   1.00000
# CHI^2=   1867.059 DOF=  2150 CHI^2/DOF=   0.86840
# RMS=      5.456 SDEV=      5.458 MEAN=    0.02555
#  P #       PARAMETER +-    SIGMA %error PARAMETER NAME
# P 1 =      5945.45249 +-  112.659   1.89 YZERO                              
# P 2 =        -2.95163 +-    0.056   1.90 SLOPE                              
# P 3 =         6.35540 +-    0.166   2.61 ANNUAL AMPLITUDE                   
# P 4 =        -2.99093 +-    0.037   1.22 ANNUAL PHASE                       
#       T            LDETRENDED       SIG_OBS
     2006.60095         7.11951         5.41422
     2006.60369         9.77959         5.41981
     2006.60643        10.35868         5.40304
     2006.60917        11.73576         5.46734
     2006.61190         4.02784         5.42727
     2006.61464        10.05492         5.38720
     2006.61738        12.02000         5.42447
     2006.62012        13.71208         5.42820
     2006.62286        11.17116         5.39372
     2006.62559         6.80324         5.37601
     2006.75975        12.19722         5.42820
     2006.76249         5.60630         5.53164
     2006.76522         5.74938         5.71056
     2006.76796         2.30246         5.64533
     2006.77070         4.28554         5.47107
     2006.77344         5.70662         5.49436
     2006.77618         7.76071         5.49343
     2006.77891        12.68379         5.46920
     2006.78165        13.03187         5.36390
     2006.78439         8.84995         5.36390
     2006.78713        11.48103         5.48784
     2006.78987        15.17811         5.40211
     2006.79260        13.87519         5.32849
     2006.79534         8.20627         5.40211
     2006.79808         9.32835         5.48784
     2006.80082         8.35944         5.44124
     2006.80355         6.32852         5.33501
     2006.80629         7.90960         5.37974
     2006.80903        10.23068         5.39186
     2006.81177        12.79476         5.45895
     2006.81451         5.98184         5.40677
     2006.81724         8.78392         5.60992
     2006.81998         3.51700         5.32569
     2006.82272         8.13808         5.26139
     2006.82546        15.07617         5.63042
     2006.82820         7.02925         5.32290
     2006.83093        10.41433         5.27630
     2006.83367        13.02241         5.31730
     2006.83641        12.35949         5.42074
     2006.83915        17.47257         5.41515
     2006.84188         7.42665         5.54468
     2006.84462         9.58473         5.54468
     2006.84736         5.21781         5.81213
     2006.85010        18.64890         5.44590
     2006.85284        16.76298         5.57078
     2006.85557        13.64906         5.67887
     2006.85831        16.76614         5.41795
     2006.86105         9.61622         5.55493
     2006.86379         3.74930         5.52791
     2006.86653         4.35138         5.73106
     2006.86926         6.84446         5.37322
     2006.87200         8.61854         5.38347
     2006.87474        11.35163         5.38813
     2006.87748         8.79071         5.28562
     2006.88021         3.58879         5.36017
     2006.88295         2.78987         5.42727
     2006.88569        11.42795         5.47013
     2006.88843        10.93003         5.40304
     2006.89117         6.06811         5.44684
     2006.89390        -7.75581         5.52884
     2006.89664         3.25127         5.55214
     2006.89938         1.16636         5.36949
     2006.90212         1.91844         5.44963
     2006.90485        -0.42848         5.90346
     2006.90759        10.74860         5.31544
     2006.91033         2.65668         5.31544
     2006.91295        -4.95158         5.66583
     2006.91581        -2.38416         5.29214
     2006.91854        -3.92608         5.33594
     2006.92128        -2.63900         5.31544
     2006.92402        -6.08391         5.46734
     2006.92676        -2.41783         5.36576
     2006.92950        -1.13975         5.44311
     2006.93223         5.74533         5.41888
     2006.93497         4.34441         5.55307
     2006.93771         3.23849         5.37695
     2006.94045         6.33557         5.40304
     2006.94318         9.09465         5.45429
     2006.94592         5.71273         5.54096
     2006.94866        15.73982         5.60246
     2006.95140         6.11890         5.47200
     2006.95327        26.51642         9.85835
     2006.95780        -7.26922        10.44078
     2006.95961         2.01914         5.40677
     2006.96235         2.07722         5.42820
     2006.96509         1.65930         5.48411
     2006.96783         1.42638         5.50368
     2006.97056         1.50646         5.55493
     2006.97330        -1.13545         5.44590
     2006.97604        -3.45537         5.64626
     2006.97878        -2.32529         5.55959
     2006.98151         6.68879         5.52605
     2006.98425        -2.35013         5.46081
     2006.98699         2.53995         5.57730
     2006.98973        -8.01697         5.58569
     2006.99794        -2.01472         5.48411
     2007.00342        -4.49356         5.70590
     2007.00616         2.96652         5.58941
     2007.00889         3.71460         5.52139
     2007.01163         0.30968         5.39838
     2007.01437        -7.94924         5.55027
     2007.01711        -8.09416         5.37322
     2007.01984       -10.72708         5.43286
     2007.02258        -3.44499         5.39465
     2007.02504        -1.08275         6.26130
     2007.05544        -9.29802         5.11509
     2007.05817       -12.34894         5.24555
     2007.06091        -7.45386         5.17007
     2007.06365       -12.28478         5.15329
     2007.06639       -10.33370         5.26419
     2007.06913       -14.68361         5.08527
     2007.07186        -9.91253         5.06290
     2007.07460        -8.83045         5.13559
     2007.07734       -15.08537         5.18125
     2007.08008        -8.85029         5.15050
     2007.08282        -6.94021         5.11788
     2007.08555        -8.23713         5.21480
     2007.08829        -9.57105         5.21107
     2007.09103        -2.01597         5.31451
     2007.09377        -6.27688         5.26978
     2007.09650        -6.31280         5.18498
     2007.09924        -9.28972         5.28842
     2007.10198        -6.40164         5.12347
     2007.10472        -7.42956         5.39558
     2007.10746        -2.66148         5.40490
     2007.11019        -7.34040         5.21759
     2007.11293        -4.58132         5.24182
     2007.11567        -6.24824         5.12534
     2007.11841        -5.64015         5.13652
     2007.12115        -6.45507         5.10204
     2007.12388        -4.79599         5.31637
     2007.12662        -1.37891         5.19336
     2007.12936        -6.89183         5.33315
     2007.13210        -1.59175         5.24462
     2007.13466        -5.63417         5.55214
     2007.13757         5.52841         5.30146
     2007.14031        -2.40351         5.16261
     2007.14305         0.03358         5.19616
     2007.14579        -4.26634         5.20641
     2007.14852        -8.09426         5.36390
     2007.15126         1.68782         5.16541
     2007.15400         0.65490         5.18777
     2007.15674         5.41098         5.17193
     2007.15948         2.00306         5.20455
     2007.16221        -1.90086         5.32010
     2007.16495        -0.96078         5.38999
     2007.16769        -4.46869         5.34247
     2007.17043        -5.73661         5.27351
     2007.17316        -1.17553         5.33222
     2007.17590        -5.50945         5.31078
     2007.17864        -7.90337         5.67981
     2007.18138        -3.57329         5.34806
     2007.18412        -2.93021         5.25673
     2007.18685        -1.47113         5.39558
     2007.18959        -2.63105         5.31171
     2007.19233        -9.13796         5.41142
     2007.19507       -10.91888         5.29494
     2007.19780        -7.35380         5.24835
     2007.20054       -10.53072         5.25021
     2007.20328        -5.04364         5.27257
     2007.20602        -3.63156         5.23996
     2007.20876        -5.62048         5.19523
     2007.21149       -12.25540         5.28096
     2007.21423        -0.05032         5.29960
     2007.21697        -5.76523         5.22412
     2007.21971        -5.68215         5.17193
     2007.22245        -7.38007         5.13838
     2007.22518        -2.28499         5.26512
     2007.22792         1.35809         5.20641
     2007.23066        -8.39583         5.21759
     2007.23340        -5.93175         5.23344
     2007.23613        -8.32967         5.26792
     2007.23887       -13.53159         5.20082
     2007.24161       -12.94750         5.26326
     2007.24435        -2.83542         5.26139
     2007.24709        -7.25934         5.24741
     2007.24982        -3.70826         5.15516
     2007.25256       -16.46018         5.20455
     2007.25530       -10.73610         5.19802
     2007.25804        -8.60902         5.28096
     2007.26078        -3.28094         5.37135
     2007.26351        -5.31286         5.19616
     2007.26625         1.14123         5.37601
     2007.26899         0.05031         5.30053
     2007.27173         0.26239         5.33501
     2007.27446         1.25247         5.17380
     2007.27720         2.35855         5.17473
     2007.27994        -4.57637         5.19802
     2007.28268        -3.83529         5.38906
     2007.28542        -2.51421         5.28283
     2007.31553        -2.91031         5.19523
     2007.31827        -4.57923         5.29028
     2007.32101        -2.06515         5.28469
     2007.32375        -5.49707         5.30146
     2007.32648        -2.86399         5.19989
     2007.32922        -5.79491         5.22225
     2007.33196        -6.92883         5.45895
     2007.33470        -0.49575         5.36949
     2007.33744        -6.92467         5.30333
     2007.34017        -5.86458         5.23157
     2007.34297       -11.42733         5.43379
     2007.34565       -10.41142         5.33222
     2007.34844        -7.46717         5.45988
     2007.35112        -3.53226         5.38160
     2007.35386        -5.51518         5.52884
     2007.35660       -12.48010         5.62203
     2007.35934        -1.00102         5.30426
     2007.36208        -8.02293         5.31544
     2007.36481       -11.20685         5.42074
     2007.36755        -1.01977         5.24369
     2007.37029        -5.50469         5.44124
     2007.37303        -0.51861         5.45429
     2007.37577        -2.49953         5.44684
     2007.37850        -6.95245         5.45429
     2007.38124        -3.32737         5.26885
     2007.38398        -0.64729         5.24555
     2007.38672        -3.80620         5.33501
     2007.38945        -9.51412         5.28842
     2007.39219       -15.08504         5.44963
     2007.39493        -1.61496         5.24835
     2007.39767        -5.98488         5.30892
     2007.40041         0.33520         5.28562
     2007.40314        -3.32372         5.26046
     2007.40588        -6.87564         5.18871
     2007.40856        -7.15672         5.44963
     2007.41136        -1.51747         5.24928
     2007.41410        -2.68839         5.27537
     2007.41683         0.83169         5.22878
     2007.41957        -2.59323         5.24741
     2007.42231         0.03085         5.34247
     2007.42505         1.96693         5.36576
     2007.42778         2.00601         5.25021
     2007.43052         2.15909         5.22505
     2007.43326        -2.18383         5.20175
     2007.43600        -5.03374         5.24835
     2007.43874         1.63534         5.26419
     2007.44147        -9.30258         5.38347
     2007.44421        -7.26550         5.46641
     2007.44695        -9.34242         5.35365
     2007.44969        -8.36934         5.23810
     2007.45243        -7.34426         5.25114
     2007.45516        -8.48518         5.20548
     2007.45790        -0.55910         5.28562
     2007.46064        -1.02401         5.20455
     2007.46338        -4.40193         5.26232
     2007.46611        -7.19285         5.23716
     2007.46885        -3.64177         5.30333
     2007.47159        -5.91969         5.22039
     2007.47433        -1.85761         5.24369
     2007.47707        -6.25553         5.43193
     2007.47980        -8.97745         5.15329
     2007.48254       -14.08937         5.29867
     2007.48528        -8.28428         5.33315
     2007.48802        -5.66120         5.36669
     2007.49076         1.60188         5.34433
     2007.49349        -5.81404         5.22132
     2007.49623        -0.89996         5.21666
     2007.49897        -0.69788         5.35365
     2007.50171        -7.23480         5.28562
     2007.50444        -5.63072         5.22691
     2007.50718        -4.65964         5.17380
     2007.50992        -2.74455         5.31358
     2007.51266       -10.10847         5.27817
     2007.51540         5.22261         5.31358
     2007.51813        -5.25931         5.25487
     2007.52087        -1.30323         5.31358
     2007.52350        -4.51249         5.40863
     2007.52635        -0.62207         5.40677
     2007.52908         2.87801         5.45056
     2007.53182         4.35109         5.32849
     2007.53456       -10.95282         5.47386
     2007.53730         5.97826         5.41422
     2007.54004         3.82234         5.37322
     2007.54277        -2.67858         5.25394
     2007.54551         0.01750         5.34060
     2007.54825         2.48158         5.32196
     2007.55099         7.64266         5.33967
     2007.55373         4.09074         5.24462
     2007.55646         1.54782         5.27817
     2007.55920        -0.58909         5.21759
     2007.56194         3.68399         5.22878
     2007.56468         5.11307         5.26232
     2007.56741        -4.86985         5.36204
     2007.57015         0.18323         5.20921
     2007.57289         3.41931         5.22971
     2007.57563         0.90739         5.28283
     2007.57837        -0.01453         5.32103
     2007.58110         5.87455         5.23996
     2007.58384         2.27664         5.19616
     2007.58658        -1.01228         5.32290
     2007.58932         0.54080         5.19430
     2007.59206         2.05288         5.16261
     2007.59479         6.50896         5.43659
     2007.59753        -0.08896         5.50461
     2007.60027         4.94112         5.26046
     2007.60301         3.03320         5.23250
     2007.60468       -15.59887        13.50294
     2007.60848         5.11637         5.29680
     2007.61122         0.48145         5.42074
     2007.61396        -0.41847         5.27723
     2007.61670         4.64861         5.64160
     2007.61943         4.45569         5.71615
     2007.62217        11.19377         5.58941
     2007.62491         6.78885         5.52325
     2007.62765         3.74793         5.57357
     2007.63039         5.85001         5.55493
     2007.63312         5.68710         5.37322
     2007.63586         4.82618         5.33781
     2007.63860         1.90726         5.33315
     2007.64134         4.93834         5.23157
     2007.64407        10.77242         5.52791
     2007.64681         1.96050         5.58475
     2007.64955        10.45258         5.64160
     2007.65229         5.07966         5.49063
     2007.65503         7.09874         5.40583
     2007.65776         6.74983         5.41515
     2007.66050         7.65191         5.50275
     2007.66324        12.61599         5.60432
     2007.66598        13.60807         5.45150
     2007.66872         8.05515         5.51020
     2007.67145         6.73423         5.46175
     2007.67419        14.11131         5.74411
     2007.67693        10.95339         5.58848
     2007.67967        16.36347         5.50554
     2007.68240        10.67556         5.44963
     2007.68514         6.53664         5.46734
     2007.68788        13.58672         5.44311
     2007.69062        14.53380         5.40863
     2007.69336        11.21988         5.43472
     2007.69609        10.92596         5.49250
     2007.69883         2.90504         5.50089
     2007.70157        13.29412         5.32662
     2007.70431        12.65621         5.60153
     2007.70705        14.65729         5.67142
     2007.70978        11.86337         5.59780
     2007.71252         5.54445         5.44031
     2007.71526         9.98853         5.22784
     2007.71800         8.77161         5.33408
     2007.72073        12.45769         5.35644
     2007.72347        15.01277         5.39745
     2007.72621         6.72185         5.28376
     2007.72895         6.34394         5.31358
     2007.73169        10.76202         5.41142
     2007.73442         6.74810         5.33594
     2007.73716        12.80318         5.48318
     2007.73990        14.08026         5.35085
     2007.74264        13.29034         5.31171
     2007.74538        11.87042         5.33594
     2007.74811        11.07550         5.44031
     2007.75085        18.08358         5.60805
     2007.75359        17.40367         5.54189
     2007.75633        10.96075         5.29494
     2007.75906        11.50783         5.28748
     2007.76180        11.65891         5.29308
     2007.76454         2.43099         5.38626
     2007.76728         8.04307         5.69378
     2007.77002         0.42215         5.73572
     2007.77275        12.00223         5.59501
     2007.77549        11.05631         5.26512
     2007.77823         9.46640         5.32569
     2007.78097         9.77348         5.32010
     2007.78371         8.94556         5.28003
     2007.78644        18.18464         5.31824
     2007.78918         4.78172         5.44590
     2007.79192        12.20580         5.45802
     2007.79466        17.06688         5.53816
     2007.79739        19.10496         5.46547
     2007.80013        27.24204         5.45616
     2007.80281        12.86296         5.37042
     2007.80561         7.86721         5.40863
     2007.80835         7.93329         5.37042
     2007.81108        11.23037         5.56239
     2007.81382        16.17045         5.31824
     2007.81656         3.43053         5.49809
     2007.81930         3.65161         5.34992
     2007.82203        -1.89231         5.37322
     2007.82477        10.03877         5.58848
     2007.82751         5.41486         5.40583
     2007.83025         6.41694         5.34713
     2007.83299        11.92002         5.31544
     2007.83572        -0.03790         5.25673
     2007.83846         2.51118         5.28096
     2007.84120         0.21426         5.47852
     2007.84394         2.94134         5.31730
     2007.84668         3.60742         5.33128
     2007.84941         3.62450         5.28562
     2007.85215         7.98859         5.53909
     2007.85489         6.22767         5.74317
     2007.85763        -1.17525         5.62576
     2007.86036         7.51583         5.37415
     2007.86310         4.09391         5.58662
     2007.86584         8.63299         5.30333
