# ================= DQRFIT RESULTS ================
# INPUT FILE: series/PTAA.rad
# OUTPUT: LDETRENDED
# FILTER FUNCTION: f(t)
# f(t)=+line(t)+annual(t)+jumps(t)
# line(t)=+P 1+P 2*t
# annual(t)=+P 3*sin(2*pi*t+P 4)
# jumps(t)=+P 5*heav(t-2011.9120  )+P 6*heav(t-2017.7447  )
# heav(t)=(t<0?0:1)
# TOTAL OBSERVATIONS MTOT= 3897
# INITIAL TIME INTERVAL= 2022.7488 - 2011.8412 = 10.9076
# TOTAL OBSERVATIONS AFTER PREFILTER M= 3882
# TIME-SPAN= 2022.7488 - 2011.8412 = 10.9076
# OBSERVATIONS: USED M=  3882 REJECTED MTOT-M=    15 %USED=   99.6151
# N=  6 PARAMETERS
# MAXSIG= 175.00000
# MAXRES=  42.94816
# SCALE FACTOR FOR LENGTHS: SCL=  10.00000
# SCALE FACTOR FOR SIGMAS: SCLSIG=   1.00000
# CHI^2=   4578.678 DOF=  3876 CHI^2/DOF=   1.18129
# RMS=      6.195 SDEV=      6.196 MEAN=    0.03070
#  P #       PARAMETER +-    SIGMA %error PARAMETER NAME
# P 1 =        22.72044 +-  123.419 543.21 YZERO                              
# P 2 =        -0.01963 +-    0.061 312.44 SLOPE                              
# P 3 =         5.52732 +-    0.135   2.44 ANNUAL AMPLITUDE                   
# P 4 =         2.95884 +-    0.034   1.15 ANNUAL PHASE                       
# P 5 =         4.77272 +-    1.245  26.08 OFFSET 2011.9120                   
# P 6 =        17.51985 +-    0.384   2.19 OFFSET 2017.7447                   
#       T            LDETRENDED       SIG_OBS
     2011.84120         8.57892         6.08431
     2011.84393         9.74998         6.38320
     2011.84668         7.08003         6.16800
     2011.84941         4.40608         6.11909
     2011.85215        -3.35986         6.18430
     2011.85489         1.00819         6.23864
     2011.85763        -2.00675         6.45710
     2011.86036        11.51230         6.27125
     2011.86310        15.67135         6.31690
     2011.86585        14.01741         6.20278
     2011.86858        14.37446         6.07452
     2011.87132         8.19951         6.26038
     2011.87405         3.67057         6.33537
     2011.87679         1.56562         6.47775
     2011.87953         2.07868         6.21147
     2011.88227        -1.39327         6.02018
     2011.88501         7.26878         6.01366
     2011.88774         4.64784         6.23756
     2011.89048         0.53889         6.16147
     2011.89322         1.51894         6.24408
     2011.89596        -0.83200         6.02127
     2011.89869         4.86905         6.07018
     2011.90144         2.79611         6.07344
     2011.90417        -2.12684         6.34624
     2011.90691        -2.56079         6.16908
     2011.90965         5.80727         6.39189
     2011.91238         0.66432         5.98540
     2011.91512         0.83437         5.89628
     2011.91786         3.18543         6.05170
     2011.92060        -1.89652         5.93106
     2011.92334        -2.31846         6.00062
     2011.92607        -2.16441         5.99844
     2011.92881         1.84064         5.97236
     2011.93155        -8.70230         5.98649
     2011.93429        -4.68825         6.00496
     2011.93702         3.68980         6.01366
     2011.93976         4.70886         5.97562
     2011.94250         4.83991         5.95497
     2011.94524         6.09597         5.97236
     2011.94798         8.86802         6.03648
     2011.95071         7.77007         5.90606
     2011.95345         3.62613         6.00388
     2011.95619         7.50418         5.96584
     2011.95893        -1.43577         5.77781
     2011.96165         4.39329         5.93541
     2011.96449        -0.38966         6.17017
     2011.96714         2.55140         5.84737
     2011.96988         6.96845         5.73651
     2011.97262         2.82650         5.72999
     2011.97535         2.44156         5.78216
     2011.97809        -1.93439         5.84302
     2011.98083         1.89266         5.88106
     2011.98357         6.08772         5.81694
     2011.98631        14.99077         5.79629
     2011.98904        12.56383         5.90932
     2011.99178         2.74288         5.81585
     2011.99452         8.54493         5.88432
     2011.99726         3.47999         5.80172
     2012.00273         8.19409         5.88432
     2012.00547         0.82415         5.95497
     2012.00821         1.50320         5.95823
     2012.01095         4.52226         5.91149
     2012.01368         3.52931         5.75825
     2012.01642         1.91236         5.73651
     2012.01916         1.36542         5.75281
     2012.02190         2.65547         5.83215
     2012.02464         2.48852         5.76911
     2012.02737         1.90958         5.72673
     2012.03011         2.13263         5.77672
     2012.03285        -0.50431         5.88106
     2012.03559        -3.76226         5.76477
     2012.03833         2.17779         5.74412
     2012.04106         6.52185         5.77672
     2012.04380         5.32390         5.79520
     2012.04654         6.79395         5.76694
     2012.04928        11.58901         5.75825
     2012.05201         7.97206         5.76151
     2012.05475         8.54112         5.89084
     2012.05749         9.89917         5.83650
     2012.06023         9.85322         5.95823
     2012.06297         2.58728         5.81150
     2012.06570         1.23733         5.84628
     2012.06844        -1.62162         5.86585
     2012.07118        -0.17256         5.75390
     2012.07392        -0.03451         5.76042
     2012.07666         8.00255         5.81476
     2012.07939         4.78360         5.74629
     2012.08213         5.24765         5.71586
     2012.08487         8.53471         5.78976
     2012.08761        -5.71024         5.80715
     2012.09034        -6.79419         5.84628
     2012.09308        -2.73813         5.72129
     2012.09582         1.52892         5.74520
     2012.09856         2.88698         5.70608
     2012.10130        -0.59797         5.88324
     2012.10403        -5.56792         5.82998
     2012.10677        -6.49686         5.89410
     2012.10951         0.18319         5.86476
     2012.11225        -0.35976         5.77237
     2012.11498         1.17430         5.80281
     2012.11772         2.48035         5.80607
     2012.12046         4.85041         5.82998
     2012.12320         0.10946         5.83215
     2012.12594        -2.01349         5.80389
     2012.12867        -3.50143         5.79629
     2012.13141        -6.37638         5.89736
     2012.13415         2.84067         5.82563
     2012.13689        -0.43627         5.87563
     2012.13963        -1.46622         5.98431
     2012.14236        -0.95716         6.03431
     2012.14510        -1.95711         5.81911
     2012.14784        -6.41406         5.75933
     2012.15058        -0.42700         6.06583
     2012.15332        -0.68395         5.77129
     2012.15605        -1.83890         5.89084
     2012.15879         3.94416         5.85606
     2012.16153         4.46721         5.78868
     2012.16427        -2.98773         5.84737
     2012.16700        -2.37268         5.94627
     2012.16974        -4.21363         5.82672
     2012.17248        -5.76157         5.81802
     2012.17522         3.23748         5.80389
     2012.17796         0.08853         5.83107
     2012.18069        -4.01641         5.86693
     2012.18343        -4.93636         5.88215
     2012.18617         0.87470         5.98757
     2012.18891        -4.96225         5.76911
     2012.19164        -3.13020         5.85715
     2012.19438        -1.23114         5.82128
     2012.19712        -3.17409         5.79846
     2012.19986         1.57296         5.82237
     2012.20260         3.33302         6.04735
     2012.20533        -1.58293         5.76911
     2012.20807         1.18013         5.74303
     2012.21081        -0.37582         5.73107
     2012.21355         0.03523         5.75064
     2012.21629        -5.02971         5.76911
     2012.21902        -9.02966         5.77781
     2012.22176        -3.10261         5.75933
     2012.22450        -7.99855         5.79846
     2012.22724        -3.25650         5.73868
     2012.22998        -2.39344         5.73542
     2012.23271         1.65261         5.78868
     2012.23545         2.00066         5.79194
     2012.23819        10.14172         5.83650
     2012.24093         0.74977         5.80172
     2012.24366         3.06482         5.88758
     2012.24640        -1.93512         5.73542
     2012.24914        -0.12307         5.83867
     2012.25188        -2.63501         5.77346
     2012.25460        -3.12796         5.83976
     2012.25735        -1.65291         5.73325
     2012.26009       -10.06085         5.75607
     2012.26283        -2.70780         5.73651
     2012.26557        -4.90175         5.72347
     2012.26831        -8.98069         5.75933
     2012.27104         1.52236         5.86802
     2012.27378        -0.47458         5.72999
     2012.27652        -0.78453         5.75933
     2012.27926        -3.10948         5.90823
     2012.28199        -6.19342         5.77455
     2012.28473        -3.25137         5.76042
     2012.28747        -3.53432         5.73759
     2012.29021        -5.72826         5.84085
     2012.29295        -7.31021         5.77564
     2012.29568       -11.78015         5.73759
     2012.29842        -8.34910         5.80607
     2012.30116        -7.81805         5.83433
     2012.30390        -9.14999         5.74520
     2012.30664       -11.14294         5.75064
     2012.30937        -9.86889         5.75390
     2012.31211        -3.07083         5.96584
     2012.31485        -4.19678         5.92128
     2012.31759       -12.29372         5.80172
     2012.32032        -7.53367         5.86693
     2012.32306        -6.47162         5.74412
     2012.32580        -4.99756         5.72455
     2012.32854        -4.86751         5.80933
     2012.33128        -4.94946         5.92345
     2012.33401        -6.88240         5.87997
     2012.33675        -9.60835         5.77020
     2012.33949        -8.61129         5.70716
     2012.34223        -7.43424         5.74955
     2012.34497       -16.36619         5.73759
     2012.34770        -9.35313         5.82128
     2012.35044         1.36892         5.85606
     2012.35318        -8.44903         5.81694
     2012.35592        -6.10697         5.72020
     2012.35865        -9.91292         5.76585
     2012.36139        -7.05586         5.70281
     2012.36413        -6.39181         6.47884
     2012.36687        -2.52976         5.74955
     2012.36961        -6.87970         5.79302
     2012.37234        -0.16265         5.74412
     2012.37508        -1.17660         5.77564
     2012.37782        -5.96954         5.90280
     2012.38056        -9.94249         5.91367
     2012.38330        -1.00343         5.89519
     2012.38603         2.67462         5.89954
     2012.38877        -2.47633         5.89302
     2012.39151        -2.50427         5.84519
     2012.39425        -5.15722         5.81368
     2012.39698        -2.92617         5.89519
     2012.39972         0.07589         5.73325
     2012.40246        -6.41506         5.96040
     2012.40520        -2.92100         5.72129
     2012.40794        -9.38295         5.70390
     2012.41067        -2.92390         5.78433
     2012.41341        -1.94284         5.78324
     2012.41615         0.43121         5.86041
     2012.41889         3.48426         5.88324
     2012.42162        -1.20068         6.00496
     2012.42436        -0.62363         5.80824
     2012.42710        -3.96257         5.75933
     2012.42984         1.22348         5.77781
     2012.43258        -5.04247         5.88976
     2012.43531        -4.11241         5.77672
     2012.43805        -5.78636         5.73542
     2012.44079        -8.69031         5.82128
     2012.44353        -6.67025         5.75716
     2012.44626        -2.44320         5.76694
     2012.44900        -2.19214         5.80172
     2012.45174         3.43391         5.72999
     2012.45448        -3.74404         5.75933
     2012.45722         1.48602         5.81911
     2012.45995         1.46507         5.88541
     2012.46269         2.02312         5.75498
     2012.46543        -4.16882         5.86585
     2012.46817        -4.09377         5.76803
     2012.47091        -1.40271         5.79411
     2012.47364         1.81534         5.76042
     2012.47638        -3.75761         6.46689
     2012.47912        -3.98455         5.77564
     2012.48186        -5.55550         5.73868
     2012.48459        -4.45245         5.76477
     2012.48733        -4.05039         5.75172
     2012.49007        -1.73534         5.76368
     2012.49281        -3.67028         5.78759
     2012.49555        -1.60323         5.76477
     2012.49833        -2.76818         5.88215
     2012.50102         3.38388         5.74412
     2012.50376         4.04593         5.77129
     2012.50650        -3.10402         5.71477
     2012.50924        -0.67896         5.85606
     2012.51197        -3.74191         5.87019
     2012.51471         4.43915         5.75825
     2012.51745        -3.41280         5.77129
     2012.52019        -6.78775         5.82672
     2012.52292        -5.28769         5.76694
     2012.52566        -3.91164         5.73759
     2012.52840         1.19741         5.75933
     2012.53114         6.98347         6.18865
     2012.53388        -1.93948         5.84628
     2012.53661         0.84458         5.87671
     2012.53935         3.39863         5.84519
     2012.54209         2.91068         5.76368
     2012.54483         5.30874         5.82780
     2012.54757         1.47279         5.80824
     2012.55030         1.38584         5.81585
     2012.55304         5.85290         5.74629
     2012.55578        -0.18905         5.72455
     2012.55852        -0.33999         5.76259
     2012.56125         3.99506         5.73759
     2012.56399         0.47011         5.75281
     2012.56673         3.28417         5.75390
     2012.56947         6.79022         5.78759
     2012.57221         8.92927         5.72673
     2012.57494         6.50333         5.72129
     2012.57768         4.26238         5.77890
     2012.58042        10.57444         6.42884
     2012.58316         0.48849         5.76259
     2012.58590         6.42154         5.74846
     2012.58858         7.75760         5.79302
     2012.59138         6.73965         5.78216
     2012.59411         6.46870         5.77672
     2012.59685        10.00576         5.85063
     2012.59958         5.46181         5.77129
     2012.60232        11.19687         6.00496
     2012.60506         5.25792         5.73325
     2012.60780         6.30997         5.77346
     2012.61054        11.73803         5.77237
     2012.61328         6.41708         5.75933
     2012.61601         6.21313         5.80281
     2012.61875        10.28619         5.81802
     2012.62149        12.09024         5.82454
     2012.62423        13.94530         5.77672
     2012.62696        12.97935         5.82998
     2012.62970         6.06040         5.77890
     2012.63244         6.06546         5.79302
     2012.63518         5.87851         5.76911
     2012.63791         9.34156         5.79737
     2012.64065        10.05962         5.79520
     2012.64339         8.50267         5.78542
     2012.64613        11.83373         5.71260
     2012.64887        11.65778         5.73868
     2012.65161        18.76683         5.78868
     2012.65434         9.55089         5.97345
     2012.65708        16.31994         5.98214
     2012.65982         8.65699         5.91367
     2012.66256         8.92805         5.72347
     2012.66529        14.93510         8.04720
     2012.66803        10.26716         8.40369
     2012.67111        11.42522        10.43397
     2012.67351         9.28526         8.64389
     2012.67624        10.15732         7.61136
     2012.67898        10.09037         5.78542
     2012.68172        11.38442         5.77672
     2012.68446         9.59548         5.78976
     2012.68720        14.92953         5.76042
     2012.68994        15.77859         5.78759
     2012.69267         5.52064         5.99736
     2012.69541         8.02569         5.90823
     2012.69815         7.33475         5.88215
     2012.70089         8.41880         5.89410
     2012.70362         7.22285         5.76911
     2012.70636         2.86491         5.85715
     2012.70910         5.32796         5.76585
     2012.71184        12.15802         5.76803
     2012.71457        12.95007         5.75716
     2012.71731        14.88312         5.75498
     2012.72005        10.95218         5.79411
     2012.72279        14.67223         5.75933
     2012.72553        12.04928         5.76368
     2012.72826        11.32734         5.76911
     2012.73100        10.12539         6.08431
     2012.73374        18.44745         5.95932
     2012.73648        12.50450         5.78433
     2012.73921        12.64855         5.92671
     2012.74195        16.67461         6.21582
     2012.74469        11.55866         5.95714
     2012.74743        19.97671         6.09952
     2012.75017         7.49077         5.98757
     2012.75290        15.66082         5.97671
     2012.75564        13.06788         5.77020
     2012.75838        11.46293         5.76803
     2012.76112        15.80398         5.84737
     2012.76386        14.61704         5.78542
     2012.76659        18.44609         5.84737
     2012.76933        14.20814         5.96258
     2012.77207        14.82120         5.87780
     2012.77481        10.82425         5.86150
     2012.77754        13.29631         5.81802
     2012.78028        18.61436         5.90606
     2012.78302         6.47541         6.07126
     2012.78576        11.05647         6.01801
     2012.78850        12.20352         5.94519
     2012.79123        14.23257         6.04953
     2012.79397        13.27263         5.87019
     2012.79671         8.59268         5.89519
     2012.79945        20.05074         6.04301
     2012.80219        18.75479         5.93975
     2012.80493         7.89384         5.92019
     2012.80766         6.78590         6.28429
     2012.81040         7.96595         6.00170
     2012.81314         9.31400         5.87563
     2012.81587         6.65906         5.86150
     2012.81861        -0.60289         6.03431
     2012.82135         8.50517         5.99084
     2012.82409        12.75322         5.96801
     2012.82683        21.52827         5.95932
     2012.82956         9.89633         5.86911
     2012.83230        10.95638         5.87671
     2012.83504        10.89943         5.93432
     2012.83778         9.92849         5.94627
     2012.84052        14.61954         5.94519
     2012.84326         7.15660         5.98105
     2012.84599         6.13065         6.06800
     2012.84873        -5.93630         6.14735
     2012.85147        18.19176         5.99953
     2012.85420         2.05081         5.84737
     2012.85694         7.13586         5.94410
     2012.85968         8.75492         5.87563
     2012.86242         7.98097         5.89302
     2012.86516        15.37703         5.94627
     2012.86789         8.63108         6.05496
     2012.87063         7.77713         5.79411
     2012.87337         4.84419         5.87563
     2012.87611         9.34024         5.85280
     2012.87885        19.90829         5.93323
     2012.88158        13.75135         5.91802
     2012.88432        13.70540         5.96149
     2012.88706         9.50746         6.08974
     2012.88980         7.86451         5.97127
     2012.89253         7.64656         5.80063
     2012.89527        10.90662         5.96801
     2012.89801         6.85567         5.84737
     2012.90075         6.90472         5.82672
     2012.90349         7.12278         5.93541
