# ================= DQRFIT RESULTS ================
# INPUT FILE: series/QCYN.rad
# OUTPUT: LDETRENDED
# FILTER FUNCTION: f(t)
# f(t)=+line(t)+annual(t)+jumps(t)
# line(t)=+P 1+P 2*t
# annual(t)=+P 3*sin(2*pi*t+P 4)
# jumps(t)=+P 5*heav(t-2003.9747  )
# heav(t)=(t<0?0:1)
# TOTAL OBSERVATIONS MTOT= 1231
# INITIAL TIME INTERVAL= 2006.4422 - 2003.0637 =  3.3785
# TOTAL OBSERVATIONS AFTER PREFILTER M= 1231
# TIME-SPAN= 2006.4422 - 2003.0637 =  3.3785
# OBSERVATIONS: USED M=  1231 REJECTED MTOT-M=     0 %USED=  100.0000
# N=  5 PARAMETERS
# MAXSIG= 175.00000
# MAXRES=  26.13302
# SCALE FACTOR FOR LENGTHS: SCL=  10.00000
# SCALE FACTOR FOR SIGMAS: SCLSIG=   1.00000
# CHI^2=   1334.311 DOF=  1226 CHI^2/DOF=   1.08835
# RMS=      6.367 SDEV=      6.369 MEAN=    0.04794
#  P #       PARAMETER +-    SIGMA %error PARAMETER NAME
# P 1 =      5460.51882 +-  585.341  10.72 YZERO                              
# P 2 =        -2.70289 +-    0.292  10.81 SLOPE                              
# P 3 =         4.51656 +-    0.260   5.76 ANNUAL AMPLITUDE                   
# P 4 =        -2.23981 +-    0.050   2.21 ANNUAL PHASE                       
# P 5 =        -3.11810 +-    0.652  20.93 OFFSET 2003.9747                   
#       T            LDETRENDED       SIG_OBS
     2003.06366        -3.19374         6.84051
     2003.06640       -15.82534         6.84155
     2003.06914        -6.97794         6.90102
     2003.07187        -1.55854         7.04499
     2003.07461         4.33286         6.97092
     2003.07735        -7.16974         6.75497
     2003.08009        -4.69434         6.92501
     2003.08282        -1.66194         6.85199
     2003.08556         5.52246         7.11175
     2003.08830         0.05286         6.75810
     2003.09104         0.24826         6.86346
     2003.09378         8.33966         6.76748
     2003.09651        13.90906         6.88537
     2003.09925         8.69546         6.92710
     2003.10199         6.62686         7.02829
     2003.10473         4.06826         6.80921
     2003.10747         9.34666         6.91667
     2003.11020         7.62006         7.07420
     2003.11294        -6.83754         7.47480
     2003.11568         5.69686         7.25676
     2003.11842         2.62326         7.19104
     2003.12115        -0.40634         6.85616
     2003.12389        -1.52094         6.90728
     2003.12663         8.34546         7.22964
     2003.12937        -1.64114         7.03560
     2003.13211        -7.21674         7.12219
     2003.13484       -12.66734         6.88015
     2003.13758        -2.89094         6.48268
     2003.14032         6.93246         6.34289
     2003.14306        -5.94514         6.60265
     2003.14580        -7.92274         6.47538
     2003.14853        -0.73234         6.52337
     2003.15127        -3.07694         6.51815
     2003.15401         4.25746         6.31159
     2003.15675         5.55486         6.83634
     2003.15948         1.56126         6.39192
     2003.16222         3.02966         6.62873
     2003.16496        -4.70494         6.46495
     2003.16770        -2.15054         6.34393
     2003.17044         4.92186         6.45347
     2003.17317         0.43926         6.40965
     2003.17591        -3.98234         6.31055
     2003.17865        -7.31194         6.69341
     2003.18139        -3.89254         6.54319
     2003.18413        -3.54314         6.23439
     2003.18686        -4.28474         6.38670
     2003.18960         1.53266         6.30011
     2003.19234       -13.02394         6.53902
     2003.19508        -1.95354         6.61309
     2003.19781         2.39586         6.75392
     2003.20055         8.04726         6.90415
     2003.20329        -6.36534         6.55884
     2003.20603        -8.77194         6.51398
     2003.20877         1.38047         6.47225
     2003.21150        -4.17613         6.28968
     2003.21424        -9.00273         6.50667
     2003.21698         0.11667         6.34602
     2003.21972        -2.62893         6.44199
     2003.22246        -2.58853         6.39192
     2003.22519        -1.68513         6.41278
     2003.22793        -7.67473         6.46807
     2003.23067        -3.62533         6.32306
     2003.23341        -6.38493         6.66212
     2003.23614       -12.45153         6.49416
     2003.23888        -6.55213         6.44512
     2003.24162        -7.62273         6.26256
     2003.24436         0.00567         6.30220
     2003.24710         1.98607         6.47016
     2003.24983         5.49347         6.68090
     2003.25257         2.47287         6.43782
     2003.25531        -7.02773         6.41070
     2003.25805        -4.25933         6.33454
     2003.26079        -3.57593         6.30950
     2003.26352        -4.52853         6.26360
     2003.26626        -5.23413         6.27090
     2003.26900        -8.95473         6.44304
     2003.27174        -6.76933         6.53380
     2003.27447        -2.48293         6.37001
     2003.27721       -10.03253         6.54319
     2003.27995         0.53987         6.45243
     2003.28269        -0.35573         6.38983
     2003.28543        -3.91833         6.33871
     2003.28816         3.71807         6.26882
     2003.29090        -1.16353         6.36688
     2003.29364         6.69387         6.40861
     2003.29638         2.46327         6.26151
     2003.29911         0.09467         6.38983
     2003.30185         3.40707         6.33350
     2003.30459        -3.28653         6.33037
     2003.30733         7.31487         6.23230
     2003.31007         6.89427         6.24274
     2003.31280         9.08467         6.21040
     2003.31554        -0.24293         6.38149
     2003.31828         0.87347         6.19162
     2003.32102        10.41687         6.50563
     2003.32376         2.23327         6.17075
     2003.32649         4.62667         6.33767
     2003.32923        -7.41693         6.54319
     2003.33197       -10.28353         6.59639
     2003.33471        -7.80113         6.42530
     2003.33744       -13.79373         6.21561
     2003.34018         6.30467         6.23543
     2003.34292         2.98607         6.26464
     2003.34566        -4.48753         6.26777
     2003.34840         6.68187         6.57136
     2003.35113        -7.47673         6.43678
     2003.35387         1.90467         6.28134
     2003.35661         0.67307         6.19057
     2003.35935         3.06647         6.28447
     2003.36209         4.66387         6.31368
     2003.36482         0.58027         6.46286
     2003.36756         5.05267         6.37940
     2003.37030         1.98907         6.29385
     2003.37304       -12.76653         6.45347
     2003.37577        -4.26113         6.27090
     2003.37851         3.11627         6.32098
     2003.38125         0.01767         6.22187
     2003.38399         3.99507         6.25004
     2003.38673         1.14247         6.26569
     2003.38946         3.50587         6.34602
     2003.39220         3.37527         6.34497
     2003.39494        -0.74533         6.41696
     2003.39768        -0.92893         6.39818
     2003.40042         6.63347         6.47016
     2003.40315         3.58787         6.63917
     2003.40589         3.25827         6.60057
     2003.40863        -1.39833         6.47120
     2003.41137         5.28907         6.26464
     2003.41410         4.87547         6.22709
     2003.41684        -2.26113         6.57866
     2003.41958        11.98827         6.46286
     2003.42232        10.88067         6.45138
     2003.42506        11.19207         6.37105
     2003.42779        10.82247         6.47120
     2003.43053         5.13787         6.40965
     2003.43327         2.38727         6.42843
     2003.43601         8.97767         6.43260
     2003.43875         6.16207         6.29698
     2003.44148         6.08747         6.24795
     2003.44422         0.73487         6.41591
     2003.44696         6.33827         6.48477
     2003.44970         5.35668         6.35019
     2003.45243        -0.38192         6.25212
     2003.45517        -4.37052         6.28655
     2003.45791         0.44888         6.41278
     2003.46065        -3.24772         6.27612
     2003.46339         2.56868         6.32932
     2003.46612        19.63708         6.45869
     2003.46886        13.10648         6.51293
     2003.47160        -0.33412         6.19996
     2003.47434        12.12328         6.24691
     2003.47708         8.05568         6.44304
     2003.47981        -0.18092         6.63291
     2003.48255         6.18948         6.38775
     2003.48529         7.71188         6.39088
     2003.48803         3.44128         6.36375
     2003.49076         3.60968         6.36375
     2003.49350        -1.32492         6.35228
     2003.49624       -12.09952         6.38357
     2003.49898         9.17388         6.35228
     2003.50172        -1.75272         6.50355
     2003.50445        -1.65732         6.45451
     2003.50719         3.75808         6.37314
     2003.50993         9.22248         6.44408
     2003.51267         9.32388         6.53171
     2003.51541         6.12628         6.42009
     2003.51814        11.95268         6.43052
     2003.52088         5.86808         6.40235
     2003.52362         1.69948         6.47329
     2003.52636         1.43188         6.45556
     2003.52909        -1.86572         6.58909
     2003.53183         4.53468         6.38983
     2003.53457         3.65408         6.65690
     2003.53731        -4.94752         6.39713
     2003.54005         1.29188         6.71950
     2003.54278        -0.57672         6.47016
     2003.54552        -9.84732         6.40339
     2003.54826         8.15808         6.75392
     2003.55100         2.21248         6.68611
     2003.55374       -11.79612         6.50772
     2003.55647         1.99028         6.34184
     2003.55921        -6.36532         6.30429
     2003.56195        -5.02892         6.57136
     2003.56469        -6.96052         6.55571
     2003.56742         1.77088         6.60787
     2003.57016         2.94628         6.64856
     2003.57290         2.17468         6.66212
     2003.57564        -1.04492         6.58179
     2003.57838        -0.58452         6.68715
     2003.58111         0.32288         6.69028
     2003.58385         3.17128         6.71637
     2003.58659         5.75568         6.62039
     2003.58933        -3.92192         6.48059
     2003.59206        -4.84352         6.42009
     2003.59480        -4.52212         6.51606
     2003.59754        -2.93372         6.34915
     2003.60028        -2.23432         6.26986
     2003.60302        -5.60292         6.32098
     2003.60575        -5.72452         6.34393
     2003.60849        -4.58912         6.36479
     2003.61123        -4.98472         6.33037
     2003.61397        -4.30932         6.26360
     2003.61671        -3.15292         6.25004
     2003.61944         0.65748         6.31263
     2003.62218       -10.58512         6.28134
     2003.62492        -0.02072         6.38566
     2003.62766         1.20968         6.35019
     2003.63039         1.31108         6.23022
     2003.63313         0.73148         6.61100
     2003.63587         3.99388         6.56510
     2003.63861         5.80228         6.39922
     2003.64135        -4.79932         6.34080
     2003.64408        -3.62892         6.38044
     2003.64682         1.15248         6.31159
     2003.64956        -2.89012         6.48998
     2003.65230         0.44328         6.50459
     2003.65504        -5.39932         6.49520
     2003.65777        -5.62192         6.28134
     2003.66051         4.63148         6.41487
     2003.66325        -0.71012         6.30950
     2003.66599        -2.61172         6.53902
     2003.66872         1.22068         6.47851
     2003.67146         5.19008         6.42739
     2003.67420        -0.94352         6.31576
     2003.67694         0.99888         6.29907
     2003.67968        -8.82072         6.26777
     2003.68241        -5.19232         6.27090
     2003.68515         4.30308         6.58179
     2003.68789        -0.10852         6.50355
     2003.69063         7.51489         6.35123
     2003.69337        -3.46571         6.33871
     2003.69610        -2.86231         6.31368
     2003.69884         0.76509         6.43991
     2003.70158        -3.09951         6.34915
     2003.70432        -1.04511         6.30324
     2003.70705        -3.05571         6.55049
     2003.70979        -6.62331         6.38670
     2003.71253        -0.22791         6.31159
     2003.71527         2.97849         6.33454
     2003.71801         0.91289         6.35853
     2003.72074         7.59429         6.48894
     2003.72348        -5.60931         6.43365
     2003.72622        -6.15591         6.50355
     2003.72896        -0.80551         6.48685
     2003.73170       -12.57811         6.73097
     2003.73443         2.19929         6.55258
     2003.73717         7.04369         6.52754
     2003.73991         1.25509         6.38044
     2003.74265         4.62349         6.56301
     2003.74538         0.90289         6.61204
     2003.74812        -5.40071         6.97822
     2003.75086         3.02869         6.67046
     2003.75360         4.80709         6.52754
     2003.75634        -6.35551         6.47642
     2003.75907        -1.27911         6.49937
     2003.76181         0.68929         6.79357
     2003.76455         5.02669         6.98552
     2003.76729        -1.02291         6.72263
     2003.77003        -3.14751         6.63499
     2003.77276         1.43789         6.53902
     2003.77550         5.81729         6.37523
     2003.77824        -1.01031         6.56092
     2003.78098         8.17809         6.58805
     2003.78371         7.84849         6.52650
     2003.78645        11.62789         6.41904
     2003.78919         7.97429         6.41591
     2003.79193        -2.51531         6.34393
     2003.79467         2.24709         6.42635
     2003.79740         3.67349         6.34080
     2003.80014         4.71389         6.40444
     2003.80288         0.45129         6.33454
     2003.80562         6.10769         6.78000
     2003.80836         1.95909         6.57553
     2003.81109         4.91349         6.46807
     2003.81383         2.76889         6.30220
     2003.81657        -4.30071         6.40339
     2003.81931         8.48969         6.38462
     2003.82204         5.78709         6.37418
     2003.82478        -0.99551         6.84781
     2003.82752        -8.48511         7.40595
     2003.83026        -1.72571         6.60161
     2003.83300         0.99769         6.43678
     2003.83573        -0.45091         6.36166
     2003.83847         2.50049         6.39088
     2003.84121         2.80689         6.44825
     2003.84395        -0.84471         6.48268
     2003.84669        -4.50031         6.37940
     2003.84942         8.08909         6.43678
     2003.85216         1.30549         6.57657
     2003.85490         7.01589         6.61830
     2003.85764         0.39129         6.55779
     2003.86037         2.57469         6.45764
     2003.86311         4.48209         6.34393
     2003.86585         1.13949         6.70489
     2003.86859         6.89589         6.92814
     2003.87133         3.33629         6.50980
     2003.87406        -3.80831         6.56301
     2003.87680        -3.97291         6.50459
     2003.87954        -8.61251         6.53693
     2003.88228        -5.62311         6.49103
     2003.88502         7.92529         6.52024
     2003.88775         1.16669         6.71219
     2003.89049         2.29009         6.55675
     2003.89323        -1.16951         6.48998
     2003.89597         6.07789         6.42426
     2003.89870        -3.47771         6.70489
     2003.90144         1.76369         6.42530
     2003.90418         1.02109         6.39192
     2003.90692         3.28649         6.36792
     2003.90966         7.73189         6.57449
     2003.91239         9.13729         6.54214
     2003.91513        19.86969         6.59222
     2003.91787        -3.25391         6.78209
     2003.92061         2.42349         6.59222
     2003.92334       -14.27211         6.72471
     2003.92608        11.10229         6.76540
     2003.92882        -9.47530         6.43991
     2003.93156        -8.44890         6.59013
     2003.93430        -1.39050         6.57553
     2003.93703         2.18190         6.47329
     2003.93977        23.87430         6.65899
     2003.94251        -5.86830         6.66212
     2003.94525        -2.60090         6.44304
     2003.94799         4.10750         6.52441
     2003.95072         5.04190         6.53171
     2003.95346        -0.23370         6.43052
     2003.95620       -10.23130         6.57866
     2003.95894        -0.10990         6.70593
     2003.96167        -2.17150         6.60891
     2003.96441        -3.97110         6.89059
     2003.96715         3.33930         6.73723
     2003.96989         1.88870         6.65481
     2003.97263        -0.37890         6.39818
     2003.97536       -13.21850         6.51502
     2003.97810        -5.78310         6.45869
     2003.98084        -9.64070         6.48372
     2003.98358        -8.54630         6.42426
     2003.98632       -17.88190         6.29698
     2003.98905       -10.76250         6.36897
     2003.99179       -13.38610         6.52545
     2003.99453       -10.39870         6.38253
     2003.99727        -9.20730         6.37314
     2004.00205       -17.77138         9.30881
     2004.00548       -10.18510         6.34915
     2004.00822       -10.93070         6.48894
     2004.01096       -16.93330         6.35228
     2004.01369        -1.29590         6.55675
     2004.01643       -11.06850         6.64960
     2004.01917        -5.95810         6.70280
     2004.02191        13.49830         6.58492
     2004.02465         1.68370         6.46599
     2004.02738         1.61510         6.58283
     2004.03012       -12.11450         6.43469
     2004.03286       -14.99810         6.27090
     2004.03560        -6.45470         6.51085
     2004.03833        -4.88330         6.39818
     2004.04107        -9.76090         6.79774
     2004.04381        -7.88350         6.51293
     2004.04655        -5.51810         6.47433
     2004.04929         2.81930         6.40965
     2004.05202        -6.57830         6.70593
     2004.05476         0.60110         6.45556
     2004.05750       -14.20050         6.44408
     2004.06024        -6.75410         6.38775
     2004.06298        -4.71170         6.45869
     2004.06571       -10.02630         6.34602
     2004.06845         0.74010         6.49311
     2004.07119       -12.71050         6.57031
     2004.07393        -7.95310         6.52650
     2004.07666         2.13230         6.48372
     2004.07940        12.83670         6.53484
     2004.08214        -0.62490         6.53902
     2004.08488        -2.60450         6.35228
     2004.08762       -13.91110         6.69133
     2004.09035        -9.19570         6.45347
     2004.09309        -1.59530         6.47642
     2004.09583        -0.66390         6.50042
     2004.09857        -2.34850         6.57344
     2004.10131        -6.68610         6.57240
     2004.10404        -5.11170         6.40861
     2004.10678        -3.88230         6.38149
     2004.10952         1.13210         6.32515
     2004.11226        -2.30650         6.36792
     2004.11499        -5.01410         6.51293
     2004.11773         2.76130         6.61309
     2004.12047         2.42270         6.53589
     2004.12321        -4.02290         6.72888
     2004.12595         5.13750         6.56197
     2004.12868        -1.17210         6.67255
     2004.13142       -19.31870         7.10132
