# ================= DQRFIT RESULTS ================
# INPUT FILE: series/RDL2.rad
# OUTPUT: LDETRENDED
# FILTER FUNCTION: f(t)
# f(t)=+line(t)+annual(t)
# line(t)=+P 1+P 2*t
# annual(t)=+P 3*sin(2*pi*t+P 4)
# heav(t)=(t<0?0:1)
# TOTAL OBSERVATIONS MTOT= 1100
# INITIAL TIME INTERVAL= 2022.7488 - 2019.6659 =  3.0829
# TOTAL OBSERVATIONS AFTER PREFILTER M= 1092
# TIME-SPAN= 2022.7488 - 2019.6659 =  3.0829
# OBSERVATIONS: USED M=  1092 REJECTED MTOT-M=     8 %USED=   99.2727
# N=  4 PARAMETERS
# MAXSIG= 175.00000
# MAXRES=  50.95723
# SCALE FACTOR FOR LENGTHS: SCL=  10.00000
# SCALE FACTOR FOR SIGMAS: SCLSIG=   1.00000
# CHI^2=    942.066 DOF=  1088 CHI^2/DOF=   0.86587
# RMS=     10.153 SDEV=     10.141 MEAN=   -0.58135
#  P #       PARAMETER +-    SIGMA %error PARAMETER NAME
# P 1 =     -2382.44899 +-  530.720  22.28 YZERO                              
# P 2 =         1.18710 +-    0.263  22.11 SLOPE                              
# P 3 =         5.13190 +-    0.316   6.15 ANNUAL AMPLITUDE                   
# P 4 =         2.58480 +-    0.072   2.77 ANNUAL PHASE                       
#       T            LDETRENDED       SIG_OBS
     2019.66586         4.16598         5.23790
     2019.66820         4.74720         6.31079
     2019.67077         5.13415         7.04777
     2019.67368         5.62470         6.30149
     2019.67613         8.60579         7.54373
     2019.67835        28.15015        84.02977
     2019.68235         0.04441         6.05955
     2019.68440         0.79597         7.48883
     2019.68708         4.81979         8.08995
     2019.69039         3.04986        11.02481
     2019.69336         4.91034         4.99131
     2019.69604         5.29416         5.18952
     2019.69883         1.86284         5.02388
     2019.70157         4.77059         4.97550
     2019.70431        12.28434         5.04808
     2019.70705         7.70509         5.28257
     2019.70978         8.88084         5.05831
     2019.71252         3.61759         5.04342
     2019.71526        11.65734         4.99225
     2019.71794         4.74116         5.94603
     2019.72073         5.94084         5.19882
     2019.72347        12.86359         5.16067
     2019.72541         6.43529         7.91408
     2019.75182        12.25394        18.02233
     2019.75359        11.79384         9.66346
     2019.75633        12.13259         9.16005
     2019.75906        -6.79466         9.07537
     2019.76180         7.27809         9.35081
     2019.76454         4.41984         9.71092
     2019.76728        13.38059         9.95192
     2019.77002         9.17534         9.62996
     2019.77275         5.48609         9.52761
     2019.77549         0.50384         9.66532
     2019.77823        10.77359         9.85050
     2019.78097        18.47734         9.64671
     2019.78371         9.51209         9.62531
     2019.78644         7.63584         9.70068
     2019.78918        26.41959        10.09243
     2019.79192       -17.05066         9.72488
     2019.79466         7.75109        10.26551
     2019.79739        -2.02516         9.91563
     2019.80013        17.64859         9.78722
     2019.80287         9.18134         9.51458
     2019.80561        -4.47291         9.70813
     2019.80835         5.83384         9.66439
     2019.81108        -0.07041         9.71836
     2019.81382        15.47334         9.37314
     2019.81656        10.55409         9.79094
     2019.81930        -7.70616         9.52667
     2019.82203        -0.97041         9.66160
     2019.82477         2.93834         9.87562
     2019.82751         6.36709         9.53040
     2019.83025         2.70784         9.56855
     2019.83299         3.58859         9.60112
     2019.83572         8.72234         9.65136
     2019.83846        14.20909         9.44107
     2019.84120        -1.20116         9.90633
     2019.84394         0.88759         9.49225
     2019.84668        -5.74366         9.51365
     2019.84941        -0.17591         9.44758
     2019.85215         3.30884         9.49411
     2019.85489         0.05559         9.77792
     2019.85763         7.02234         9.46991
     2019.86036         0.92209         9.62066
     2019.86310         4.54484         9.53040
     2019.86584         3.36459         9.51644
     2019.86858        20.85034         9.58995
     2019.87132         7.58309         9.86631
     2019.87405        13.42884         9.36569
     2019.87679        -1.13241        10.53722
     2019.87953        20.47334         9.94634
     2019.88227        16.95809         9.69324
     2019.88501        13.21084         9.38989
     2019.88774         6.09359        10.54839
     2019.89048        16.55133         9.41315
     2019.89322         4.43508         9.69975
     2019.89596        -2.69417         9.79653
     2019.89869       -12.33642        10.09243
     2019.90143         4.40733         9.72115
     2019.90417         1.59708         9.64020
     2019.90691        16.77583         9.42897
     2019.90965         6.81958         9.41594
     2019.91238         0.25933         9.43083
     2019.91512        20.37208         9.97798
     2019.91786        10.80783         9.46340
     2019.92060        15.01458         9.55552
     2019.92334         9.85933         9.59367
     2019.92607         5.59508         9.49038
     2019.92881         3.15183         9.90819
     2019.93155         2.04458         9.70068
     2019.93429         9.67033         9.69975
     2019.93702         4.93008         9.55273
     2019.93976         8.80683         9.81700
     2019.94250        -3.68742         9.70999
     2019.94524         3.62433        10.39857
     2019.94798         0.99908         9.72395
     2019.95071         0.50783         9.61321
     2019.95345         2.84558         9.54994
     2019.95619         6.41633         9.75744
     2019.95893        -1.46592         9.67370
     2019.96167         6.78683         9.64671
     2019.96440        -1.05842        10.64702
     2019.96714         8.26033        10.77450
     2019.96988         2.06708         9.66997
     2019.97262        -3.02917         9.68021
     2019.97535        -4.00542         9.37221
     2019.97809        -4.97967         9.63648
     2019.98083        -5.15392         9.61880
     2019.98357         0.86083         9.53691
     2019.98631       -13.16442         9.52667
     2019.98904        -5.31867         9.47270
     2019.99178        -2.96892         9.53505
     2019.99452       -13.53817         9.68393
     2019.99726        -1.09142         9.83282
     2020.00000         9.09233         9.95937
     2020.00273        -5.67692         9.53970
     2020.00547       -13.44617         9.60205
     2020.00821       -10.82942         9.94076
     2020.01095        -9.03267         9.19448
     2020.01368       -18.66692         9.73976
     2020.01642       -10.22817         9.65881
     2020.01916        -7.76842         9.59460
     2020.02190       -11.83567         9.65509
     2020.02464        -9.12692         9.50713
     2020.02737       -20.95617         9.77605
     2020.03011         2.17358         9.59926
     2020.03285        -6.19367         9.56762
     2020.03559        -9.28092         9.56948
     2020.03833       -10.86317         9.86725
     2020.04106         3.39058        11.40633
     2020.04380        -7.74967        10.43207
     2020.04654        -1.73292         9.51179
     2020.04928        -7.95717         9.43548
     2020.05201        -5.56742         9.47829
     2020.05475         0.02033         9.56203
     2020.05749        -4.22492         9.48480
     2020.06023         5.87083         9.50993
     2020.06297         0.61158         9.38524
     2020.06570        -7.73767        10.09615
     2020.06844        -8.87592         9.41687
     2020.07118        -2.17817         9.58064
     2020.07392        -1.75242         9.95658
     2020.07666        -8.77067         9.32475
     2020.07939        -6.15392         9.59181
     2020.08213        -4.71917         9.50341
     2020.08487         9.75658         9.61507
     2020.08761       -11.14767         9.66997
     2020.09034         1.13108         9.41687
     2020.09308         8.12883         9.63927
     2020.09582         4.31258         9.63741
     2020.09856        -8.73467         9.65695
     2020.10130        -4.12092         9.59646
     2020.10403       -11.43917         9.65229
     2020.10677        -1.22442         9.44293
     2020.10951         3.26633         9.60112
     2020.11225         0.11708         9.64299
     2020.11498        -3.89817         9.51179
     2020.11772        -8.73342         9.63368
     2020.12046        -1.87667         9.49969
     2020.12320        -7.16692         9.48294
     2020.12594        -3.42717         9.75558
     2020.12867       -11.43342         9.52202
     2020.13141        -9.80867         9.58716
     2020.13415        -4.70992         9.50341
     2020.13689        -1.26917        10.28505
     2020.13963        -2.81642        10.36600
     2020.14236        -7.46367         9.70440
     2020.14510        -5.55592         9.61321
     2020.14784        -5.75717         9.51923
     2020.15058        -8.50042         9.41594
     2020.15331        -9.09167         9.46340
     2020.15605       -14.04992         9.46154
     2020.15879        -8.18017         9.52574
     2020.16153        -6.86042         9.85980
     2020.16427        -4.71467         9.44200
     2020.16700        -1.57092         9.70068
     2020.16974        -2.78417         9.48759
     2020.17248        -0.77642         9.69324
     2020.17522        -8.15567         9.54528
     2020.17796        -6.60892         9.50341
     2020.18069        -2.43217         9.41222
     2020.18343         1.15658         9.33964
     2020.18617       -11.67067         9.41222
     2020.18891         0.69407        10.68796
     2020.19164        -8.71918        10.68331
     2020.19438       -10.34443        10.74007
     2020.19712         0.35432        10.70471
     2020.19986        11.92307        10.78846
     2020.20260        -6.59418        10.66284
     2020.20533        -6.72143        10.88989
     2020.20807        -1.87168        10.71867
     2020.21081        -0.05193        10.77264
     2020.21355        -6.36718        10.62934
     2020.21629        -7.70643        10.71309
     2020.21902        -9.24768        10.73728
     2020.22176        -3.55893        10.89547
     2020.22450        -1.10718        10.74752
     2020.22724         4.24557        10.80986
     2020.22997         0.18232        10.49535
     2020.23271         2.36507        10.55118
     2020.23545         3.69182        10.62283
     2020.23819       -11.12743        10.50186
     2020.24093         2.08232        10.57816
     2020.24366         9.89607        10.95316
     2020.24640        -3.48118        10.51675
     2020.24914        -0.17643        10.69913
     2020.25188        -3.90068        10.92711
     2020.25462        -3.00493        10.72426
     2020.25735         0.36982        10.72519
     2020.26009         4.62957        10.67028
     2020.26283         1.95732        10.89361
     2020.26557        -5.96093        10.76799
     2020.26830       -10.71018        10.80428
     2020.27104        -2.18143        10.66656
     2020.27378        19.93932        10.89733
     2020.27652       -12.52193        10.88989
     2020.27926        -3.50718        10.86197
     2020.28199        -5.44743        10.76241
     2020.28473         1.51332        10.87686
     2020.28747        -0.98993        10.77171
     2020.29021         2.62082        10.82196
     2020.29295        -7.97943        10.93455
     2020.29568         3.22932        11.03412
     2020.29842        -1.47493        10.72612
     2020.30116        -0.80718        10.53071
     2020.30390       -10.82143        10.73821
     2020.30663        -1.42068        10.59398
     2020.30937        -4.87593        11.02388
     2020.31211        -2.98718        10.70378
     2020.31485         0.99457        11.09367
     2020.31759       -18.88568        10.93269
     2020.32032         0.54107        11.14857
     2020.32306        -4.95118        10.71495
     2020.32580        -7.27543        10.68983
     2020.32854        -1.40168        10.82568
     2020.33128        -7.49293        10.93548
     2020.33401         2.99382        11.03319
     2020.33675        -5.07643        10.70471
     2020.33949        -2.93068        10.42742
     2020.34223         7.10907        11.08809
     2020.34496         4.89682        11.45564
     2020.34770        -5.71543        10.56514
     2020.35044        -8.90968        11.59894
     2020.35318        -5.39693        10.62655
     2020.35592        10.65682        10.63120
     2020.35865       -11.13643        11.37748
     2020.36139         8.91032        10.85081
     2020.36413         9.07307        10.84429
     2020.36687        -7.68318        10.94386
     2020.36961        -2.84343        10.88989
     2020.37234         4.66632        11.06855
     2020.37508         0.88507        11.20161
     2020.37782         1.64782        10.98852
     2020.38056        -6.37743        10.89640
     2020.38329        -2.45268        10.81079
     2020.38603       -13.42293        11.22115
     2020.38877         4.40182        12.41315
     2020.39151         0.11557        11.01272
     2020.39425        -3.58868        11.07320
     2020.39698        -3.54593        10.95316
     2020.39972        -9.31818        11.04715
     2020.40246       -15.51643        11.08623
     2020.40520        -6.92568        11.67153
     2020.40794        12.06107        11.27326
     2020.41067         2.58182        11.34398
     2020.41341       -12.32643        11.05552
     2020.41615        -4.71968        11.47053
     2020.41889        -7.77293        11.39237
     2020.42162        -2.66118        11.55893
     2020.42436         0.06557        11.50124
     2020.42710         0.36432        11.30955
     2020.42984         5.06807        11.38586
     2020.43258       -28.33318        11.27326
     2020.43531       -25.73743        11.54404
     2020.43805       -20.86768        11.71991
     2020.44079       -35.04593        11.87624
     2020.44353        -0.59118        11.85391
     2020.44626       -12.56843        11.70595
     2020.44900       -26.99468        12.00000
     2020.45174       -10.25493        11.62686
     2020.45448       -29.36818        12.12283
     2020.45722        -2.76443        11.99535
     2020.45995        -3.57668        11.39609
     2020.46269        -0.12993        11.55893
     2020.46543        -3.27618        11.65664
     2020.46817         3.83257        11.88275
     2020.47091        -7.00968        11.42308
     2020.47364        -0.91193        11.65292
     2020.47638       -15.15818        11.61011
     2020.47912         7.44157        11.70409
     2020.48186        -4.80368        11.67711
     2020.48459         2.07707        11.50403
     2020.48733        -2.01819        12.03071
     2020.49007        14.45056        11.12345
     2020.49281        -5.17669        11.19510
     2020.49555       -12.73194        11.01644
     2020.49828         5.08881        11.10019
     2020.50102         3.80656        11.34677
     2020.50376         1.57531        11.02947
     2020.50650        -1.50194        11.10205
     2020.50924       -10.39319        10.79497
     2020.51197        -0.92244        10.65447
     2020.51471         0.05031        10.69634
     2020.51745         3.13506        10.80056
     2020.52019         4.60181        10.87035
     2020.52292        -1.66444        12.49597
     2020.52566        -3.60669        12.62345
     2020.52840        11.69406        12.83933
     2020.53114         7.35481        12.47643
     2020.53388        16.95456        12.89981
     2020.53661        -5.15969        12.72115
     2020.53935         8.30006        12.53877
     2020.54209        12.14781        12.54808
     2020.54483        -8.07744        12.36104
     2020.54757         7.32431        12.51551
     2020.55030       -20.92594        12.78071
     2020.55304        -1.83519        11.99162
     2020.55578        13.24556        12.65695
     2020.55852        -2.68769        12.48480
     2020.56125         7.64806        12.87097
     2020.56399        18.47281        12.29684
     2020.56673        16.84156        12.21030
     2020.56947         4.81731        11.99907
     2020.57221         3.75106        12.18796
     2020.57494         1.05881        12.43734
     2020.57768         9.23856        11.88461
     2020.58042        15.62531        12.26985
     2020.58316        11.72906        11.85484
     2020.58590         6.74881        11.99069
     2020.58863        32.41456        12.52481
     2020.59137         1.75431        11.94975
     2020.59411         2.38706        11.90602
     2020.59685        11.63881        12.93424
     2020.59958         0.60056        12.20471
     2020.60232        17.25031        11.96650
     2020.60506         2.33006        12.20471
     2020.60780         6.29081        11.91067
     2020.61054         7.69356        12.09770
     2020.61327         8.71431        12.15912
     2020.61601         6.44106        11.90695
     2020.61875        12.02081        12.23170
     2020.62109       -17.72997        18.66718
     2020.62696         9.06706        12.12097
     2020.62970        15.99581        12.54622
     2020.63244        20.12056        12.46433
     2020.63518        17.11931        12.27729
     2020.63791        36.16806        14.29094
     2020.64065        -4.65919        12.50899
     2020.64339         8.89456        11.72736
     2020.64613        19.57631        12.17122
     2020.64887        -5.44494        13.58654
     2020.65160       -20.66619        12.40850
     2020.65434         5.43256        12.47457
     2020.65708        -0.86269        12.05118
     2020.65982        13.43706        12.43827
     2020.66256        11.71781        12.34894
     2020.66529        41.77356        12.72860
     2020.66803        15.48031        12.25031
     2020.67078        11.33104        12.86631
     2020.67351        11.85981        12.55459
     2020.67624         1.52456        12.17401
     2020.67898         6.81531        12.87190
     2020.68172        -0.28894        12.17401
     2020.68446        31.58481        13.25993
     2020.68720        -9.77544        12.65509
     2020.68993        -0.96869        12.11818
     2020.69267        -2.50194        12.31917
     2020.69541        -0.27219        12.35918
     2020.69815        11.01056        12.32754
     2020.70089        -7.92769        12.67370
     2020.70362       -18.22694        12.95471
     2020.70636       -11.61819        13.22363
     2020.70910        -2.87244        12.42525
     2020.71184         2.51131        12.75465
     2020.71457        -1.41394        13.28226
     2020.71731         1.72781        12.52202
     2020.72005       -16.29344        12.41408
     2020.72279        -6.94369        13.17246
     2020.72553        -0.85694        14.05273
     2020.72826        -7.06819        13.92059
     2020.73100       -19.92644        14.28629
     2020.73374       -16.06169        12.84119
     2020.73648        -4.83894        12.92680
     2020.73921        10.93781        12.87469
     2020.74195         7.44856        21.32754
     2020.74469         5.52631        12.72115
     2020.74743         4.07606        12.72394
     2020.75017         6.56681        12.68486
     2020.75290         2.02556        13.08871
     2020.75564        -0.05569        12.74628
     2020.75838        -0.78494        13.55490
     2020.76112         2.55781        12.85887
