# ================= DQRFIT RESULTS ================
# INPUT FILE: series/RDTP.rad
# OUTPUT: LDETRENDED
# FILTER FUNCTION: f(t)
# f(t)=+line(t)+annual(t)+jumps(t)
# line(t)=+P 1+P 2*t
# annual(t)=+P 3*sin(2*pi*t+P 4)
# jumps(t)=+P 5*heav(t-2018.4463  )
# heav(t)=(t<0?0:1)
# TOTAL OBSERVATIONS MTOT= 1637
# INITIAL TIME INTERVAL= 2022.5298 - 2016.4600 =  6.0698
# TOTAL OBSERVATIONS AFTER PREFILTER M= 1616
# TIME-SPAN= 2022.5298 - 2016.4600 =  6.0698
# OBSERVATIONS: USED M=  1616 REJECTED MTOT-M=    21 %USED=   98.7172
# N=  5 PARAMETERS
# MAXSIG= 175.00000
# MAXRES=  30.94947
# SCALE FACTOR FOR LENGTHS: SCL=  10.00000
# SCALE FACTOR FOR SIGMAS: SCLSIG=   1.00000
# CHI^2=   1656.736 DOF=  1611 CHI^2/DOF=   1.02839
# RMS=      6.205 SDEV=      6.207 MEAN=   -0.00848
#  P #       PARAMETER +-    SIGMA %error PARAMETER NAME
# P 1 =      4419.74191 +-  310.648   7.03 YZERO                              
# P 2 =        -2.19914 +-    0.154   7.00 SLOPE                              
# P 3 =         4.86658 +-    0.200   4.10 ANNUAL AMPLITUDE                   
# P 4 =         2.68905 +-    0.052   1.92 ANNUAL PHASE                       
# P 5 =         7.62392 +-    0.499   6.55 OFFSET 2018.4463                   
#       T            LDETRENDED       SIG_OBS
     2016.45995         8.83429         5.32704
     2016.46269        -4.73068         5.35645
     2016.46543        -3.31766         5.32704
     2016.46817         0.79036         5.38789
     2016.47091         2.27338         5.34834
     2016.47364         6.77740         5.40716
     2016.47638         4.71642         5.41426
     2016.47912         1.90544         5.52783
     2016.48186        -4.29154         5.33110
     2016.48459         1.05748         5.33414
     2016.48733        -1.79950         5.35544
     2016.49007        11.28852         5.40817
     2016.49281         0.76055         5.39397
     2016.49555         4.11257         5.36051
     2016.49829         1.22060         5.38079
     2016.50102        -2.79139         5.39397
     2016.50376        11.42763         5.49843
     2016.50650         3.46565         5.49336
     2016.50924        -2.46233         5.36862
     2016.51197        -7.11931         5.34631
     2016.51471         2.81271         5.38383
     2016.51745        -1.39627         5.51567
     2016.52019        -4.27025         5.41223
     2016.52292         3.55378         5.30778
     2016.52566        -1.97620         5.32603
     2016.52840         6.35682         5.33820
     2016.53114        -4.00416         5.36457
     2016.53388         1.40086         5.34327
     2016.53661        -1.92312         5.41020
     2016.53935         3.09490         5.31792
     2016.54209         5.82792         5.33414
     2016.54483         4.17394         5.36862
     2016.54757        -2.65104         5.32704
     2016.55030         4.48498         5.39499
     2016.55304         5.78301         5.28749
     2016.55578         3.00003         5.53696
     2016.55852         3.44605         5.47206
     2016.56125         2.83007         5.34023
     2016.56399         5.45709         5.33110
     2016.56673         7.65811         5.43251
     2016.56947         0.77313         5.44975
     2016.57221         8.56415         5.46800
     2016.57494         5.04217         5.49944
     2016.57768        16.64919         5.37572
     2016.58042         6.66021         5.33516
     2016.58316         4.99125         5.30169
     2016.58590         6.24726         5.38282
     2016.58863         3.87028         5.31792
     2016.59137         3.51730         5.33921
     2016.59411         7.54732         5.23273
     2016.59685        14.30134         5.33414
     2016.59958         6.22036         5.32299
     2016.60232         1.09338         5.26823
     2016.60506         1.53340         5.33313
     2016.60780         2.56842         5.28242
     2016.61054         6.67244         5.24794
     2016.61327         4.47147         5.28749
     2016.61601         4.46249         5.32502
     2016.61875         8.13351         5.42237
     2016.62149         4.91953         5.23679
     2016.62423         2.80755         5.32502
     2016.62696         6.40457         5.34124
     2016.62970         5.14059         5.39803
     2016.63244         2.94561         5.38586
     2016.63518         8.51663         5.22665
     2016.63791         9.50265         5.27330
     2016.64065        15.64067         5.30473
     2016.64339         9.85270         5.28141
     2016.64613         8.52972         5.36254
     2016.64887         1.46374         5.28242
     2016.65160         3.20176         5.40614
     2016.65434        -0.85122         5.44772
     2016.65708         0.25780         5.38789
     2016.65982        -1.48818         5.34327
     2016.66256         1.56884         5.31487
     2016.66529         4.01986         5.32806
     2016.66804        -0.36711         5.36761
     2016.67077         3.67290         5.43961
     2016.67351         1.98093         5.32400
     2016.67624         4.17795         5.23578
     2016.67898         1.37997         5.23375
     2016.68172         9.11199         5.28445
     2016.68446         5.46201         5.54710
     2016.68720         6.47603         5.65358
     2016.68993         6.42005         5.33414
     2016.69267        -1.59493         5.25302
     2016.69541         4.07309         5.31792
     2016.69815        11.65111         5.29764
     2016.70089         1.69713         5.24896
     2016.70362         7.98916         5.46902
     2016.70636         2.73918         5.54507
     2016.70910         5.01020         5.51769
     2016.71184         8.76322         5.31285
     2016.71457         9.59424         5.31183
     2016.71731        11.91826         5.33617
     2016.72005         8.95328         5.24592
     2016.72279         9.67830         5.22361
     2016.72553         5.26432         5.36558
     2016.72826         9.09734         5.39397
     2016.73100         8.10636         5.28749
     2016.73374         4.00939         5.32704
     2016.73648         4.10641         5.22563
     2016.73921         6.63143         5.37775
     2016.74195         3.92445         5.27025
     2016.74469         3.12047         5.27025
     2016.74743         5.37449         5.33921
     2016.75017         9.56752         5.25606
     2016.75290         5.78653         5.25200
     2016.75564        10.63155         5.23070
     2016.75838         9.45557         5.23476
     2016.76112         6.69759         5.24287
     2016.76386         3.31462         5.27228
     2016.76659         6.89664         5.31183
     2016.76933         4.11466         5.30879
     2016.77207         2.35168         5.37673
     2016.77481        -0.10130         5.24997
     2016.77754         6.01572         5.23882
     2016.78028         5.32074         5.27330
     2016.78302         1.71276         5.28141
     2016.78576        -2.24322         5.31386
     2016.78850         5.74680         5.30169
     2016.79123         1.28082         5.27735
     2016.79397         4.67285         5.26316
     2016.79671        -1.64513         5.26316
     2016.79945        -3.98011         5.24389
     2016.80219        -4.77309         5.39600
     2016.80492        -2.09107         5.27735
     2016.80766         5.48695         5.27330
     2016.81040        -1.46103         5.27431
     2016.81314         3.32699         5.27025
     2016.81587         2.67801         5.37978
     2017.40281       -20.17223        11.45117
     2017.40451       -11.81149         5.46598
     2017.40725        -8.20647         5.32400
     2017.40999        -4.47545         5.37572
     2017.41273        -3.00743         5.42643
     2017.41546       -10.89941         5.32704
     2017.41820        -8.64339         5.38890
     2017.42094        -5.52937         5.32502
     2017.42368        -3.97534         5.33516
     2017.42642        -1.71032         5.33718
     2017.42915        -4.85330         5.29966
     2017.43189        -2.61928         5.35747
     2017.43463        -5.16926         5.35544
     2017.43737        -5.88424         5.32603
     2017.44010        -1.17022         5.34226
     2017.44284         2.39680         5.34733
     2017.44558        -1.82918         5.29662
     2017.44832        -1.35716         5.32197
     2017.45106        -1.75514         5.33009
     2017.45379        -2.40911         5.50755
     2017.45653        -1.92409         5.55623
     2017.45927        -2.97607         5.35138
     2017.46201        -6.58005         5.33516
     2017.46475        -5.93203         5.38992
     2017.46748         3.22599         5.52783
     2017.47022        -3.39199         5.47409
     2017.47296        -0.79497         5.39600
     2017.47570        -7.31495         5.30169
     2017.47843        -5.40993         5.29966
     2017.48117        -6.80591         5.31995
     2017.48391        -4.99188         5.45888
     2017.48665         4.30214         5.42845
     2017.48939         3.47116         5.31690
     2017.49212         0.16018         5.34327
     2017.49486        -2.11880         5.36152
     2017.49760        -2.78478         5.41730
     2017.50034         2.52924         5.46090
     2017.50308        -1.01974         5.36051
     2017.50581        -0.02072         5.36152
     2017.50855        -2.78770         5.38485
     2017.51129         0.81332         5.53696
     2017.51403        -0.46565         5.47206
     2017.51676        -2.50963         5.41121
     2017.51950         3.85139         5.44367
     2017.52224        -9.07559         5.44164
     2017.52498        -0.70357         5.30473
     2017.52772         2.66945         5.54609
     2017.53045        -2.69653         5.41831
     2017.53319        -1.68751         5.36862
     2017.53593        -2.83449         5.39702
     2017.53867         0.78853         5.41527
     2017.54141         5.86155         5.31792
     2017.54414         0.19758         5.37166
     2017.54688         1.86260         5.34327
     2017.54962        -7.93138         5.37673
     2017.55236        -3.23436         5.34428
     2017.55509        -2.02234         5.33211
     2017.55783         2.98368         5.41324
     2017.56057         0.11870         5.40209
     2017.56331        -1.92628         5.37572
     2017.56605        -1.45226         5.32603
     2017.56878        -0.17024         5.36761
     2017.57152         5.16078         5.35848
     2017.57426        -2.81919         5.39499
     2017.57700        -4.02117         5.37065
     2017.57974        -5.15815         5.33313
     2017.58247         1.80787         5.35037
     2017.58521        -1.65911         5.33211
     2017.58795        -5.92209         5.42643
     2017.59069        -5.81807         5.43961
     2017.59342         1.28995         5.35950
     2017.59616        -3.26703         5.35037
     2017.59890        -0.08101         5.37673
     2017.60164        -2.28499         5.35747
     2017.60438        -1.78296         5.39397
     2017.60711        -4.25794         5.40817
     2017.60985        -2.47392         5.49031
     2017.61259        -0.90290         5.46800
     2017.61533        -0.06288         5.79049
     2017.61807        -2.32586         5.45381
     2017.62080         0.69216         5.43758
     2017.62354         2.29718         5.50147
     2017.62628        -1.91480         5.52783
     2017.62902         1.77122         5.77730
     2017.63175        -0.76476         5.42237
     2017.63449        -1.40673         5.38789
     2017.63723         1.91129         5.34023
     2017.63997         0.88431         5.41426
     2017.64271         2.20033         5.46293
     2017.64544         1.43635         5.40817
     2017.64818         4.36637         5.43961
     2017.65092         0.85539         5.31285
     2017.65366         1.26041         5.36355
     2017.65639        -1.98857         5.43352
     2017.65913         1.25045         5.34935
     2017.66187         4.28247         5.42744
     2017.66461         4.96050         5.53189
     2017.66735         5.70052         5.43555
     2017.67008         5.91654         5.36152
     2017.67282         6.95656         5.57347
     2017.67556         3.27358         5.32603
     2017.67830         0.59560         5.38890
     2017.68104         2.58562         5.34226
     2017.68377         4.17964         5.50350
     2017.68651         9.25766         5.70125
     2017.68925         5.83468         5.44265
     2017.69199        -0.15130         5.40919
     2017.69472         5.02273         5.35950
     2017.69746         5.68075         5.42845
     2017.70020        13.88277         5.58564
     2017.70294        12.33879         5.59071
     2017.70568         4.65381         5.45178
     2017.70841         7.18283         5.33313
     2017.71115         4.97185         5.40107
     2017.71389         2.90887         5.37775
     2017.71663         5.24889         5.33921
     2017.71937         5.26591         5.33211
     2017.72210         3.51193         5.32197
     2017.72484         3.64896         5.34935
     2017.72758         7.88298         5.34733
     2017.73032         5.76100         5.34733
     2017.73305         7.35002         5.34124
     2017.73579        -1.56696         5.32502
     2017.73853         1.80906         5.37166
     2017.74127         4.10408         5.36152
     2017.74401         3.43510         5.36355
     2017.74674         5.51712         5.43352
     2017.74948         6.88914         5.35950
     2017.75222         2.83216         5.35138
     2017.75496         2.17019         5.35747
     2017.75770        -1.29779         5.43859
     2017.76043        -0.43677         5.33820
     2017.76317         4.53225         5.34124
     2017.76591        14.79527         5.38586
     2017.76865         3.22729         5.35747
     2017.77138         4.21731         5.40006
     2017.77412         2.09733         5.35645
     2017.77686         0.50635         5.36862
     2017.77960        -5.18063         5.34124
     2017.78234        -0.93761         5.35442
     2017.78507         1.35042         5.34631
     2017.78781        -1.78456         5.31893
     2017.79055         4.20646         5.30575
     2017.79329        11.24748         5.41426
     2017.79603         6.69350         5.32704
     2017.79876         5.74852         5.46192
     2017.80150         4.49354         5.47307
     2017.80424         3.01656         5.32096
     2017.80698       -14.74142         6.06733
     2017.80971         0.83860         5.38282
     2017.81245        -4.35838         5.35341
     2017.81519         3.22665         5.52074
     2017.81793        -3.38633         5.31893
     2017.82067        -3.11731         5.47206
     2017.82340         1.22871         5.32096
     2017.82614         0.50473         5.31183
     2017.82888         2.70675         5.33211
     2017.83162        10.72577         5.38890
     2017.83436         4.19679         5.31792
     2017.83709         1.29581         5.43758
     2017.83983         1.03583         5.34935
     2017.84257         2.89885         5.29865
     2017.84531         6.66588         5.28749
     2017.84804         1.86890         5.29865
     2017.85078         8.64392         5.30980
     2017.85352        11.61094         5.32299
     2017.85626         9.12496         5.41426
     2017.86844         6.59275        19.76472
     2017.86995         4.84606         5.37166
     2017.87200         4.42757         7.78116
     2017.87649        10.62145        11.47551
     2017.87816        17.96913        11.05770
     2017.88090         5.27215         6.40401
     2017.88364         5.00517         5.32806
     2017.88787        11.33448        17.69800
     2017.89835        11.54752        10.81634
     2017.89946         0.16197         7.47287
     2017.90386         8.37963        11.44407
     2017.90554         8.70834         9.38647
     2017.90719         7.52896        12.15394
     2017.91209        -6.67026        12.63664
     2017.91300        -7.69026         8.23851
     2017.91775         3.63418        21.05567
     2017.91847        -7.23122         8.28009
     2017.92310        13.17795        13.67711
     2017.92470        -7.20452         9.28709
     2017.92744        -9.83650         5.32096
     2017.93018       -16.13048         5.36355
     2017.93292       -13.57246         5.37166
     2017.93566        -5.66543         5.40006
     2017.93839         0.78359         5.39195
     2017.94113         0.26161         5.34631
     2017.94387         5.17563         5.31082
     2017.94661         3.05265         5.36254
     2017.94935         3.86467         5.37572
     2017.95208         3.60969         5.51364
     2017.95482        -0.42029         5.41223
     2017.95756         4.52473         5.34530
     2017.96030         5.62875         5.34631
     2017.96303         6.52477         5.35950
     2017.96577        -0.97720         5.45989
     2017.96967         7.54037        14.04218
     2017.97125        -4.12916         9.23841
     2017.97348         2.13175         6.91613
     2017.97767        -5.08803         9.38241
     2017.97946        -2.68510         6.18193
     2017.98088         0.23801       128.42405
     2017.99983        -7.03530        15.60896
     2018.00136       -14.96793         5.30879
     2018.00410       -16.23791         5.27228
     2018.00684       -13.89689         5.34226
     2018.00958       -17.69687         5.30778
     2018.01232       -20.47185         5.33414
     2018.01505       -17.33183        10.52530
     2018.01674       -12.84012        11.56170
     2018.02263       -21.12216         7.48200
     2018.02701        -1.72454        10.37217
     2018.02851         2.69876         5.93854
     2018.03796       -16.71046        10.28699
     2018.03969       -14.78564         5.28851
     2018.04243       -12.84762         5.81280
     2018.04467        -6.93071         6.82486
     2018.04891        -6.95737        10.23831
     2018.05065        -4.02656         5.29459
     2018.05338        -3.85254         5.30169
     2018.05482       -14.00338        38.68876
     2018.06000        -7.86000        12.66403
     2018.06089       -10.05102         7.96471
     2018.07912        -3.38694        11.69759
     2018.08076         4.00767         6.73968
     2018.08350         1.37669         8.10567
     2018.08624       -12.77928         7.35524
     2018.08898       -14.53526         8.79931
     2018.09171         2.19076         8.04786
     2018.09445        -1.81422         5.46598
     2018.09719        -1.59820         7.05912
     2018.09993        -5.30318         6.41111
     2018.10266       -14.91516         5.45381
     2018.10540       -11.79714         8.13305
     2018.10814        -5.90312         6.35128
     2018.11088        -7.45010         5.78440
     2018.11362        -4.73208         5.45178
     2018.11635        -7.99405         5.43961
     2018.11909       -11.01603         5.54406
     2018.12183        -0.67001         5.51161
     2018.12457        -1.44499         5.39499
     2018.12731        -4.92797         5.43454
     2018.13004         6.99005         5.43758
     2018.13278         4.00307         5.44874
     2018.13552         2.62409         6.12108
     2018.13826        -5.19289         5.36254
     2018.14099        -6.53987         6.97901
     2018.14373        -5.97785         7.11895
     2018.14647        -4.71484         5.73268
     2018.15560         0.72726         9.13903
     2018.15742         4.47026         5.47307
     2018.16016         5.21728         9.13294
     2018.16290       -23.84570        12.00689
     2018.16564       -12.66568         7.23253
