# ================= DQRFIT RESULTS ================
# INPUT FILE: series/RKD1.rad
# OUTPUT: LDETRENDED
# FILTER FUNCTION: f(t)
# f(t)=+line(t)+annual(t)+jumps(t)
# line(t)=+P 1+P 2*t
# annual(t)=+P 3*sin(2*pi*t+P 4)
# jumps(t)=+P 5*heav(t-2019.2218  )
# heav(t)=(t<0?0:1)
# TOTAL OBSERVATIONS MTOT= 3837
# INITIAL TIME INTERVAL= 2022.7488 - 2011.8220 = 10.9268
# TOTAL OBSERVATIONS AFTER PREFILTER M= 3821
# TIME-SPAN= 2022.7488 - 2011.8220 = 10.9268
# OBSERVATIONS: USED M=  3821 REJECTED MTOT-M=    16 %USED=   99.5830
# N=  5 PARAMETERS
# MAXSIG= 175.00000
# MAXRES=  25.59047
# SCALE FACTOR FOR LENGTHS: SCL=  10.00000
# SCALE FACTOR FOR SIGMAS: SCLSIG=   1.00000
# CHI^2=   5336.170 DOF=  3816 CHI^2/DOF=   1.39837
# RMS=      6.601 SDEV=      6.602 MEAN=   -0.00467
#  P #       PARAMETER +-    SIGMA %error PARAMETER NAME
# P 1 =       110.93327 +-  112.584 101.49 YZERO                              
# P 2 =        -0.06134 +-    0.056  91.05 SLOPE                              
# P 3 =         6.04670 +-    0.147   2.44 ANNUAL AMPLITUDE                   
# P 4 =         2.71553 +-    0.031   1.15 ANNUAL PHASE                       
# P 5 =        15.47350 +-    0.373   2.41 OFFSET 2019.2218                   
#       T            LDETRENDED       SIG_OBS
     2011.82203         6.14216         6.48024
     2011.82477         4.87333         6.71202
     2011.82752         8.78350         6.36908
     2011.83033         3.94067         6.70137
     2011.83299         0.72583         6.63870
     2011.83572        -1.45700         6.57603
     2011.83846         5.17117         6.59022
     2011.84120         7.43334         6.40811
     2011.84394         9.92750         6.65407
     2011.84668         8.36567         6.54883
     2011.84941         0.80884         6.55829
     2011.85215        -3.00999         6.59968
     2011.85489        -3.02282         6.46132
     2011.85763         3.09034         6.93197
     2011.86036         8.57651         6.61387
     2011.86310        10.12868         6.69428
     2011.86585         8.57285         6.57957
     2011.86858        11.78602         6.37027
     2011.87132         5.52718         6.54883
     2011.87405         1.08035         6.67299
     2011.87679         1.12052         6.68955
     2011.87953        -0.41531         6.82672
     2011.88227         1.88986         6.37973
     2011.88501         4.98802         6.37263
     2011.88774        -2.98881         6.36554
     2011.89048        -1.34564         6.43294
     2011.89322        -7.93847         6.61623
     2011.89596         3.60570         6.37381
     2011.89869         1.09586         6.41520
     2011.90143        -4.43297         6.39392
     2011.90417         3.13720         6.47078
     2011.90691        -1.97663         6.67772
     2011.90965         3.37054         6.45541
     2011.91238         5.96770         6.61387
     2011.91512        -1.90113         6.51453
     2011.91786        -3.24496         6.72502
     2011.92060        -2.56579         6.49088
     2011.92334        -6.34263         6.58430
     2011.92607        -8.32546         6.71083
     2011.92881        -3.54429         6.55119
     2011.93155        -0.19812         6.56420
     2011.93429        -2.08895         7.18503
     2011.93702        -2.02579         6.62451
     2011.93976        -0.13162         6.54173
     2011.94250         2.14755         6.49325
     2011.94524         2.58372         6.51690
     2011.94797         4.55389         6.58549
     2011.95072         4.18805         6.89294
     2011.95345       -10.61378         6.85274
     2011.95619        -4.71961         6.80662
     2011.95897         3.00856         6.50271
     2011.96165         2.69873         6.40929
     2011.99295         0.27265        15.22502
     2011.99452         1.71674         6.28749
     2011.99726         0.91891         6.31232
     2012.00273         1.50725         6.41639
     2012.00547         0.45741         6.32178
     2012.00821         2.48358         6.35371
     2012.01095         2.00775         6.35726
     2012.01368         4.28292         6.27921
     2012.01642         4.83909         6.38327
     2012.01916        -8.99375         6.27685
     2012.02190         0.94642         6.31705
     2012.02464         3.91459         6.27803
     2012.02737        -1.58024         6.26266
     2012.03011         1.46092         6.28867
     2012.03285        -3.66291         6.30405
     2012.03559         0.46626         6.29813
     2012.03833        -0.95057         6.28512
     2012.04106         4.28260         6.25320
     2012.04380         3.86176         6.28394
     2012.04654         4.07793         6.47315
     2012.04928        10.26110         6.26739
     2012.05201         4.88827         6.37736
     2012.05475        -3.48256         6.35608
     2012.05749         5.49060         6.28749
     2012.06023        -0.35123         6.33006
     2012.06297        -0.20106         6.25793
     2012.06570         8.52011         6.27921
     2012.06844        12.18328         6.37381
     2012.07118       -10.91656         6.31114
     2012.07392        -6.54939         6.33243
     2012.07666         0.51878         6.35844
     2012.07939         3.59495         6.31114
     2012.08213         4.66412         6.32060
     2012.08487         4.37428         6.39510
     2012.08761        -3.96455         6.30996
     2012.09034        -6.21438         6.34307
     2012.09308        -1.96021         6.34898
     2012.09582        -2.55104         6.36317
     2012.09856        -3.47388         6.33597
     2012.10130        -4.40571         6.40929
     2012.10403        -8.33154         6.28631
     2012.10682        -1.55737         6.49325
     2012.10951        -6.52520         6.37618
     2012.11225        -7.84704         6.36435
     2012.11498        -2.37887         6.33834
     2012.11772        -1.00570         6.41639
     2012.12046         7.53047         6.37854
     2012.12320         2.02864         6.52518
     2012.12594        -9.67820         6.39746
     2012.12867        -9.87603         6.36908
     2012.13141       -11.57886         6.42112
     2012.13415         0.05631         6.40811
     2012.13689         1.49447         6.42466
     2012.13963        -1.07836         6.53582
     2012.14236         4.17981         6.54173
     2012.14510         0.47298         6.84919
     2012.14784        -7.14485         6.26502
     2012.15058        -6.17369         6.31114
     2012.15332        -2.97952         6.29695
     2012.15605        -5.14935         6.63160
     2012.15879        -1.15218         6.49916
     2012.16153        -3.15401         6.29340
     2012.16427         2.96315         6.40338
     2012.16700        -3.35168         6.47196
     2012.16974        -2.53251         6.36199
     2012.17248         1.78466         6.36554
     2012.17522         1.11483         6.33006
     2012.17796        -0.69501         6.42585
     2012.18069        -8.15584         6.48142
     2012.18343        -8.11867         6.36672
     2012.18617        -5.43350         6.51572
     2012.18891         0.06367         6.37263
     2012.19164         1.14283         6.42703
     2012.19438         2.34400         6.41639
     2012.19712        -1.26283         6.37736
     2012.19986         2.37334         6.37973
     2012.20260        -7.54149         6.42939
     2012.20533         4.47067         6.42939
     2012.20807        -6.75916         6.27803
     2012.21081        -0.01999         6.33834
     2012.21355        -0.99182         6.28512
     2012.21629        -2.37865         6.27330
     2012.21902        -4.20749         6.32415
     2012.22176        -1.38432         6.25911
     2012.22450        -8.26115         6.29458
     2012.22724        -7.59698         6.34898
     2012.22998        -3.06681         6.24847
     2012.23271         3.15635         6.32415
     2012.23545        -4.13248         6.27921
     2012.23819        -3.00631         6.34307
     2012.24093        -3.23914         6.36081
     2012.24366        -4.24197         6.48379
     2012.24640        -2.56281         6.30759
     2012.24914        -3.61664         6.32178
     2012.25188        -5.65547         6.28749
     2012.25462        -8.18430         6.42348
     2012.25735        -5.48014         6.32415
     2012.26009        -6.77697         6.29458
     2012.26283        -6.06680         6.23428
     2012.26557        -9.73863         6.27566
     2012.26831       -10.61546         6.29932
     2012.27104        -6.58430         6.40456
     2012.27378        -5.74513         6.29695
     2012.27652        -2.15796         6.29222
     2012.27926        -0.53679         6.54410
     2012.28199        -6.14662         6.31232
     2012.28473        -2.13846         6.31351
     2012.28747        -2.08629         6.32060
     2012.29021        -4.84612         6.33479
     2012.29295        -9.16795         6.31824
     2012.29568        -8.06378         6.28867
     2012.29842       -11.19262         6.37973
     2012.30116        -9.09645         6.32415
     2012.30389       -11.41428         6.37500
     2012.30663       -15.56211         6.34307
     2012.30937        -3.91794         6.42112
     2012.31211        -2.96478         6.81963
     2012.31485        -0.04861         6.49680
     2012.31759        -1.76144         6.33479
     2012.32032       -13.18327         6.39037
     2012.32306        -7.05810         6.27685
     2012.32580       -10.34394         6.28631
     2012.32854        -5.17077         6.38682
     2012.33128        -5.89860         6.51099
     2012.33401        -8.34743         6.48497
     2012.33675        -3.17426         6.30641
     2012.33949        -9.41910         6.28394
     2012.34223       -21.98893         6.30286
     2012.34497       -16.69976         6.28276
     2012.34770       -11.29359         6.61387
     2012.35044        -6.67342         6.35135
     2012.35318        -5.58626         6.30996
     2012.35592        -5.01909         6.30641
     2012.35865        -9.51492         6.24610
     2012.36139       -10.21875         6.29695
     2012.36413       -13.25558         7.08215
     2012.36687       -11.34542         6.26857
     2012.36961        -7.25725         6.27921
     2012.37234        -1.58108         6.31824
     2012.37508        -6.66591         6.31587
     2012.37782        -5.08575         6.46960
     2012.38056        -7.90458         6.39155
     2012.38330        -4.34141         6.45186
     2012.38603        -8.88124         6.45423
     2012.38877        -2.63507         6.59968
     2012.39151        -3.10391         6.49088
     2012.39425        -3.28874         6.37618
     2012.39698        -2.72657         6.48142
     2012.39972        -5.20240         6.30759
     2012.40246        -3.61723         6.52399
     2012.40520        -7.96407         6.34662
     2012.40794        -7.29490         6.39746
     2012.41067        -7.51273         6.32533
     2012.41341        -1.31856         6.46605
     2012.41615        -0.64539         6.35135
     2012.41889        -1.79723         6.59258
     2012.42162        -6.77606         6.39628
     2012.42436        -4.82389         6.30878
     2012.42710        -5.35472         6.26739
     2012.42984        -0.84755         6.23782
     2012.43258        -6.35939         6.35962
     2012.43531        -3.96622         6.32178
     2012.43805        -6.99105         6.31351
     2012.44079       -12.02688         6.37145
     2012.44353       -16.46171         6.30641
     2012.44626        -2.67655         6.34543
     2012.44900        -9.96138         6.31824
     2012.45175        -5.57021         6.36435
     2012.45448        -8.40104         6.39746
     2012.45722        -7.51087         6.35135
     2012.45995        -2.82471         6.44713
     2012.46269        -1.30154         6.29932
     2012.46543        -8.81337         6.38564
     2012.46817        -8.01420         6.34070
     2012.47091        -5.48804         6.33006
     2012.47364         0.63713         6.34780
     2012.47638       -13.41270         7.44518
     2012.47912        -5.46153         6.45777
     2012.48186        -7.96436         6.51926
     2012.48459        -0.77820         6.33124
     2012.48733        -9.99203         6.32888
     2012.49007        -3.91486         6.30759
     2012.49281        -5.23169         6.33834
     2012.49555        -4.05552         6.39037
     2012.49833         1.13165         6.49088
     2012.50102        -2.47419         6.42939
     2012.50376         0.89498         6.37381
     2012.50650        -6.71785         6.26975
     2012.50924        -3.00568         6.43412
     2012.51197        -2.81952         6.79125
     2012.51471        -5.40535         6.30050
     2012.51745        -7.48218         6.33834
     2012.52019       -10.76101         9.74874
     2012.52292        -1.97284         6.53227
     2012.52566        -1.53268         6.39392
     2012.52840        -2.66151         6.30641
     2012.53114        -2.71734         6.38091
     2012.53388        -2.15917         6.44477
     2012.53661         1.29900         6.58549
     2012.53935        -2.44584         6.47788
     2012.54209         5.25433         6.35726
     2012.54483         5.02450         6.48734
     2012.54757        -1.15633         6.39155
     2012.55030        -2.45416         6.60086
     2012.55304        -1.84000         6.33361
     2012.55578         0.22617         6.34780
     2012.55852        -2.05766         6.43058
     2012.56125        -1.47549         6.30641
     2012.56399         0.26668         6.31705
     2012.56673         3.78184         6.37854
     2012.56947        -5.74599         6.67299
     2012.57221        -0.17182         6.54173
     2012.57494         1.03435         6.45659
     2012.57768         1.41252         6.32888
     2012.58042         6.41468         7.15428
     2012.58316        -4.68615         6.33716
     2012.58590         3.33502         6.53346
     2012.58858         9.36418         6.44831
     2012.59138         2.78936         6.30286
     2012.59411         1.69152         6.33006
     2012.59685         8.86669         6.37973
     2012.59958         3.37086         6.48261
     2012.60232         4.52103         6.68837
     2012.60506         5.58219         6.24610
     2012.60780         0.85536         6.29222
     2012.61054         3.87453         6.30168
     2012.61328         2.96370         6.31351
     2012.61601         9.30287         6.36435
     2012.61875        10.13803         6.41520
     2012.62149         8.39320         6.32770
     2012.62423         2.73737         6.31469
     2012.62696         2.11654         6.33361
     2012.62970        -0.08429         6.34425
     2012.63244        -1.13813         6.41402
     2012.63518        -1.78096         6.31705
     2012.63791         4.73721         6.34307
     2012.64065        10.50838         6.40219
     2012.64339        11.66855         6.33006
     2012.64613         7.80771         6.30759
     2012.64887         7.18188         6.31942
     2012.65161        10.93905         6.37500
     2012.65434         6.21422         6.36081
     2012.65708         3.70239         6.57484
     2012.65982         6.75255         6.58430
     2012.66256         4.56472         6.34662
     2012.66511         7.48888         6.65880
     2012.66813        11.81406         6.57603
     2012.67077         9.18523         6.38919
     2012.67351         6.33639         6.36554
     2012.67624         6.53556         6.39037
     2012.67898        11.44773         6.29932
     2012.68172        12.21990         6.35608
     2012.68446         6.89007         6.35726
     2012.68720         8.42823         6.30168
     2012.68993        11.69540         6.59731
     2012.69267         8.02157         6.64934
     2012.69541         9.49074         6.83145
     2012.69815         6.18790         6.52636
     2012.70089         6.66007         6.48734
     2012.70362         0.29624         6.36554
     2012.70636         7.59541         6.33834
     2012.70910        10.06458         6.34543
     2012.71184        12.51074         6.35608
     2012.71457         9.18791         6.31587
     2012.71731         8.09808         8.23274
     2012.72005        10.82125         6.28039
     2012.72279        10.25042         7.13891
     2012.72553        10.93958         6.29458
     2012.72826        11.92675         6.26502
     2012.73100        10.78692         6.48379
     2012.73374         6.91209         6.48142
     2012.73648         8.99626         6.36081
     2012.73921         9.37342         7.46883
     2012.74195         6.30059         6.74513
     2012.74469         8.45176         7.47948
     2012.74743         9.58693         6.72148
     2012.75017         4.40510         7.02893
     2012.75290         8.03226         7.37423
     2012.75564         7.47743         6.30050
     2012.75838         4.56460         6.29813
     2012.76112         9.99877         6.29458
     2012.76386         8.19794         6.30759
     2012.76659         7.15310         6.41875
     2012.76933         8.22027         6.44358
     2012.77207        15.65244         6.43531
     2012.77481         3.88061         6.34662
     2012.77754         4.11178         6.38446
     2012.78028        13.22894         6.44713
     2012.78302         9.62511         6.47078
     2012.78576        10.13228         6.39628
     2012.78850        19.67045         6.41639
     2012.79123        31.46262         6.61623
     2012.79397         8.11278         6.41875
     2012.79671         7.75195         6.41165
     2012.79945        20.58412         6.46369
     2012.80219        11.73429         6.44004
     2012.80493         9.24846         6.41757
     2012.80766         3.85062         6.85274
     2012.81040         4.61879         6.41639
     2012.81314         6.66096         6.42939
     2012.81587         3.75213         6.45659
     2012.81861         2.84429         7.09042
     2012.82135         3.16846         6.37973
     2012.82409         3.71663         6.41875
     2012.82683         7.24980         6.44477
     2012.82956         3.35797         6.41284
     2012.83230         4.04613         6.37973
     2012.83504         3.89130         6.43176
     2012.83778        -1.42353         6.41639
     2012.84052         8.76264         6.46842
     2012.84326         7.62081         6.43176
     2012.84599         5.12897         6.62569
     2012.84873         5.58214         6.61978
     2012.85147         6.30631         6.56184
     2012.85420         4.60448         6.42821
     2012.85694         3.66465         6.41165
     2012.85968         3.58481         6.48497
     2012.86242         1.00598         6.42348
     2012.86516         2.19415         6.45068
     2012.86789        -2.27368         6.64461
     2012.87063        -0.76351         6.52991
     2012.87337        -0.21835         6.43649
     2012.87611         4.88082         6.37854
     2012.87885         8.05999         6.39983
     2012.88158        10.98716         6.38327
     2012.88432         7.59833         6.38800
     2012.88706         5.17249         6.83736
     2012.88980         5.13966         6.45659
     2012.89253         0.11383         6.34189
     2012.89527         2.58800         6.36317
     2012.89801         0.66517         6.38682
     2012.90075         3.59033         6.31469
     2012.90349        -1.33550         6.33361
     2012.90622         1.32967         6.36199
     2012.90896         3.90684         6.37973
     2012.91170         4.76001         8.92334
     2012.91444         7.08817         8.24575
     2012.91718         6.79934         8.28478
