# ================= DQRFIT RESULTS ================
# INPUT FILE: series/ROKY.rad
# OUTPUT: LDETRENDED
# FILTER FUNCTION: f(t)
# f(t)=+line(t)+annual(t)
# line(t)=+P 1+P 2*t
# annual(t)=+P 3*sin(2*pi*t+P 4)
# heav(t)=(t<0?0:1)
# TOTAL OBSERVATIONS MTOT=  945
# INITIAL TIME INTERVAL= 2022.7488 - 2020.0503 =  2.6985
# TOTAL OBSERVATIONS AFTER PREFILTER M=  922
# TIME-SPAN= 2022.7488 - 2020.0503 =  2.6985
# OBSERVATIONS: USED M=   922 REJECTED MTOT-M=    23 %USED=   97.5661
# N=  4 PARAMETERS
# MAXSIG= 175.00000
# MAXRES=  60.22222
# SCALE FACTOR FOR LENGTHS: SCL=  10.00000
# SCALE FACTOR FOR SIGMAS: SCLSIG=   1.00000
# CHI^2=    820.196 DOF=   918 CHI^2/DOF=   0.89346
# RMS=      6.523 SDEV=      6.526 MEAN=    0.06333
#  P #       PARAMETER +-    SIGMA %error PARAMETER NAME
# P 1 =      6014.22961 +-  462.632   7.69 YZERO                              
# P 2 =        -2.99054 +-    0.229   7.65 SLOPE                              
# P 3 =         5.03184 +-    0.271   5.38 ANNUAL AMPLITUDE                   
# P 4 =         3.08932 +-    0.076   2.46 ANNUAL PHASE                       
#       T            LDETRENDED       SIG_OBS
     2020.05030        -4.25579         9.73303
     2020.05201        -1.98067         5.14111
     2020.05475        -3.62248         5.10330
     2020.05749        -6.87829         5.14678
     2020.06023        -4.73211         5.20255
     2020.06297        -3.07392         5.15528
     2020.06570        -0.94673         5.14016
     2020.06844        -6.11554         5.25359
     2020.07118        -1.73835         5.12409
     2020.07392        -9.08817         5.25359
     2020.07666       -14.26498         5.09952
     2020.07939        -7.50479         5.08250
     2020.08213       -11.33160         5.09952
     2020.08487       -10.87642         5.23563
     2020.08761        -1.64123         5.08534
     2020.09034        -3.33504         5.05225
     2020.09308        -2.21385         5.06832
     2020.09582        -6.04667         5.04280
     2020.09856       -11.25448         5.16001
     2020.10130       -14.86729         5.12126
     2020.10403       -10.31510         5.21105
     2020.10677       -13.88892         5.12787
     2020.10951       -10.29973         5.08439
     2020.11225        -7.82954         5.06549
     2020.11498       -10.81935         5.08628
     2020.11772       -10.41316         5.30936
     2020.12046       -11.84098         5.26304
     2020.12320       -10.22379         5.11086
     2020.12594        -8.73960         5.14489
     2020.12867       -11.27441         5.05793
     2020.13141        -9.75823         5.16474
     2020.13415        -8.55004         5.11464
     2020.13689        -4.58385         5.13165
     2020.13963        -1.53066         5.15245
     2020.14236        -4.04048         5.08250
     2020.14510         1.26671         5.20444
     2020.14784        -7.47210         5.13638
     2020.15058        -9.81491         5.13922
     2020.15331       -14.69473         5.04942
     2020.15605        -7.59554         5.07778
     2020.15879        -4.08035         5.07305
     2020.16153        -6.59116         5.16852
     2020.16427        -3.80697         5.11559
     2020.16700        -2.16079         5.13260
     2020.16974        -2.62660         5.10897
     2020.17248        -2.58741         5.42751
     2020.17522         0.49378         5.40199
     2020.17796       -10.11204         5.09857
     2020.18069        -6.20685         5.11748
     2020.18343        -7.58566         5.01539
     2020.18617        -4.66647         5.02012
     2020.18891        -7.14329         5.11086
     2020.19164        -7.77010         5.23657
     2020.19438        -6.35791         5.17419
     2020.20260        -7.08535         5.17041
     2020.20533        -3.70416         5.09574
     2020.20807         0.27603         5.17797
     2020.21081        -5.01478         5.20444
     2020.21355        -2.56760         5.61467
     2020.21629        -6.84241         5.37363
     2020.21901        -6.02526         5.23374
     2020.22055        24.01136       103.65677
     2020.23391        -9.33972        15.88081
     2020.23545        -3.51510         5.18175
     2020.23819        -5.60091         5.15528
     2020.24093        -5.31272         5.20066
     2020.24366         3.41647         5.27911
     2020.24640        -5.45135         5.24225
     2020.24914       -12.46316         5.14678
     2020.25188        -2.70197         5.17608
     2020.25462        -4.67678         5.17513
     2020.25735         0.95241         5.18931
     2020.26009         7.06859         5.10802
     2020.26283         0.37878         5.11559
     2020.26557        -4.66003         5.10424
     2020.26830        -3.24784         5.18553
     2020.27104        -1.73366         5.13449
     2020.27378         2.64753         5.13449
     2020.27652         3.83572         5.18742
     2020.27929        -0.97499         5.32543
     2020.28199        -2.17691         5.23752
     2020.28473        -4.03972         5.23090
     2020.28747         2.18047         5.16946
     2020.29021         2.14966         5.17041
     2020.29295        -6.01116         5.12031
     2020.29568        -0.06397         5.14583
     2020.29842        -2.75778         5.17230
     2020.30116        -0.35459         5.12976
     2020.30390         3.69860         5.10613
     2020.30663        -0.86722         5.23374
     2020.30937        -8.00903         5.31408
     2020.31211        -3.74284         5.37741
     2020.31485        -8.14965         5.35945
     2020.31759         0.98153         5.15339
     2020.32032         1.22472         5.36418
     2020.32306        -2.61411         5.17797
     2020.32580        -3.93290         5.08723
     2020.32854        -0.25372         5.20727
     2020.33128        -1.04753         5.26588
     2020.33401        -0.30434         5.22712
     2020.33675        -1.18015         5.30558
     2020.33949        -3.07097         5.18553
     2020.34223        -5.70878         5.28667
     2020.34496        -8.82859         5.47099
     2020.34770        -7.09240         5.09384
     2020.35044        -0.99021         5.26210
     2020.35318        -4.10903         5.20444
     2020.35592        -1.30884         5.21862
     2020.35865         1.93435         5.23185
     2020.36139        -5.18446         5.11086
     2020.36413         1.42572         5.21578
     2020.36687        -2.89909         5.16757
     2020.36961         0.33611         5.18175
     2020.37234        -1.94771         5.14205
     2020.37508         1.95447         5.15907
     2020.37782         3.47866         5.16474
     2020.38056        -2.45215         5.10802
     2020.38329         0.04704         5.14772
     2020.38603        -4.12478         5.14300
     2020.38877        -2.23959         5.20255
     2020.39151        -1.89240         5.08534
     2020.39425        -1.02521         5.09857
     2020.39698        -3.82702         5.22334
     2020.39972        -8.87984         5.13638
     2020.40246        -2.95965         5.11559
     2020.40520        -5.53046         5.17703
     2020.40794        -3.97927         5.12976
     2020.41067         3.64591         5.25075
     2020.41341         0.32310         5.23185
     2020.41615        -5.79571         5.10424
     2020.41889         1.68048         5.13733
     2020.42162        -2.86234         5.17892
     2020.42436        -2.39615         5.48801
     2020.42710        -2.46096         5.42751
     2020.42984        -5.11477         5.31125
     2020.43258        -0.22959         5.29140
     2020.43531        -3.87340         5.22051
     2020.43805        -2.12121         5.31219
     2020.44079        -6.68902         5.31597
     2020.44353         2.42217         5.35662
     2020.44626        -6.23665         5.18931
     2020.44900         2.16154         5.25831
     2020.45174        -0.27927         5.14394
     2020.45448         2.89992         5.24319
     2020.45722        -4.37290         5.15812
     2020.45995         4.15129         5.22429
     2020.46269        -4.06152         5.11369
     2020.46543         0.17667         5.11653
     2020.46817         3.96985         5.27722
     2020.47091         6.77204         5.19782
     2020.47364        -3.17377         5.13733
     2020.47638         0.61742         5.17892
     2020.47912         8.48360         5.22712
     2020.48086        -0.55819         9.77841
     2020.48485        -7.08327         6.12226
     2020.48733        -0.93883         5.31125
     2020.49007         2.92436         5.36796
     2020.49281         0.48654         5.28100
     2020.49555         7.05973         5.36891
     2020.49828         8.93692         5.16001
     2020.50102         1.37511         5.13071
     2020.50376         4.70629         5.17608
     2020.50650        -0.59852         5.17608
     2020.50924        -2.33233         5.15339
     2020.51197         0.11786         5.13354
     2020.51471         2.33304         5.12031
     2020.51745         4.05123         5.15434
     2020.52019         8.20342         5.35000
     2020.52292         7.54361         5.21672
     2020.52566         5.00380         5.30274
     2020.52840         6.54098         5.25170
     2020.53114         0.37217         5.24036
     2020.53388        -1.38264         5.23657
     2020.53661         0.23055         5.29896
     2020.53935         1.85873         5.40010
     2020.54209         2.61592         5.31597
     2020.54483         2.40311         5.21578
     2020.54757         3.50930         5.20727
     2020.55030        -5.54952         5.27155
     2020.55304         4.25567         5.36891
     2020.55578         3.61486         5.42468
     2020.55852         8.41205         5.24697
     2020.56125         4.58023         5.25075
     2020.56399         3.53442         5.28667
     2020.56673         4.21561         5.29234
     2020.56947         4.53180         5.39726
     2020.57221         6.99999         5.53149
     2020.57494         1.04917         5.34055
     2020.57768        12.62036         5.34622
     2020.58042        -1.61845         5.35095
     2020.58316        11.07774         5.35000
     2020.58590        -2.03008         5.32259
     2020.58863         6.76611         5.28762
     2020.59137         0.99930         5.29707
     2020.59411        12.59249         5.33393
     2020.59685        11.92267         5.61750
     2020.59958         4.54386         5.36134
     2020.60232         7.34905         5.27344
     2020.60506         4.12324         5.24414
     2020.60780        15.93142         5.48517
     2020.61054         4.69361         5.37458
     2020.61327        10.98480         5.26493
     2020.61601         6.06899         5.28478
     2020.61875         3.41718         5.24225
     2020.62149         0.63536         5.26588
     2020.62423        11.63355         5.35473
     2020.62696         4.41274         5.33960
     2020.62970         3.59693         5.29140
     2020.63244         3.85811         5.23563
     2020.63518         6.62430         5.42751
     2020.63791         5.86649         5.71581
     2020.64065        -5.62332         5.36040
     2020.64339         4.50186         5.28667
     2020.64613         8.02705         5.36040
     2020.64887         4.14924         5.32637
     2020.65160         6.97543         5.31125
     2020.65434         6.30261         5.35662
     2020.65708         7.68580         5.27816
     2020.65982         6.63999         5.35567
     2020.66256         8.37218         5.27060
     2020.66529         2.76737         5.24130
     2020.66803         5.54255         5.23279
     2020.67077        13.12874         5.26399
     2020.67351         9.34593         5.35567
     2020.67624         4.14212         5.25926
     2020.67898         6.71330         5.29991
     2020.68172         3.12349         5.33488
     2020.68446         6.76568         5.45965
     2020.68720         2.96387         5.33299
     2020.68993         3.98705         5.35378
     2020.69267         5.47124         5.35851
     2020.69541         4.19543         5.46627
     2020.69815         8.10162         5.39065
     2020.70089         4.03580         5.30936
     2020.70362         4.32699         5.46627
     2020.70636         9.26918         5.75551
     2020.70910         3.25137         5.68272
     2020.71184         8.25756         5.36607
     2020.71457         5.40574         5.45776
     2020.71731         3.01893         5.41144
     2020.72008        -1.40778         5.53432
     2020.72279         2.63331         5.34717
     2020.72553        10.55549         5.38781
     2020.72826         2.85268         5.64586
     2020.73100         6.84487         5.47383
     2020.73374         6.93506         5.42846
     2020.73648        -0.12176         5.38119
     2020.73921         1.42943         5.46532
     2020.74195         8.03762         5.28384
     2020.74469         2.00081         5.26966
     2020.74743         0.14499         5.27344
     2020.75017         3.09318         5.26966
     2020.75290         2.13737         5.27155
     2020.75564         3.24756         5.21672
     2020.75838         3.90075         5.28195
     2020.76112        -0.22007         5.27060
     2020.76386         4.18812         5.24792
     2020.76659         5.69231         5.17419
     2020.76933        12.98950         5.42184
     2020.77207         4.70868         5.26871
     2020.87611        10.18281         5.40104
     2020.87885        10.47700         5.56835
     2020.88158         4.84319         5.40294
     2020.88432         6.54538         5.24981
     2020.88706        -1.29244         5.55795
     2020.88980         0.94975         5.30085
     2020.89253         2.96594         5.30936
     2020.89527         6.67513         5.48706
     2020.89801         4.61332         5.43035
     2020.90075        10.51950         5.30369
     2020.90349         7.01269         5.25831
     2020.90622         5.45988         5.23752
     2020.90896         9.01807         5.61372
     2020.91170         6.17125         5.59293
     2020.91443         9.68143         5.56173
     2020.91718         6.66463         5.22996
     2020.91991         2.04182         5.26304
     2020.92265         0.76900         5.25737
     2020.92539         1.49619         5.24792
     2020.92813        -2.52462         5.25453
     2020.93086        -1.87543         5.29423
     2020.93360        -1.43525         5.33582
     2020.93634        -3.53406         5.29518
     2020.93908        -8.91787         5.38592
     2020.94182        -0.06068         5.24886
     2020.94455         0.66751         5.23847
     2020.94729        -4.13831         5.22429
     2020.95003        -3.47712         5.45114
     2020.95277       -11.44693         5.24508
     2020.95551        -6.31274         5.33110
     2020.95824         1.34044         5.69879
     2020.96104         1.76080         5.51920
     2020.96372        -4.69918         5.24603
     2020.96646        -4.86199         5.38687
     2020.96919         0.70819         5.45020
     2020.97193        -6.13262         5.19971
     2020.97467        -3.26843         5.39915
     2020.97741        -4.81224         5.30936
     2020.98015        -7.22306         5.46059
     2020.98288        -6.21587         5.34339
     2020.98562         5.43432         5.27060
     2020.98836        10.91851         5.29329
     2020.99110         1.06070         5.13733
     2020.99384        -2.46412         5.09857
     2020.99657        -6.98993         5.23279
     2020.99931        -1.39974         5.20160
     2021.00205        -3.42055         5.23847
     2021.00479         5.80963         5.20727
     2021.00752        -1.57818         5.14205
     2021.01026        -0.52699         5.20916
     2021.01300        -4.53280         5.19687
     2021.01574         3.10238         5.37552
     2021.01848        -2.56443         5.16285
     2021.02121        -2.88324         5.32070
     2021.02395        -3.36005         5.14583
     2021.02669        -8.47486         5.30369
     2021.02943        -3.85368         5.21294
     2021.03216         2.56651         5.18270
     2021.03490       -10.33530         7.22912
     2021.03764        -4.81211         5.70919
     2021.04038        -4.47793         5.26871
     2021.04312        -5.57074         5.17041
     2021.04585        -0.23255         5.29612
     2021.04859        -7.31536         5.14678
     2021.05133        -5.98318         5.21294
     2021.05407        -6.34199         5.56268
     2021.05681        -4.59379         5.40199
     2021.05954        -6.03061         5.21294
     2021.06228        -5.13443         5.18742
     2021.06502        -7.13824         5.16663
     2021.06776        -3.78805         5.23563
     2021.07049        -3.63386         5.19971
     2021.07323        -0.03267         5.27344
     2021.07597        -4.60949         5.19971
     2021.07871        -4.15330         5.15718
     2021.08145        -4.13611         5.19782
     2021.08418       -12.53592         5.15339
     2021.08692        -8.30674         5.17892
     2021.08966        -9.89355         5.19215
     2021.09240       -12.17636         5.20633
     2021.09514        -7.66317         5.31030
     2021.09787        -9.66399         5.35095
     2021.10061        -6.52680         5.15434
     2021.10335        -0.41261         5.23657
     2021.10609        -4.06942         5.14961
     2021.10882        -3.57924         5.16757
     2021.11156        -7.59905         5.20538
     2021.11430        -8.26386         5.19593
     2021.11704         4.12233         5.20444
     2021.11978       -24.00748         5.20444
     2021.12251         2.79970         5.16757
     2021.12524       -10.04615         6.78392
     2021.12799        34.84608       124.14557
     2021.13347         1.79447        10.62722
     2021.13620        -7.37437         6.32642
     2021.13894       -11.53917         7.69323
     2021.14060        -7.54722        22.87173
     2021.14442        -8.89480         6.28956
     2021.14989        -4.60942         6.47388
     2021.15811        -8.26686         6.92097
     2021.16084        -2.45567         8.27833
     2021.16358        -1.33748         7.70457
     2021.16632         0.63571         6.58542
     2021.16877         2.67004         8.25564
     2021.17177       -11.59900         7.51647
     2021.17453       -15.42573         7.05709
     2021.17728        -1.28553         7.41438
     2021.18001        -8.96534         6.76596
     2021.18275        -6.32617         7.32837
     2021.18548        -4.26200         7.12231
     2021.18822        -8.64081         7.20643
     2021.19096         1.43439         5.71770
     2021.19370        -4.89942         7.21967
     2021.19644        -6.87122         7.05331
     2021.19917        -2.84004         7.10718
     2021.20192        -3.23784         8.54583
     2021.20465        -6.56467         6.62701
     2021.20739        -1.88848         8.76512
     2021.21013         2.96171         7.94277
     2021.21286        -3.28410         7.00605
     2021.21560        -6.35092         6.57975
     2021.21834         3.24327         6.58164
     2021.22108       -11.79753         6.66387
     2021.22382       -18.98534         6.94744
     2021.22593         8.20597         8.88611
     2021.22930        -3.08196         6.30847
     2021.23203         6.86521         6.52587
     2021.23477       -12.95760         5.95873
     2021.23751        -2.07740         7.34160
     2021.24024        -0.64323         6.62323
     2021.24298         3.35596        31.37502
     2021.24572        -7.97785         6.97391
