# ================= DQRFIT RESULTS ================
# INPUT FILE: series/ROSE.rad
# OUTPUT: LDETRENDED
# FILTER FUNCTION: f(t)
# f(t)=+line(t)+annual(t)
# line(t)=+P 1+P 2*t
# annual(t)=+P 3*sin(2*pi*t+P 4)
# heav(t)=(t<0?0:1)
# TOTAL OBSERVATIONS MTOT=  620
# INITIAL TIME INTERVAL= 2018.3542 - 2006.5134 = 11.8408
# TOTAL OBSERVATIONS AFTER PREFILTER M=  619
# TIME-SPAN= 2018.3542 - 2006.5134 = 11.8408
# OBSERVATIONS: USED M=   619 REJECTED MTOT-M=     1 %USED=   99.8387
# N=  4 PARAMETERS
# MAXSIG= 175.00000
# MAXRES=  26.63768
# SCALE FACTOR FOR LENGTHS: SCL=  10.00000
# SCALE FACTOR FOR SIGMAS: SCLSIG=   1.00000
# CHI^2=    826.715 DOF=   615 CHI^2/DOF=   1.34425
# RMS=      6.717 SDEV=      6.723 MEAN=   -0.02655
#  P #       PARAMETER +-    SIGMA %error PARAMETER NAME
# P 1 =       539.48212 +-  136.190  25.24 YZERO                              
# P 2 =        -0.26627 +-    0.068  25.40 SLOPE                              
# P 3 =         4.53923 +-    0.401   8.83 ANNUAL AMPLITUDE                   
# P 4 =        -2.95674 +-    0.122   4.13 ANNUAL PHASE                       
#       T            LDETRENDED       SIG_OBS
     2006.51335        -1.99036         7.14318
     2006.51609         0.87937         7.33217
     2006.51883        -4.86190         7.11767
     2006.52157        -9.39618         7.18376
     2006.52430        -5.47245         7.10028
     2006.52704         4.50928         7.16057
     2006.52978         4.12701         7.10492
     2006.53252        -9.04726         7.13275
     2006.53525        -1.61753         7.14086
     2006.53799         0.67420         7.05622
     2006.54073         2.06793         7.32637
     2006.54347         4.68866         6.99593
     2006.54621        -2.40861         6.93796
     2006.54894        -4.47589         6.81738
     2006.55168        -1.68316         6.80811
     2006.55442        -5.13743         7.22086
     2006.55716        -4.56070         7.04579
     2006.55990         2.48603         6.98318
     2006.56235        -3.69132         7.59419
     2007.05271        -2.66275         7.02956
     2007.05545        -0.75702         6.72463
     2007.05818        -5.65529         6.61680
     2007.06092        -1.29656         6.63072
     2007.06366        -3.92283         6.64811
     2007.06640        -1.95710         6.76869
     2007.06914        -2.71837         6.57622
     2007.07187         7.81736         6.57159
     2007.07461         3.81109         6.63999
     2007.07735        -1.18119         6.70492
     2007.08009         4.99654         6.78144
     2007.08282         4.46927         6.71420
     2007.08556         5.23600         6.78724
     2007.08830        -1.69427         6.84173
     2007.09104         1.16446         6.72347
     2007.09378        -0.78381         6.63420
     2007.09651        -4.28608         6.63072
     2007.09925         0.25465         6.59825
     2007.10199         0.20038         6.57507
     2007.10473        -2.34289         6.79767
     2007.10747        -1.70017         6.85101
     2007.11020        -4.57744         6.54376
     2007.11294         2.36829         6.52173
     2007.11568         0.26802         6.60637
     2007.11842         4.64275         6.51362
     2007.12115         2.15648         6.66782
     2007.12389        -5.20079         6.59362
     2007.12663         3.32194         6.71883
     2007.12937         2.37167         6.78840
     2007.13211         3.37340         6.68521
     2007.13484         7.21212         6.60753
     2007.13758         6.85785         6.64811
     2007.14032         9.71558         6.80695
     2007.14306        10.33031         6.67130
     2007.14580        10.86304         6.65507
     2007.14853         0.16977         6.68985
     2007.15127        13.82350         6.68985
     2007.15401         7.77923         6.70376
     2007.15675        14.65796         6.57275
     2007.15948        13.21469         6.60289
     2007.16222         4.44541         6.89275
     2007.16496         4.24614         6.91014
     2007.16770         4.59987         6.71072
     2007.17044         3.02160         6.84521
     2007.17317         3.32733         6.81275
     2007.17591         5.98106         6.74898
     2007.17865         3.43679         6.90202
     2007.18139        11.40652         6.85217
     2007.18413         2.70125         6.93449
     2007.18686         6.16598         7.03072
     2007.18960         0.92770         6.86724
     2007.19234        -1.22257         6.89391
     2007.19508         5.27216         6.80811
     2007.72074         5.32913         6.90086
     2007.72348         6.24786         7.08869
     2007.72622         0.97459         6.79420
     2007.72896         5.93132         6.97275
     2007.73170         2.26505         6.88579
     2007.73443         0.80978         6.89275
     2007.73717         6.58751         7.19420
     2007.73991         9.74524         6.97391
     2007.74265         7.87397         6.97275
     2007.74538         7.67670         6.97506
     2007.74812        -4.64758         7.11999
     2007.75086         5.86415         7.19767
     2007.75360         7.65788         7.12463
     2007.75634         2.26461         7.02724
     2007.75907         5.73934         6.83825
     2007.76181         9.41007         6.77449
     2007.76455         0.16480         6.92985
     2007.76729         3.43753         7.33448
     2007.77003         2.99626         7.51535
     2007.77276        -0.60601         7.23709
     2007.77550         3.30671         6.85796
     2007.77824        14.17944         6.80463
     2007.78098        11.21317         6.87072
     2007.78371         4.66690         6.98782
     2007.78645         7.24263         6.97970
     2007.78919        15.55536         7.04231
     2007.79193         9.44609         7.07362
     2007.79467         9.02982         7.19420
     2007.79740        30.65755         7.37970
     2007.80014         2.90628         6.97275
     2007.80288         2.31800         6.81622
     2007.80562         3.82673         6.79651
     2007.80836         1.43746         6.88579
     2007.81109         4.78819         7.13738
     2007.81383         2.65492         7.15477
     2007.81657        -0.30935         7.08753
     2007.81931         1.96138         7.11651
     2007.82204        -2.52889         7.11883
     2007.82478         5.02484         6.99709
     2007.82752        -1.43543         6.99593
     2007.83026        -0.88071         7.03767
     2007.83300         3.53602         6.87072
     2007.83573         3.09675         6.79535
     2007.83847         3.33848         6.83362
     2007.84121         0.42921         6.99362
     2007.84395        -8.78106         6.85796
     2007.84669        -6.26833         6.71188
     2007.84942         0.87640         6.83246
     2007.85216         2.85713         6.95072
     2007.85490         0.27386         6.97970
     2007.85764        -2.54142         6.95072
     2007.86037        -7.34869         6.79651
     2007.86311        -2.02296         6.75246
     2007.86585         4.30777         6.90434
     2007.86843         5.92946         7.47709
     2008.61328         1.85079         6.82318
     2008.61602         0.42452         7.00057
     2009.92471       -12.30801         6.88695
     2009.92745        -9.95828         6.88463
     2009.93019       -10.01655         6.88115
     2009.93293        -6.58682         6.75709
     2009.93567       -10.78409         6.77564
     2009.93840        -6.74436         7.00869
     2009.94114        -3.54163         6.78608
     2009.94388        -8.43790         6.79188
     2009.94662       -12.65517         6.82086
     2009.94935        -9.59345         7.01680
     2009.95483       -10.19699         6.70840
     2009.95757       -12.03026         6.71536
     2009.96031       -13.31653         6.62956
     2009.96304       -15.51580         6.72463
     2009.96578       -12.50407         6.89391
     2009.96852       -13.93934         6.80579
     2009.97126        -8.29261         6.79535
     2009.97400        -8.62288         6.91362
     2009.97673       -14.71516         6.61449
     2009.97947       -14.57543         6.66434
     2009.98221       -10.68570         6.75478
     2009.98495        -9.47297         6.64927
     2009.98768        -4.92724         6.67825
     2009.99042        -6.72151         6.70608
     2009.99316        -7.20878         6.72695
     2009.99590       -10.16405         6.77912
     2009.99864       -15.84132         6.83362
     2010.00411       -12.68387         6.68057
     2010.00685       -14.67214         6.75362
     2010.00959       -14.38141         6.90666
     2010.01233       -12.49168         6.75130
     2010.01506       -13.02095         6.64811
     2010.01780       -12.56122         6.69101
     2010.02054       -11.30349         6.63651
     2010.02328       -16.42676         6.62956
     2010.02601       -19.01203         6.67709
     2010.02875       -12.99630         6.68173
     2010.03149        -4.10557         6.75825
     2010.03423        -7.98385         6.83941
     2010.03697        -9.65412         7.00521
     2010.03970        -6.33239         6.84289
     2010.04244        -8.23166         6.67130
     2010.04518        -5.63893         6.76637
     2010.04792        -0.79520         6.62608
     2010.05065        -4.32947         6.86144
     2010.05339        -7.03474         7.02956
     2010.05613        -4.36301         6.84753
     2010.05887         0.97072         6.68289
     2010.06161        -2.71256         6.72231
     2010.06434        -9.46183         6.74782
     2010.06708        -7.63510         6.62028
     2010.06982       -26.43237         6.76405
     2010.07256        -7.30464         6.68057
     2010.07530        -9.97691         6.80927
     2010.07803        -7.92718         6.75825
     2010.08077        -7.27745         6.63536
     2010.08351        -8.59672         6.68869
     2010.08625        -2.79399         6.73043
     2010.08898         1.75973         6.96927
     2010.09172        -9.21454         6.71188
     2010.09446        -0.53881         6.85564
     2010.09720        -3.42108         6.79535
     2010.09994        -9.17335         6.61680
     2010.10267        -9.44562         6.59130
     2010.10541        -4.77589         6.72579
     2010.10815        -3.80216         6.86376
     2010.11089        -7.48643         6.72463
     2010.11363       -10.15570         6.71536
     2010.11636        -3.88398         6.86840
     2010.11910        -8.99925         6.66666
     2010.12184        -4.75952         6.81043
     2010.12458        -6.81179         6.68057
     2010.12731       -10.34706         6.91593
     2010.13005       -15.79433         6.83362
     2010.13279       -10.64260         6.85564
     2010.13553        -9.52387         6.80347
     2010.13827        -7.05014         6.83593
     2010.14100       -10.31141         6.64347
     2010.14374        -8.02369         6.99014
     2010.14648        -9.46396         6.94144
     2010.14922        -9.01323         6.83014
     2010.15196       -11.12750         6.68173
     2010.15469        -5.72977         6.81275
     2010.15743       -12.19804         6.71999
     2010.16017       -14.29531         6.72579
     2010.16291       -12.24358         6.75478
     2010.16564        -7.38885         6.79767
     2010.16838        -5.29512         6.70376
     2010.17112        -4.94240         6.62956
     2010.17386        -8.58667         6.61449
     2010.17660        -4.10994         6.60057
     2010.17933        -4.62521         6.66666
     2010.18207        -3.76348         6.79072
     2010.18481        -0.15775         6.65970
     2010.18755        -3.18202         6.66550
     2010.19029        -7.42929         6.71072
     2010.19302        -4.92256         6.68869
     2010.19576        -7.83583         6.71536
     2010.19850        -4.76310         6.61680
     2010.20124       -11.29738         6.64115
     2010.20397       -10.63965         6.83825
     2010.20671       -11.86092         6.82782
     2010.20945        -8.83719         6.73159
     2010.21219       -12.41346         6.62028
     2010.21493       -14.01673         6.61333
     2010.21766        -9.12300         6.68173
     2010.22040        -3.74027         6.71188
     2010.22314       -18.55554         6.69680
     2010.22588       -11.73581         6.79999
     2010.22862       -12.55309         6.79767
     2010.23135        -7.04036         6.76289
     2010.23409       -15.65663         6.78144
     2010.23957        -1.76017         6.82898
     2010.24230         3.25056         7.14782
     2010.24504        -3.11471         6.79651
     2010.24778        -5.70798         6.76405
     2010.25052        -8.48825         7.10724
     2010.25326        -6.27052         6.84985
     2010.25599        -7.23180         6.89391
     2010.25873         0.99793         6.75709
     2010.26147       -10.11634         6.91246
     2010.26421        -5.47461         7.07825
     2010.26695        -7.35588         6.89043
     2010.26968        -4.72415         6.96463
     2010.27242        -5.59642         6.90434
     2010.27516       -12.62869         6.83014
     2010.27790       -13.94796         6.94724
     2010.28063        -5.58123         6.73854
     2010.28337        -9.69751         6.90550
     2010.28611       -13.58378         6.96811
     2010.28885       -11.08905         6.72115
     2010.29159       -11.57432         6.87188
     2010.29432        -8.58959         6.81622
     2011.92882         5.89163         6.77449
     2011.93156        11.39636         6.73854
     2011.93430         8.41209         6.71883
     2011.93703         8.82182         6.71304
     2011.93977        10.99855         6.81391
     2011.94251        12.62328         6.73622
     2011.94525        15.81001         6.68289
     2011.94799        14.16074         6.68173
     2011.95072        11.35147         6.61565
     2011.95346        15.75420         6.73507
     2011.95620        17.28592         6.81275
     2011.95894        10.09165         6.49043
     2011.96167        12.58438         6.47304
     2011.96441        10.52211         6.58202
     2011.96715        12.42184         6.46840
     2011.96989        16.78557         6.46028
     2011.97263        10.22330         6.49159
     2011.97536        10.91303         6.62376
     2011.97810         9.99376         6.56347
     2011.98084         7.31749         6.53217
     2011.98358        12.98321         6.55883
     2011.98632        15.98694         6.58318
     2011.98905         8.74967         6.64927
     2011.99179        16.45040         6.46260
     2011.99453        15.66913         6.80347
     2011.99727        12.08386         6.47651
     2012.00274         9.83032         6.54724
     2012.00548        12.08105         6.51362
     2012.00822        12.78978         6.52521
     2012.01096        19.04050         6.59246
     2012.01369        15.11123         6.40463
     2012.01643        14.13096         6.49507
     2012.01917        15.10869         6.56579
     2012.02157         9.40333         7.69622
     2013.80972         5.93947         6.59593
     2013.81246         6.44720         6.62608
     2013.81520         2.28393         6.61565
     2013.81794        -3.20634         6.66898
     2013.82068         0.98839         6.62608
     2013.82341        -3.20589         6.58318
     2013.82615       -22.38716         6.78028
     2013.82889        -5.15643         6.49507
     2013.83163        -5.68270         6.52173
     2013.83436         2.59703         6.79535
     2013.83710         5.06776         6.76057
     2013.83984         6.71449         6.81854
     2013.84258         3.13822         6.74202
     2013.84532         0.69195         6.80927
     2013.84805        -2.24032         6.61680
     2013.85079         2.02540         6.57738
     2013.85353         6.00513         6.71883
     2013.85627         4.49686         6.66782
     2013.85901         3.37259         6.61333
     2013.86174         0.51732         6.73275
     2013.86448        -2.86695         6.60173
     2013.86722        -0.70622         6.52985
     2013.86996         3.91251         6.56579
     2013.87269        10.20024         6.57970
     2013.87543         8.25797         6.65507
     2013.87817         8.09969         6.69796
     2013.88091         9.27542         6.76985
     2013.88365        10.18015         7.00405
     2013.88638         1.18088         6.55767
     2013.88912         2.01561         6.49275
     2013.89186        -4.36566         6.61796
     2013.89460        -3.54693         6.65622
     2013.89734         2.48680         6.62840
     2013.90007        -0.16647         6.69333
     2013.90281        -1.22174         6.59362
     2013.90555        -1.19601         6.65275
     2013.90829         8.01971         6.68289
     2013.91102         2.58344         6.53680
     2013.91376        -0.29883         6.60289
     2013.91650         2.05890         6.65854
     2013.91924         6.60563         6.93333
     2013.92198         4.38236         6.74434
     2013.92471         6.98809         6.67130
     2013.92745         4.15982         6.73854
     2013.93019         7.96955         6.72463
     2013.93293         7.24828         6.48115
     2013.93567        10.29500         6.47304
     2013.93840        10.32973         6.52173
     2013.94114         6.13946         6.50434
     2013.94662         7.74992         7.29159
     2013.94935         6.20265         6.65043
     2013.95209         3.62938         6.58202
     2013.95483         1.91211         6.61565
     2013.95757         3.36584         6.55420
     2013.96031         2.51857         6.60985
     2013.96304         8.46329         6.59825
     2013.96578        11.25502         6.65622
     2013.96852        10.25075         6.74086
     2013.97126        13.51448         6.61565
     2013.97400         1.67321         6.59362
     2013.97673        -2.82406         6.57738
     2013.97947         1.17467         6.65275
     2013.98221         2.77140         6.73738
     2013.98495        -1.16687         6.58434
     2013.98768        -2.11414         6.55420
     2013.99042        -0.40142         6.64115
     2013.99316        -0.15069         6.64811
     2013.99590         2.09504         6.69912
     2013.99864        -1.25323         6.77912
     2014.00411         0.04423         6.60637
     2014.00685        -0.99204         6.60289
     2014.00959        -0.20231         6.67246
     2014.01233        -1.32758         6.79188
     2014.01506        -3.24185         6.69680
     2014.01780         1.60687         6.71304
     2014.02054         3.98860         6.66782
     2014.02328        -0.32867         6.76173
     2014.02601         2.01206         6.82782
     2014.02875         6.89479         6.61912
     2014.03149         7.28652         6.65159
     2014.03399        -0.29981         7.28695
     2015.54005        -2.50379         6.70028
     2015.54278        -1.20806         6.79999
     2015.54552        -0.92633         6.81507
     2015.54826         2.02940         6.73854
     2015.55100         0.59312         6.70608
     2015.55374        11.30185         6.94260
     2015.55647        14.68858         6.87651
     2015.55921         5.05531         6.75478
     2015.56195         6.23604         6.73159
     2015.56469         0.72277         6.79651
     2015.56742        12.39450         6.79535
     2015.57016         7.46923         6.94260
     2015.57290         6.06296         7.07593
     2015.57564         1.48369         6.70492
     2015.57838         0.82141         6.76173
