# ================= DQRFIT RESULTS ================
# INPUT FILE: series/RPUB.rad
# OUTPUT: LDETRENDED
# FILTER FUNCTION: f(t)
# f(t)=+line(t)+annual(t)
# line(t)=+P 1+P 2*t
# annual(t)=+P 3*sin(2*pi*t+P 4)
# heav(t)=(t<0?0:1)
# TOTAL OBSERVATIONS MTOT= 3372
# INITIAL TIME INTERVAL= 2022.7488 - 2012.5147 = 10.2341
# TOTAL OBSERVATIONS AFTER PREFILTER M= 3321
# TIME-SPAN= 2022.7488 - 2012.5147 = 10.2341
# OBSERVATIONS: USED M=  3321 REJECTED MTOT-M=    51 %USED=   98.4875
# N=  4 PARAMETERS
# MAXSIG= 175.00000
# MAXRES=  44.20588
# SCALE FACTOR FOR LENGTHS: SCL=  10.00000
# SCALE FACTOR FOR SIGMAS: SCLSIG=   1.00000
# CHI^2=   4363.715 DOF=  3317 CHI^2/DOF=   1.31556
# RMS=      6.687 SDEV=      6.688 MEAN=   -0.01186
#  P #       PARAMETER +-    SIGMA %error PARAMETER NAME
# P 1 =      -624.17518 +-   78.119  12.52 YZERO                              
# P 2 =         0.31076 +-    0.039  12.46 SLOPE                              
# P 3 =         5.47433 +-    0.154   2.82 ANNUAL AMPLITUDE                   
# P 4 =        -2.80407 +-    0.037   1.34 ANNUAL PHASE                       
#       T            LDETRENDED       SIG_OBS
     2012.51471        -6.63435         6.16960
     2012.51745        -3.47520         6.21892
     2012.52019        -1.00205         6.30953
     2012.52292         6.30610         6.35656
     2012.52566         0.51124         6.27627
     2012.52840        -7.64961         6.17304
     2012.53114         6.54054         6.20401
     2012.53388         8.23969         6.43455
     2012.53661         4.76684         6.39441
     2012.53935         4.57499         6.36688
     2012.54209         5.73314         6.15010
     2012.54448        -4.09860         7.06883
     2012.55125        -2.07571        12.58695
     2012.55304         0.44674         6.26365
     2012.55578        -1.42912         6.19369
     2012.55852        -2.16797         6.30724
     2012.56125        -2.30882         6.08472
     2012.56399        -1.42667         6.17533
     2012.56673        -1.55052         6.32788
     2012.56947         2.06563         6.33476
     2012.57221         1.82678         6.24759
     2012.57495         0.33093         6.16960
     2012.57762        -2.72790         6.25218
     2012.70461         3.76464        13.20287
     2012.70636        11.02309         6.25448
     2012.70910         9.45024         6.27856
     2012.71184        12.73939         6.24874
     2012.71457        15.15154         6.18680
     2012.71731        15.20469         6.20974
     2012.72005        10.93284         6.18795
     2012.72279        12.87699         6.08702
     2012.72439        15.53749        14.09522
     2012.73725        13.73749         9.93628
     2012.73921         8.30488         6.19942
     2012.74195        13.08903         6.63986
     2012.74469        11.63318         6.29462
     2012.74743        12.61633         6.17648
     2012.75017        11.34648         6.45979
     2012.75290        16.11363         6.22810
     2012.75564         7.28478         6.15813
     2012.75838         5.95493         6.21204
     2012.76105         8.94210         6.99313
     2012.76377        -9.84875        62.48856
     2012.76662        16.67736        37.35022
     2012.76933        13.07152        19.71427
     2012.77204         6.22468        52.32288
     2012.77490        13.85079        41.67089
     2012.77741         5.10401        12.29561
     2012.78038        16.32709        10.52927
     2012.78304        16.59226        11.55122
     2012.78573         2.03242        10.41457
     2012.78848        11.75657        11.55467
     2012.79122        -1.35728        12.54910
     2012.79401        12.17885        14.04476
     2012.79665        11.73903        12.90581
     2012.79945         2.55816        10.78963
     2012.80222         5.41830        45.20703
     2012.80470        -0.26347        63.88214
     2012.80763        19.12962        44.65074
     2012.81040        -3.30124        41.73627
     2012.81313         9.61991        48.46445
     2012.81589        20.75005        49.74448
     2012.81755         0.32254        22.36150
     2013.13894        -0.26134         6.27168
     2013.14168         5.57681         6.20745
     2013.14442         0.96896         6.37376
     2013.14715         6.00811         6.27283
     2013.14990        -4.26774         6.12831
     2013.15263        -4.92759         6.13290
     2013.15537        -8.02544         6.16272
     2013.15811        -7.80129         6.15928
     2013.16084        -7.38914         6.16960
     2013.16358        -6.22399         6.17763
     2013.16632       -13.51985         6.10537
     2013.16906         3.20830         6.25677
     2013.17180        -3.12555         6.16272
     2013.17453        -7.86640         6.07899
     2013.17727        -3.72225         6.28659
     2013.18001       -16.31110         7.45192
     2013.18275        -1.36195         6.20974
     2013.18548        -6.41980         6.09734
     2013.18823        -5.43165         6.15125
     2013.19096        -4.13150         6.46552
     2013.19370        -7.87935         6.08587
     2013.19644        -9.12520         6.09849
     2013.19917        -1.51006         6.26021
     2013.20191        -1.96091         6.14551
     2013.20465         0.98424         6.42308
     2013.20739         7.90639         6.22351
     2013.20987        -1.53538         6.86352
     2013.21688         7.75944        25.67168
     2013.21834         0.67299         6.05949
     2013.22108        -3.37786         6.04114
     2013.22381        -2.10971         6.10996
     2013.22655        -8.04056         6.10422
     2013.22929        -8.42341         6.08243
     2013.23203        -7.45927         6.04458
     2013.23477        -5.43012         6.06752
     2013.23750        -5.20897         6.26939
     2013.24024        -5.55682         6.52172
     2013.24298        -6.27867         6.26365
     2013.24572         2.49248         6.17992
     2013.24846         0.78563         6.22351
     2013.25119         0.13378         6.22580
     2013.25393        -4.63307         6.26709
     2013.25667        -2.82592         6.43111
     2013.25941         0.59223         6.22810
     2013.26214        -1.69462         6.63757
     2013.26488        -1.01547         6.19254
     2013.26762        -4.01033         6.26709
     2013.27036       -11.24618         6.35082
     2013.27310        -3.65103         6.28889
     2013.27583        -1.87888         6.34394
     2013.27857        -0.94473         6.34394
     2013.28131         4.54342         6.22924
     2013.28405        -1.75543         6.17075
     2013.28679        -6.12328         6.17533
     2013.28952        -4.10213         6.31527
     2013.29226        -7.42298         7.01148
     2013.29500        -5.43183         6.23612
     2013.29765        -8.73266         6.72703
     2013.31690        -3.04964         6.35656
     2013.31964         7.34851         6.51140
     2013.32238        -1.03334         6.23612
     2013.32512         8.30881         6.38408
     2013.32785        -0.65204         6.26136
     2013.33059        -6.45389         6.22121
     2013.33333       -11.17775         6.16042
     2013.33607        -6.62860         6.15813
     2013.33880        -2.06045         6.30150
     2013.34154        -0.49630         6.18336
     2013.34428        -1.92315         6.59283
     2013.34702        -8.69200         6.23268
     2013.34976        -1.88485         6.87843
     2013.35249        -6.62370         6.18795
     2013.35523        -1.08655         6.82682
     2013.35797         4.71160         6.18336
     2013.36071        -2.54225         6.29462
     2013.36344         2.20290         7.22023
     2013.36618         4.89805         6.20745
     2013.36892         0.74219         6.28889
     2013.37166         1.25334         6.14437
     2013.37440        -5.74051         6.22695
     2013.37713        -4.09536         6.20516
     2013.37987        -5.55821         6.23957
     2013.38261        -8.81806         6.77635
     2013.38535        -1.01791         6.39555
     2013.38809        -3.88876         6.23383
     2013.39082        -0.05961         6.40932
     2013.39907        -2.16418         7.29249
     2013.40177         1.83098         6.34738
     2013.40451         1.90113         6.15928
     2013.40725         3.39928         6.39785
     2013.40999         1.23643         6.34968
     2013.41273        -1.18742         6.22695
     2013.41546        -8.93627         7.05507
     2013.41821        -1.07012         6.23268
     2013.42094         5.43403         6.25218
     2013.42369        -8.64482         6.29233
     2013.42642         1.14233         6.25104
     2013.42915         0.74548         6.22465
     2013.43190         3.24562         6.34738
     2013.43463         1.96777         6.28315
     2013.43737         5.19192         6.20401
     2013.44010         2.44007         6.24415
     2013.44284        -1.22778         6.32329
     2013.44558        -1.57763         6.43685
     2013.44832        -0.00948         6.35082
     2013.45106        -8.12733         6.26365
     2013.45377        -0.56418         6.68459
     2013.45653        -6.37003         6.27512
     2013.45927        -1.40588         7.59644
     2013.46201         7.08727         6.31871
     2013.46475        -0.32058         6.19942
     2013.46748        -3.67643         6.18107
     2013.47022         0.28171         6.37376
     2013.47296        -6.11314         6.11684
     2013.47570        -4.51599         6.17419
     2013.47763         8.05541        12.97921
     2013.48121         5.37030         8.58858
     2013.48391         2.07546         6.64560
     2013.48665        -1.47939         8.27775
     2013.48939        -5.79824         7.04474
     2013.49212         7.40891         7.97265
     2013.49486        -2.14394         7.67788
     2013.49760         7.03621         6.62380
     2013.50034         1.11836         6.38294
     2013.50308         8.26650         6.30265
     2013.50581         0.11865         6.14895
     2013.50855         1.06780         6.13748
     2013.51129         1.71595         6.51713
     2013.51403         1.98410         6.11684
     2013.62440        17.86980        10.66576
     2013.62628        12.26622         6.71327
     2013.62902         4.99237         6.15239
     2013.63175        10.77352         6.07096
     2013.63449         8.79167         6.40817
     2013.63723        12.72381         6.11913
     2013.63997        13.86696         6.26136
     2013.64271        17.37911         6.12601
     2013.64544         6.20826         6.14551
     2013.64818        10.11741         6.17878
     2013.65092        14.38256         6.32329
     2013.65366         7.55671         6.54351
     2013.65639         7.65086         6.13748
     2013.65913        13.97901         6.27971
     2013.66187         5.11416         6.20630
     2013.66461         8.39831         6.09849
     2013.66735        12.76046         6.15469
     2013.67008        14.28060         6.24530
     2013.67282         8.56075         6.54237
     2013.67556        10.99890         6.38753
     2013.67830        17.43805         6.19942
     2013.68104        20.30020         6.51713
     2013.68377         6.37335         6.08014
     2013.68651         1.81450         6.05605
     2013.68925         9.58565         6.11799
     2013.69199         4.19680         6.06637
     2013.69472        11.03795         6.08587
     2013.69746         5.71310         6.08931
     2013.70020         7.84325         6.10078
     2013.70294        15.55540         6.08128
     2013.70568        15.37054         6.08358
     2013.70841         9.81669         6.26250
     2013.71115        11.30384         6.13404
     2013.71389        13.05099         6.10078
     2013.71663         5.29314         6.09161
     2013.71937         9.50829         6.02967
     2013.72210        17.44044         6.09849
     2013.72484        20.01259         6.12716
     2013.72758        10.48474         6.12946
     2013.73032         9.47089         6.15469
     2013.73305        13.53804         6.07555
     2013.73579         9.12319         6.07096
     2013.73853         7.81533         6.09734
     2013.74127         8.13448         6.18222
     2013.74401        17.75363         6.27971
     2013.74674        13.01778         6.21777
     2013.74948        11.72093         6.03884
     2013.75222         2.45808         6.21548
     2013.75496         0.66823         6.06522
     2013.75770        -1.02962         6.73735
     2013.76043        -0.15247         6.07325
     2013.76317         2.96068         6.04687
     2013.76591        13.34183         6.28086
     2013.76865        -1.33302         6.12487
     2013.77138         7.30712         6.25333
     2013.77412        13.74527         6.23154
     2013.77686         5.61242         6.09390
     2013.77960         8.78957         6.07096
     2013.78182         2.69388         7.48748
     2013.78621       -10.53648        16.62317
     2013.78781        -1.52698         6.13060
     2013.79055         7.77817         6.12372
     2013.79329         2.55232         6.05605
     2013.79603         9.43747         6.08128
     2013.79876         5.22562         6.10537
     2013.80150        11.31677         6.28544
     2013.80424         3.23292         6.22121
     2013.80698         1.36906         6.05949
     2013.80971         6.08121         6.05146
     2013.81245         5.34636         6.06178
     2013.81519         1.70851         6.08014
     2013.81793         1.24866         6.12257
     2013.82067        10.96481         6.20974
     2013.82340         8.61496         6.09161
     2013.82569         8.67425         7.70082
     2013.82888         9.10926         6.17419
     2013.83162         1.22141         6.11454
     2013.83436         4.50656         6.29691
     2013.83709         7.93071         6.18451
     2013.83983        11.39585         6.16960
     2013.84257         5.17200         6.15125
     2013.84531        -3.35385         6.14895
     2013.84804       -13.37370         6.09849
     2013.85078        -2.51455         6.17189
     2013.85352         9.38360         6.02852
     2013.85626         1.20475         6.16731
     2013.85900        -8.54210         6.05375
     2013.86173        -0.38195         6.05949
     2013.86447        -3.82280         6.08702
     2013.86721         1.23735         6.03426
     2013.86995         8.93350         6.01820
     2013.87269         9.67264         6.17189
     2013.87542        -0.07921         6.06408
     2013.87816         9.66894         6.06408
     2013.88090        10.18709         6.21663
     2013.88364         8.48224         6.42308
     2013.88637         7.93239         6.09734
     2013.88911        -2.14346         6.09619
     2013.89185        -5.00831         7.19959
     2013.89459        -5.56916         6.15239
     2013.89733         1.14899         6.09734
     2013.90006         0.53714         6.19827
     2013.90280        -1.96271         6.17878
     2013.90554         0.80044         6.08472
     2013.90828         1.22358         6.05949
     2013.91102         1.23073         6.08931
     2013.91375        -8.45412         6.08587
     2013.91649        -4.02897         6.12601
     2013.91923         7.55618         6.17075
     2013.92197         1.59133         6.11340
     2013.92470         0.48048         6.07440
     2013.92744         2.71063         7.44619
     2013.93007         3.17281         6.56990
     2013.93663        -0.74123        10.76096
     2013.93839         3.71223         6.06064
     2013.94113         0.91837         6.23498
     2013.94301         2.26479         9.65642
     2013.94661        -0.75033         6.11799
     2013.94935         2.98382         6.04687
     2013.95208         1.29897         6.05146
     2013.95482        -1.11088         6.63413
     2013.95756         2.98427         6.09963
     2013.96030         2.92242         6.08014
     2013.96303         8.24457         6.05605
     2013.96577         2.56972         6.10193
     2013.96851         5.01787         6.14437
     2013.97125        -1.18198         6.13175
     2013.97399       -13.93984         6.11454
     2013.97672       -19.35169         6.13978
     2013.97946        -8.02054         6.11225
     2013.98220        -9.75039         6.12028
     2013.98494        -8.35824         6.16616
     2013.98767       -11.93909         6.11340
     2013.99041       -11.90794         6.08472
     2013.99315       -14.67379         6.10307
     2013.99589       -12.15864         6.15584
     2013.99863        -8.62649         6.16386
     2014.00410        -8.72219         6.10078
     2014.00684         2.35395         6.16157
     2014.00958         7.97610         6.17878
     2014.01232         0.26025         6.26250
     2014.01505        -1.01260         6.19942
     2014.01779        -1.53945         6.22580
     2014.02053        -1.85330         6.05490
     2014.02327        -9.22915         6.35426
     2014.02600         4.68700         6.33132
     2014.02874         3.35315         6.14551
     2014.03148        11.49630         6.11684
     2014.03422         2.37045         6.04802
     2014.03696        -1.94040         6.11454
     2014.03969         2.00175         6.14207
     2014.04243         1.06489         6.26595
     2014.04517         3.82504         6.28889
     2014.04791         0.46519         6.06178
     2014.05065         2.65634         6.07211
     2014.05338        -2.89151         6.06293
     2014.05612        -2.91436         6.07325
     2014.05886        -3.15821         6.14666
     2014.06160         1.01694         6.10307
     2014.06433        -0.92291         6.24874
     2014.06707         2.61024         6.24530
     2014.06981         2.57339         6.13748
     2014.07255         1.57854         6.08702
     2014.07529         3.43668         6.12372
     2014.07802        -5.15817         6.10307
     2014.08076        -8.55402         6.31985
     2014.08350       -10.48887         6.13978
     2014.08626        -9.82773         6.60430
     2014.09017         1.22506        26.43672
     2014.09171       -11.89342         6.43685
     2014.09445       -16.87127         7.48174
     2014.09719       -11.31512         6.27397
     2014.09995        -2.15398         6.38179
     2014.10266         1.54418         6.23842
     2014.10540        -0.26067         6.06867
     2014.10814        -1.89753         6.08014
     2014.11088        -2.50938         6.26021
     2014.11362        -8.40423         6.08472
     2014.11635         9.09592         7.01492
     2014.11909         4.86607         6.28774
     2014.12183         1.88922         6.10881
     2014.12457         2.92037         6.20630
     2014.12731         4.21552         6.07555
     2014.13004         7.03267         6.04687
     2014.13278         2.66982         6.28315
     2014.13552         4.80897         6.23842
     2014.13826         6.09312         7.05048
     2014.14099         0.04627         6.11684
     2014.14373         4.51341         6.18451
     2014.14647        -4.10344         6.19942
     2014.14921        -8.06429         6.11110
     2014.15195        -9.44714         6.12716
     2014.15468        -1.06099         6.15698
     2014.15742         6.38416         6.18107
     2014.16016         5.93931         6.49075
     2014.16290        -0.32454         6.56990
     2014.16564        -0.91439         6.23727
     2014.16837        -6.68924         6.58481
     2014.17111        -1.99809         6.40244
     2014.17385         4.31006         6.36688
