# ================= DQRFIT RESULTS ================
# INPUT FILE: series/RSBG.rad
# OUTPUT: LDETRENDED
# FILTER FUNCTION: f(t)
# f(t)=+line(t)+annual(t)
# line(t)=+P 1+P 2*t
# annual(t)=+P 3*sin(2*pi*t+P 4)
# heav(t)=(t<0?0:1)
# TOTAL OBSERVATIONS MTOT= 2726
# INITIAL TIME INTERVAL= 2022.7488 - 2013.7112 =  9.0376
# TOTAL OBSERVATIONS AFTER PREFILTER M= 2715
# TIME-SPAN= 2022.7488 - 2013.7112 =  9.0376
# OBSERVATIONS: USED M=  2715 REJECTED MTOT-M=    11 %USED=   99.5965
# N=  4 PARAMETERS
# MAXSIG= 175.00000
# MAXRES=  49.48876
# SCALE FACTOR FOR LENGTHS: SCL=  10.00000
# SCALE FACTOR FOR SIGMAS: SCLSIG=   1.00000
# CHI^2=   2234.457 DOF=  2711 CHI^2/DOF=   0.82422
# RMS=      6.497 SDEV=      6.494 MEAN=    0.23114
#  P #       PARAMETER +-    SIGMA %error PARAMETER NAME
# P 1 =      1940.25775 +-   79.595   4.10 YZERO                              
# P 2 =        -0.96232 +-    0.039   4.10 SLOPE                              
# P 3 =         3.89343 +-    0.141   3.62 ANNUAL AMPLITUDE                   
# P 4 =        -3.07479 +-    0.051   1.66 ANNUAL PHASE                       
#       T            LDETRENDED       SIG_OBS
     2013.71115         4.05327         5.01232
     2013.71389         4.15190         4.92789
     2013.71663         0.57654         5.06861
     2013.71937        16.22117         5.61787
     2013.72210        15.24781         5.11945
     2013.72484         5.20544         5.03411
     2013.72758         6.57508         4.98509
     2013.73032         1.06071         4.96965
     2013.73305         6.36035         4.98509
     2013.73579         4.30298         4.94514
     2013.73853         4.98161         5.01232
     2013.74127         2.11325         5.10129
     2013.74401         7.19088         5.26743
     2013.74674         4.79652         5.25018
     2013.74948         6.32515         5.02140
     2013.75222        -0.13621         4.97328
     2013.75496        -1.78058         4.99144
     2013.75770        -5.48294         4.94514
     2013.76043        -7.33331         4.93879
     2013.76317        -1.49367         4.99961
     2013.76591         3.52996         5.08949
     2013.76865        -3.54140         4.95785
     2013.77138        -1.94077         4.97147
     2013.77412        -0.91613         5.09312
     2013.77686        -2.01150         4.96511
     2013.77960        -3.46486         5.01595
     2013.78234        -6.72223         5.06135
     2013.78507        -8.59760         4.94786
     2013.78781        -9.04396         4.95422
     2013.79055        -4.97033         5.01414
     2013.79329        -1.53969         4.98872
     2013.79603        -0.54206         4.94332
     2013.79876        -2.21042         5.16303
     2013.80150         2.19821         5.01777
     2013.80424         1.11485         5.02231
     2013.80698         2.51148         4.97782
     2013.80971         2.81412         4.99144
     2013.81245         5.65575         4.93334
     2013.81519        -0.79461         4.92880
     2013.81793        -2.54498         4.92335
     2013.82067         1.41366         5.11582
     2013.82340         4.38729         5.01959
     2013.82614        -1.14108         5.11037
     2013.82888         3.29356         4.92335
     2013.83162         3.88719         4.97782
     2013.83436         2.19283         5.11037
     2013.83709        -1.13954         5.19662
     2013.83983         6.17410         5.11400
     2013.84257         1.69873         5.03774
     2013.84531         1.40237         5.06316
     2013.84804         0.89700         4.92608
     2013.85078        -8.24536         5.14033
     2013.85352        -1.36273         4.96602
     2013.85626         4.71191         4.98327
     2013.85900         3.73054         4.97873
     2013.86173         0.60918         5.03774
     2013.86447        -7.98519         5.16303
     2013.86721        -2.82855         4.99416
     2013.86995         1.89308         4.98236
     2013.87269         4.70071         4.99416
     2013.87542         7.27235         5.02503
     2013.87816         7.63298         4.98418
     2013.88090         2.00262         5.08677
     2013.88364         7.93525         5.21205
     2013.88637         2.98289         5.05318
     2013.88911        -1.03048         4.95150
     2013.89185        -6.50084         4.91972
     2013.89459        -4.58821         4.92789
     2013.89733         0.18143         4.94332
     2013.90001        -2.38099         5.15667
     2013.90280        -2.91730         5.17846
     2013.90554        -1.30267         4.95603
     2013.90828         2.25997         4.95059
     2013.91102        -1.47940         4.98690
     2013.91375        -1.37576         5.01595
     2013.91649        -0.41813         5.02049
     2013.91923         2.76450         5.14305
     2013.92197        -0.44586         5.19117
     2013.92470         1.83077         4.94242
     2013.92744        -0.75559         5.02957
     2013.93018        -4.63696         4.97328
     2013.93566       -16.98069         5.00597
     2013.93839       -17.67105         5.04864
     2013.94113       -16.82642         5.01959
     2013.94387        -9.29378         5.01051
     2013.94661        -0.22415         5.07406
     2013.94935        -0.41551         4.98599
     2013.95208         0.61012         4.90883
     2013.95482        -5.25924         5.06044
     2013.95756         1.46239         4.95240
     2013.96030         1.37303         4.99780
     2013.96303        -2.34134         5.00778
     2013.96577         1.88329         4.93697
     2013.96851         0.65893         4.99780
     2013.97125        11.21156         4.95694
     2013.97399        -2.01380         4.99689
     2013.97672        -8.34317         4.97147
     2013.97946         0.18347         4.91881
     2013.98220        -3.64090         4.96784
     2013.98494         0.12574         4.91609
     2013.98767        -2.37563         5.05590
     2013.99041        -9.08399         4.99598
     2013.99315       -11.22636         4.94060
     2013.99589        -4.94272         4.94151
     2013.99863       -10.22909         5.00143
     2014.00410        -3.92182         4.96784
     2014.00684        -2.09419         5.11219
     2014.00958        -3.79555         4.93879
     2014.01232        -5.18492         5.03139
     2014.01505        -7.84628         5.10946
     2014.01779        -8.59065         5.09585
     2014.02053         0.18099         4.95603
     2014.02327         2.05162         5.17029
     2014.02600         5.83326         5.10492
     2014.02874         7.02689         5.16303
     2014.03148         7.71953         5.03320
     2014.03422        -4.44484         4.93879
     2014.03692        -5.39524         5.02231
     2014.03969        -4.82257         5.15486
     2014.04243         0.20007         5.08949
     2014.04517         4.55870         5.10039
     2014.04791        -1.17766         4.98327
     2014.05065         0.00797         4.94605
     2014.05338        -6.14140         4.94968
     2014.05612        -3.01976         4.96602
     2014.05886        -6.50613         4.97601
     2014.06160         2.93251         5.23293
     2014.06433        -5.23886         5.11310
     2014.06707        -2.44222         5.11945
     2014.06981        -0.91959         4.98963
     2014.07255        -3.36695         4.99507
     2014.07529         2.18568         4.98327
     2014.07802        10.80532         5.13579
     2014.08076         2.56295         5.03230
     2014.08350         0.86759         5.00415
     2014.08624        -1.75578         5.01232
     2014.08898        -3.44014         5.13398
     2014.09171         0.73449         5.15123
     2014.09445        -2.03987         4.98236
     2014.09719        -4.46224         5.12581
     2014.09993         3.20839         4.98599
     2014.10266         9.07103         5.08858
     2014.10540         4.33466         5.03774
     2014.10814         7.57530         5.02412
     2014.11088        -2.42607         5.06135
     2014.11362        -7.69043         4.99053
     2014.11635         1.93820         5.03865
     2014.11909         0.28184         5.06589
     2014.12183         2.79347         5.03230
     2014.12457         1.40911         5.17211
     2014.12731         2.55874         5.00324
     2014.13004         2.22238         4.96511
     2014.13278        -4.10399         5.22658
     2014.13552         2.33065         5.10129
     2014.13826         3.51828         4.95603
     2014.14099         1.89692         4.94423
     2014.14373        -1.55245         4.99144
     2014.14647        -1.50382         5.07224
     2014.14921        -2.53018         5.02412
     2014.15195         0.62845         5.01232
     2014.15468        -0.08591         4.99416
     2014.15742         4.01972         5.03865
     2014.16016         6.37836         5.21387
     2014.16290        -0.18601         5.10220
     2014.16564         2.73263         5.21296
     2014.16837        -5.24174         5.23838
     2014.17111         2.52190         5.14305
     2014.17385         2.32453         5.27379
     2014.17659         2.21717         5.14578
     2014.17932         6.88780         5.29921
     2014.18206        -0.68056         5.09221
     2014.18480         4.42607         5.78128
     2014.18754        -5.85630         5.55250
     2014.19028        -3.24266         5.03411
     2014.19301        -1.10603         5.01141
     2014.19575        -4.18139         4.99326
     2014.19849         2.23124         5.05227
     2014.20123        -0.46912         5.01686
     2014.20397        -7.33249         5.01323
     2014.20670        -3.03285         5.10674
     2014.20944         0.56278         4.98327
     2014.21218         0.95342         4.97328
     2014.21492        -2.31995         5.11763
     2014.21765         0.78669         5.00506
     2014.22039        -1.34868         5.00415
     2014.22313        -0.94504         4.98145
     2014.22587        -3.88241         5.22295
     2014.22861         6.63823         6.04729
     2014.23134        -2.46914         5.33643
     2014.23408        -1.49251         5.77674
     2014.23682        -4.93987         5.14578
     2014.23956        -4.89924         5.23203
     2014.24230         0.33640         5.04864
     2014.24503        -4.08797         5.02049
     2014.24777        -0.05833         5.25109
     2014.25051        -4.19170         5.02503
     2014.25325        -3.92306         4.96784
     2014.25598        -0.88243         5.15576
     2014.25872        -1.97179         5.01323
     2014.26146        -4.82116         5.17755
     2014.26420        -7.88252         5.02685
     2014.26694        -7.01689         5.02776
     2014.26967        -6.66025         5.04410
     2014.27241        -1.07062         5.17483
     2014.27515        -3.63198         5.14669
     2014.27789        -4.85735         5.05045
     2014.28062        -1.47072         4.99961
     2014.28336        -6.58108         5.02685
     2014.28610         1.10455         5.11310
     2014.28884        -2.41981         5.67960
     2014.29158        -4.72818         5.02140
     2014.29431        -5.73754         5.02231
     2014.29705        -7.51491         5.24564
     2014.29979        -6.60727         5.02322
     2014.30253        -2.71064         5.07587
     2014.30527        -2.39700         5.08858
     2014.30800        -5.76937         5.04501
     2014.31074        -3.52473         5.10856
     2014.31348        -4.51610         5.06679
     2014.31622        -5.46146         4.99326
     2014.31895        -1.46483         5.09040
     2014.32169        -6.60419         5.12762
     2014.32443       -10.50056         5.10039
     2014.32717        -9.83893         5.12036
     2014.32991        -2.18529         4.97601
     2014.33264        -7.34766         5.13942
     2014.33538        -8.95802         5.02412
     2014.33812        -4.07039         5.22930
     2014.34086        -3.93875         5.13216
     2014.34360        -4.40812         5.03048
     2014.34633        -4.25548         5.02776
     2014.34907        -1.80585         5.37819
     2014.35181         1.20179         5.17392
     2014.35455        -3.56958         5.05045
     2014.35728        -8.72594         5.00052
     2014.36002        -9.23531         5.03139
     2014.36276        -9.10667         4.99870
     2014.36550        -5.90104         4.99326
     2014.36824       -12.00541         5.05408
     2014.37097        -2.59977         5.41087
     2014.37371        -7.84314         5.06498
     2014.37645         0.41550         5.14759
     2014.37919         1.25213         5.14396
     2014.38193        -9.65223         5.08495
     2014.38466        -1.87160         5.07860
     2014.38740        -6.54596         5.06770
     2014.39014        -5.57533         5.18663
     2014.39288        -7.25169         5.08223
     2014.39561        -4.02406         5.08314
     2014.39835        -4.63942         5.15486
     2014.40109        -5.90079         5.02503
     2014.40383        -2.91115         5.13125
     2014.40657        -7.33252         5.06498
     2014.40930        -5.00788         5.05045
     2014.41204        -7.20125         5.13488
     2014.41478        -1.58562         5.03502
     2014.41752       -11.49998         5.00052
     2014.42026        -3.22635         4.98327
     2014.42299        -6.44771         4.98418
     2014.42573        -2.08508         5.03230
     2014.42847        -0.69844         5.11763
     2014.43121        -8.12181         4.99507
     2014.43394        -3.84217         5.02776
     2014.43668        -3.66254         5.10492
     2014.43942        -0.81390         5.05681
     2014.44216        -6.58027         5.02503
     2014.44490        -1.47663         5.20116
     2014.44763         1.13500         5.25381
     2014.45037        -5.04136         4.96421
     2014.45311        -8.64373         4.96511
     2014.45585        -7.26909         4.99780
     2014.45859       -11.32446         4.99780
     2014.46132        -9.15783         5.00506
     2014.46406        -3.85719         5.03593
     2014.46680        -7.22056         5.55976
     2014.46954        -4.48892         5.01323
     2014.47227        -2.61729         4.98599
     2014.47501        -4.91765         5.02503
     2014.47775        -5.87302         5.01595
     2014.48049        -2.01538         5.07860
     2014.48323        -0.11675         5.11491
     2014.48596         5.75289         5.15213
     2014.48870         4.51652         5.02231
     2014.49144         2.87616         4.92335
     2014.49418        -3.37921         4.91155
     2014.49692        -6.00257         4.95876
     2014.49965        -3.97294         5.11763
     2014.50239        -4.54330         4.99598
     2014.50513        -7.03467         5.04501
     2014.50787        -8.65604         4.97873
     2014.51060        -9.31640         4.98599
     2014.51334        -2.38277         4.93969
     2014.51608         5.60887         5.05408
     2014.51882        -6.49250         5.04773
     2014.52156        -1.60886         5.07043
     2014.52429        -0.46323         5.04954
     2014.52703         1.48741         4.96693
     2014.52977        -5.58096         5.09221
     2014.53251        -2.86632         4.96693
     2014.53525         1.93731         5.02412
     2014.53798         1.44595         4.96239
     2014.54072         4.25758         5.07315
     2014.54346        -1.33278         4.98236
     2014.54620        -0.62215         5.27016
     2014.54893        -2.06451         5.02957
     2014.55167         2.42112         4.99598
     2014.55441        -1.55325         5.15032
     2014.55715         5.78939         5.22476
     2014.55989         1.08502         4.99507
     2014.56262        -2.71434         4.95785
     2014.56536        -2.26271         4.97873
     2014.56810        -7.55907         5.02866
     2014.57084        -1.66944         4.97328
     2014.57357        -4.25580         4.99144
     2014.57631        -1.72617         4.99870
     2014.57905        -0.72853         5.05318
     2014.58179        -7.10490         5.16575
     2014.58453         2.54074         5.04773
     2014.58726         3.31137         5.30012
     2014.59000        -2.87599         5.09585
     2014.59274        -2.19136         5.22749
     2014.59548         0.85327         5.14669
     2014.59822         0.85991         5.20479
     2014.60095        -0.74346         5.08314
     2014.60369        -2.10482         5.11037
     2014.60643        -4.87119         5.06135
     2014.60917         2.60045         5.13216
     2014.61156        -2.04225         6.21343
     2014.61561        -6.80635         9.78043
     2014.61738         2.56035         5.16394
     2014.62012        -3.73701         5.16484
     2014.62286        -2.78138         5.19208
     2014.62559        -2.14974         5.08586
     2014.62833         4.21489         5.02776
     2014.63107         8.90153         5.12217
     2014.63381         1.64716         5.16212
     2014.63655        -1.39820         5.79581
     2014.63928        -3.07157         5.06225
     2014.64202        -0.05794         5.00415
     2014.64476         0.03170         5.05862
     2014.64750         0.36433         5.05136
     2014.65023        -3.19103         5.00415
     2014.65263         6.29327         5.69867
     2014.65936        -9.25425         9.68964
     2014.66119         1.93351         5.16484
     2014.66392         0.60214         5.07860
     2014.66666         3.56478         5.02866
     2014.66940         5.48441         5.04137
     2014.67214         3.06905         5.01232
     2014.67488         0.84868         4.98963
     2014.67761         1.06932         5.02957
     2014.68035        -1.86605         5.01414
     2014.68309         3.36059         5.00415
     2014.68583        -0.52578         4.99507
     2014.68856         2.48385         4.99870
     2014.69130        -0.60451         5.06225
     2014.69404         1.39912         5.03048
     2014.69678        -0.95424         5.20661
     2014.69952         6.56339         4.97147
     2014.70225         4.27603         4.96239
     2014.70499         4.77966         5.07224
     2014.70773         6.81530         5.07769
     2014.71047         1.31493         5.13579
     2014.71321         9.78957         5.04954
     2014.71594         2.80220         5.01414
     2014.71868         3.87484         5.04137
     2014.72142         2.13647         4.97601
     2014.72416         3.33311         5.01595
     2014.72689         1.17574         5.16303
     2014.72963         6.29338         5.10583
     2014.73237         3.19401         5.14941
     2014.73511         0.00964         4.96874
     2014.73785         0.63828         5.01505
     2014.74058        -0.67709         5.03411
     2014.74332         2.39255         5.09948
     2014.74606         6.22918         5.04410
     2014.74880         3.00482         4.98327
     2014.75154        -1.84255         5.07678
     2014.75427         3.06309         5.18663
     2014.75701        -4.04928         4.97873
     2014.75975         3.45336         4.99870
     2014.76249         1.86499         4.94514
     2014.76522         4.37963         5.00415
     2014.76796         1.21126         5.14941
     2014.77070         2.78190         5.02594
     2014.77344         2.05553         5.08132
     2014.77618         6.95016         5.16484
     2014.77891         3.19380         4.98781
     2014.78165         2.52843         4.96330
     2014.78439        12.24207         5.22385
     2014.78713         6.66070         5.05772
     2014.78987         1.61034         5.01051
