# ================= DQRFIT RESULTS ================
# INPUT FILE: series/RYA1.rad
# OUTPUT: LDETRENDED
# FILTER FUNCTION: f(t)
# f(t)=+line(t)+annual(t)
# line(t)=+P 1+P 2*t
# annual(t)=+P 3*sin(2*pi*t+P 4)
# heav(t)=(t<0?0:1)
# TOTAL OBSERVATIONS MTOT= 2824
# INITIAL TIME INTERVAL= 2022.7488 - 2014.5818 =  8.1670
# TOTAL OBSERVATIONS AFTER PREFILTER M= 2800
# TIME-SPAN= 2022.7488 - 2014.5818 =  8.1670
# OBSERVATIONS: USED M=  2800 REJECTED MTOT-M=    24 %USED=   99.1501
# N=  4 PARAMETERS
# MAXSIG= 175.00000
# MAXRES=  27.01003
# SCALE FACTOR FOR LENGTHS: SCL=  10.00000
# SCALE FACTOR FOR SIGMAS: SCLSIG=   1.00000
# CHI^2=   4841.664 DOF=  2796 CHI^2/DOF=   1.73164
# RMS=      7.560 SDEV=      7.560 MEAN=   -0.15369
#  P #       PARAMETER +-    SIGMA %error PARAMETER NAME
# P 1 =      5444.56904 +-  118.992   2.19 YZERO                              
# P 2 =        -2.70246 +-    0.059   2.18 SLOPE                              
# P 3 =         4.61689 +-    0.190   4.12 ANNUAL AMPLITUDE                   
# P 4 =         2.81143 +-    0.055   1.95 ANNUAL PHASE                       
#       T            LDETRENDED       SIG_OBS
     2014.58179        -7.43025         7.48231
     2014.58453        -5.81785         7.64022
     2014.58603         8.44421        29.36865
     2014.65147       -15.58793        29.25548
     2014.65297        -0.63387         7.26518
     2014.65571        11.16452         7.22307
     2014.65845         3.44592         7.20070
     2014.66119         9.27332         7.19807
     2014.66392        13.67672         7.34545
     2014.66666         7.22412         7.21255
     2014.66940         4.29852         7.18228
     2014.67214         7.62692         7.47968
     2014.67488        -9.29268         7.16122
     2014.67761       -11.80928         7.20991
     2014.68035        -8.61089         7.21912
     2014.68309       -10.81349         7.24544
     2014.68583        -0.52409         7.20860
     2014.68856        -0.84569         7.13754
     2014.69130        -8.40229         7.24281
     2014.69404       -10.63389         7.14149
     2014.69678        -6.59849         7.23097
     2014.69952        -7.13409         7.17044
     2014.70225        -3.18869         7.07174
     2014.70499        -5.74229         7.07832
     2014.70773        -4.44190         7.15333
     2014.71047         0.95150         7.25465
     2014.71321         4.56790         7.09674
     2014.71594         3.47130         7.09674
     2014.71868        -4.54630         7.10201
     2014.72142        -7.71890         7.11122
     2014.72416        -4.32750         7.13359
     2014.72689        10.18390         7.16912
     2014.72963        -1.48070         7.25334
     2014.73237         1.32369         7.30598
     2014.73511        -6.60391         7.25071
     2014.73785        -7.17751         7.24544
     2014.74058        -4.05311         7.09674
     2014.74332         0.01929         7.11517
     2014.74606         4.15569         7.36782
     2014.74880         1.13209         7.07306
     2014.75154        -4.02651         7.32571
     2014.75427        -7.32711         7.24018
     2014.75701        -6.45272         7.15333
     2014.75975        -1.20032         7.17702
     2014.76249        -7.10592         7.18886
     2014.76522         4.00648         7.15465
     2014.76794        -2.71018         7.20597
     2014.77002         4.48543         9.72463
     2014.79277        -2.81207         7.62574
     2014.79534         2.79387         7.17175
     2014.79808        -0.53673         7.29413
     2014.80082         1.93767         7.13754
     2014.80355         8.97507         7.38756
     2014.80629        -3.84053         7.29808
     2014.80903         7.90686         7.25597
     2014.81177        13.06826         7.09411
     2014.81451         7.50566         7.04148
     2014.81724         7.16606         7.12175
     2014.81998         5.08846         7.19675
     2014.82272        -5.50614         7.41388
     2014.82546         0.68626         7.28492
     2014.82820        -8.84934         7.00463
     2014.83093         2.00806         7.19017
     2014.83367         3.00746         7.18623
     2014.83641         2.72585         7.17833
     2014.83915         1.66025         7.54679
     2014.84188         0.29665         7.32440
     2014.84462         3.10805         7.33361
     2014.84736         1.37545         7.26518
     2014.85010         1.51285         7.21386
     2014.85284        -7.32075         7.19675
     2014.85557         1.84365         7.30598
     2014.85831        -1.41295         7.28492
     2014.86105       -10.31956         7.10990
     2014.86379        -8.47316         7.16912
     2014.86653        -8.26576         7.13885
     2014.86926        -6.69336         7.24939
     2014.87200        -4.34596         7.17965
     2014.87474        -7.30256         7.20465
     2014.87748        -6.30616         7.17702
     2014.88021        -5.00176         7.13096
     2014.88295        -4.36336         7.15465
     2014.88569        -5.08497         7.34151
     2014.88843        -2.85957         7.50600
     2014.89117        17.51683         7.45073
     2014.89390         2.31623         7.32966
     2014.89664         0.31163         7.25729
     2014.89938        -5.66197         7.28360
     2014.90212       -14.26457         7.23097
     2014.90485        -1.28317         7.14280
     2014.90759        15.40323         7.25729
     2014.91033         6.23863         7.12175
     2014.91307        -3.54398         7.05200
     2014.91581        -2.05858         7.01253
     2014.91854         1.58982         7.03358
     2014.92128        -4.21578         7.12569
     2014.92402        -4.21838         7.04279
     2014.92676        -8.59398         7.06121
     2014.92950        -9.20658         7.10332
     2014.93223        -8.60818         7.12043
     2014.93497       -10.88578         7.17307
     2014.93771        -6.66839         7.14017
     2014.94045         1.41101         7.22834
     2014.94318         5.98741         7.34282
     2014.94592         4.64981         7.15465
     2014.94866        -8.98779         7.06911
     2014.95140        -7.65639         6.97831
     2014.95414        -5.86699         7.07437
     2014.95687        -0.02659         7.14938
     2014.95961         4.37081         7.08885
     2014.96235       -12.19679         7.17175
     2014.96509        -1.13140         7.27703
     2014.96783        -4.83600         7.02700
     2014.97056         0.02340         7.12964
     2014.97330        -9.69420         7.13491
     2014.97604        -8.28980         7.11780
     2014.97878        -5.73640         7.02174
     2014.98151         2.39000         7.24018
     2014.98425        -6.40760         7.18754
     2014.98699        -5.24520         6.99016
     2014.98973        -6.52881         7.07832
     2014.99247       -18.42241         6.97700
     2014.99520       -17.73701         7.00463
     2014.99794        -7.96761         6.93489
     2015.00068       -10.04421         6.95199
     2015.00342       -13.53381         6.90330
     2015.00616       -23.17241         6.95594
     2015.00889       -17.72301         7.10859
     2015.01163        -9.15061         7.22570
     2015.01437        -7.67121         7.08622
     2015.01711       -13.31082         7.33098
     2015.01984        -8.78142         7.07306
     2015.02258        -7.06402         7.20465
     2015.02532        -5.23962         7.07569
     2015.02806        -9.30922         7.07043
     2015.03080        -4.89882         7.04016
     2015.03353       -10.79642         7.09148
     2015.03627        -5.64302         7.16912
     2015.03901        -3.34562         7.10596
     2015.04175        10.76977         7.13096
     2015.04449        -6.66083         7.11780
     2015.04722        -7.06943         7.13491
     2015.04996        -1.75103         7.06253
     2015.05270        -4.87863         7.05727
     2015.05544        -3.11923         7.05858
     2015.05817        -5.07683         7.05332
     2015.06091       -12.46943         7.17307
     2015.06365        -0.04203         7.55732
     2015.06639         4.47136         7.29018
     2015.06913        -1.79624         7.12964
     2015.07186       -10.52384         7.04016
     2015.07460        -5.72244         7.11122
     2015.07734       -12.83304         7.06385
     2015.08008       -13.55964         7.03884
     2015.08282        -5.41224         7.00200
     2015.08555        -6.51984         7.04674
     2015.08829        -6.80744         7.06911
     2015.09103        -2.60304         7.14280
     2015.09377        -5.81465         7.05990
     2015.09650        -4.32125         7.14938
     2015.09924         9.65115         7.30992
     2015.10198         5.18055         7.20333
     2015.10472         1.68595         7.07832
     2015.10746        -6.86065         7.10464
     2015.11019       -11.22125         7.15859
     2015.11293       -12.70285         7.20991
     2015.11567       -11.01245         7.07964
     2015.11841       -14.47606         7.01647
     2015.12115        -8.17766         7.07043
     2015.12388       -11.60126         6.99016
     2015.12662       -11.74086         7.06516
     2015.12936        -6.64346         7.07437
     2015.13210        -5.20406         7.02437
     2015.13483        -8.34566         7.17175
     2015.13757        -5.44226         7.04542
     2015.14031       -10.68586         7.00595
     2015.14305        -6.66146         7.01516
     2015.14579        -7.69207         7.14280
     2015.14852        -2.49067         7.09938
     2015.15126        -8.04227         7.00989
     2015.15400        -4.89287         7.02042
     2015.15674        -0.23747         7.00463
     2015.15948        -4.76807         7.06779
     2015.16221        -3.37467         7.01911
     2015.16495        -6.12927         7.05069
     2015.16769        -2.92887         7.03095
     2015.17043        -5.71748         7.06779
     2015.17316        -5.48108         7.38756
     2015.17590        -8.34068         7.28492
     2015.17864        -9.47228         7.04542
     2015.18138        -1.73588         6.99279
     2015.18412        -0.11548         7.12043
     2015.18685        -6.57708         7.30071
     2015.18959        -2.08268         7.08753
     2015.19233        -1.08728         7.29808
     2015.19507        -8.71489         7.08622
     2015.19780         1.81051         7.06648
     2015.20054        -4.73109         7.25729
     2015.20328        -7.75669         7.10596
     2015.20602       -16.35029         7.54416
     2015.20876        -9.68089         7.00858
     2015.21149       -16.76849         6.99937
     2015.21423       -15.02109         7.24281
     2015.21697        -8.28569         7.12175
     2015.21971        -8.03329         7.13491
     2015.22245        -5.20590         6.98752
     2015.22518        -8.03550         7.04937
     2015.22792        -8.49110         6.99147
     2015.23066       -12.31370         7.11648
     2015.23340        -6.06030         7.28624
     2015.23613        -1.47890         7.35598
     2015.23887       -10.60850         7.38625
     2015.24161       -11.34310         7.47968
     2015.24435       -11.82570         7.43625
     2015.24709        -0.93331         7.40072
     2015.24982        -8.57991         7.09938
     2015.25256        -9.18551         7.04806
     2015.25530        -7.02311         7.13491
     2015.25804        -9.27971         7.05727
     2015.26078        -6.80231         7.11780
     2015.26351        -4.65891         7.17833
     2015.26625        -4.94651         7.10069
     2015.26899        -4.74211         7.04806
     2015.27173         0.13329         7.26518
     2015.27446         8.80168         7.34151
     2015.27720         8.55608         7.11517
     2015.27994        -3.27352         7.10727
     2015.28268        -1.60712         7.07437
     2015.28542        -3.87972         7.21518
     2015.28815        -9.03832         7.28887
     2015.29089        -9.29792         7.14149
     2015.29363        -7.71752         7.16254
     2015.29637        -6.94512         7.13754
     2015.29911        -2.75473         7.20728
     2015.30184        -2.06633         7.09280
     2015.30458         1.17007         7.39677
     2015.30732        -3.51753         6.92699
     2015.31006        -4.51913         7.02174
     2015.31279        -3.58473         7.00726
     2015.31553       -11.00633         6.93883
     2015.31827       -11.66093         6.94673
     2015.32101       -10.75553         6.92962
     2015.32375         7.12686         7.21518
     2015.32648        -1.01874         7.15465
     2015.32922        -3.65634         7.18491
     2015.33196         4.07606         6.94936
     2015.33470        -5.22254         6.98621
     2015.33744        -5.09714         6.99542
     2015.34017        -4.57274         7.06648
     2015.34289        -5.64439         7.00858
     2015.34566        -5.02590         7.03621
     2015.34839        -6.75054         6.94541
     2015.35112       -10.26515         7.06779
     2015.35386        -1.35875         7.02569
     2015.35660        -7.84635         7.00068
     2015.35934        -5.70195         7.14807
     2015.36208        -8.50255         7.10069
     2015.36481        -7.42615         6.97831
     2015.36755        -4.30575         7.01384
     2015.37029        -3.81735         7.00595
     2015.37303       -13.81095         7.05727
     2015.37577       -11.46656         6.99279
     2015.37850        -8.62716         7.24939
     2015.38124        -7.26476         7.01911
     2015.38398        -6.64436         7.11780
     2015.38672        -3.60696         7.13227
     2015.38945       -14.98356         7.25992
     2015.39219       -10.70216         7.06779
     2015.39493       -11.98276         7.22570
     2015.39767       -15.43136         7.32308
     2015.40041        -9.09896         7.11912
     2015.40314       -10.83657         7.35993
     2015.40588       -17.49017         7.12043
     2015.40862        -6.44177         7.30861
     2015.41136        -8.67637         7.22702
     2015.41410        -3.79897         7.13227
     2015.41683        -7.85057         7.06648
     2015.41957        -9.80617         7.02832
     2015.42231        -9.11877         7.04674
     2015.42505       -14.25937         7.34414
     2015.42778       -11.38298         7.15333
     2015.43052        -6.27658         7.07437
     2015.43326        -5.98518         7.10069
     2015.43600         4.69622         7.03095
     2015.43874        -4.12938         6.95594
     2015.44147        -0.77698         7.20333
     2015.44421         4.30742         7.20202
     2015.44695        -8.30118         7.10596
     2015.44969       -10.01578         7.03753
     2015.45243        -9.45738         7.17965
     2015.45516        -2.65499         7.16386
     2015.45790         0.32741         7.42178
     2015.46064        -3.66719         7.29018
     2015.46338         3.30921         7.19939
     2015.46611        -0.47339         7.13491
     2015.46885        -0.94099         7.14412
     2015.47159        -1.84259         7.12043
     2015.47433        -5.55919         7.38493
     2015.47707        -7.86179         7.12175
     2015.47980        -2.84840         7.21518
     2015.48254        -5.18900         7.47968
     2015.48528        -4.21660         7.11122
     2015.48802        -6.19420         7.18096
     2015.49076       -10.76980         7.31913
     2015.49349         3.12860         7.56916
     2015.49623        -8.05200         7.47836
     2015.49897        -9.11360         7.26387
     2015.50171        -0.10620         7.14412
     2015.50444         1.47219         7.07043
     2015.50718       -10.09541         7.20202
     2015.50992       -13.99701         7.14017
     2015.51266        -6.02561         7.10859
     2015.51540         1.83279         7.12043
     2015.51813         1.22519         7.20070
     2015.52087        -3.30641         7.25860
     2015.52361         5.67099         7.33098
     2015.52635         6.09539         7.16649
     2015.52908         5.20979         7.13359
     2015.53182         5.26518         7.24544
     2015.53456         5.09858         7.20202
     2015.53730         7.24498         7.18886
     2015.54004        -1.40062         7.23755
     2015.54277        -9.55822         7.19412
     2015.54551         7.11618         7.25334
     2015.54825         1.73958         7.31256
     2015.55099         3.77598         7.32308
     2015.55373         8.64538         7.30861
     2015.55646         5.76077         7.21912
     2015.55920         3.68217         7.25597
     2015.56194        15.28757         7.21912
     2015.56468         6.15697         7.41783
     2015.56741        -4.35763         7.49152
     2015.57015         2.62177         7.59679
     2015.57289        -1.70283         7.63232
     2015.57563         4.73457         7.31519
     2015.57837         1.24497         7.29150
     2015.58110         8.35637         7.35466
     2015.58384        -0.27224         7.38888
     2015.58658         2.47916         7.55863
     2015.58932         4.93456         7.44678
     2015.59206        10.28396         7.51915
     2015.59479         5.20336         7.36124
     2015.59753         2.23076         7.43494
     2015.60027         6.12616         7.60600
     2015.60301         5.43556         7.50994
     2015.60574         5.86296         7.68759
     2015.60848         9.14135         7.62838
     2015.61122        11.38975         7.50731
     2015.61396         6.05315         7.47968
     2015.61670         9.40255         7.37440
     2015.61943         5.37995         7.39414
     2015.62217         8.31135         7.31256
     2015.62491        11.58175         7.26255
     2015.62765         5.05115         7.26123
     2015.63039         9.24755         7.33493
     2015.63312        10.93194         7.28624
     2015.63586        18.01334         7.39151
     2015.63860        -2.52526         7.24676
     2015.64134        -2.47186         7.19939
     2015.64407         3.46454         7.30992
     2015.64681         0.79894         7.49547
     2015.64955         6.59134         7.16254
     2015.65229         6.29674         7.30466
     2015.65503         6.17414         7.21386
     2015.65776         7.02154         7.28887
     2015.66050         8.44893         7.30334
     2015.66324         7.46733         7.28887
     2015.66598         9.15173         7.47836
     2015.66872        11.44713         7.39809
     2015.67145         8.52553         7.21912
     2015.67419         8.17093         7.20860
     2015.67693         9.50233         7.22965
     2015.67967         7.56773         7.37309
     2015.68240         6.37313         7.24150
     2015.68514         0.61952         7.30729
     2015.68788         0.01392         7.51784
     2015.69062         0.08132         7.67706
     2015.69336        -4.93628         7.50468
     2015.69609         5.91712         7.27176
     2015.69883        14.66652         7.27966
     2015.70157         4.74492         7.54942
     2015.70431         9.64532         7.28755
     2015.70705         7.86972         7.18228
     2015.70978        12.43812         7.31124
     2015.71252         5.30451         7.31913
     2015.71526         2.68091         7.18623
     2015.71800        15.42631         7.31782
     2015.72073        19.52471         7.39019
     2015.72347         2.64711         7.22044
     2015.72621        -2.03949         7.27308
     2015.72895        -0.87909         7.16649
     2015.73169         5.16031         7.25597
