# ================= DQRFIT RESULTS ================
# INPUT FILE: series/SATS.rad
# OUTPUT: LDETRENDED
# FILTER FUNCTION: f(t)
# f(t)=+line(t)+annual(t)+jumps(t)
# line(t)=+P 1+P 2*t
# annual(t)=+P 3*sin(2*pi*t+P 4)
# jumps(t)=+P 5*heav(t-2001.1600  )+P 6*heav(t-2001.7508  )
# heav(t)=(t<0?0:1)
# TOTAL OBSERVATIONS MTOT= 2087
# INITIAL TIME INTERVAL= 2003.2879 - 1997.3169 =  5.9710
# TOTAL OBSERVATIONS AFTER PREFILTER M= 2080
# TIME-SPAN= 2003.2879 - 1997.3169 =  5.9710
# OBSERVATIONS: USED M=  2080 REJECTED MTOT-M=     7 %USED=   99.6646
# N=  6 PARAMETERS
# MAXSIG= 175.00000
# MAXRES=  37.98406
# SCALE FACTOR FOR LENGTHS: SCL=  10.00000
# SCALE FACTOR FOR SIGMAS: SCLSIG=   1.00000
# CHI^2=   2453.973 DOF=  2074 CHI^2/DOF=   1.18321
# RMS=      8.886 SDEV=      8.887 MEAN=    0.13254
#  P #       PARAMETER +-    SIGMA %error PARAMETER NAME
# P 1 =     -4242.20393 +-  406.763   9.59 YZERO                              
# P 2 =         2.12002 +-    0.203   9.60 SLOPE                              
# P 3 =         6.44183 +-    0.274   4.26 ANNUAL AMPLITUDE                   
# P 4 =        -2.96066 +-    0.059   2.00 ANNUAL PHASE                       
# P 5 =         3.45846 +-    0.874  25.28 OFFSET 2001.1600                   
# P 6 =       -41.32968 +-    0.845   2.04 OFFSET 2001.7508                   
#       T            LDETRENDED       SIG_OBS
     1997.31691       -18.90107         6.74407
     1997.31964       -19.54887         6.90397
     1997.32238       -16.25468         6.77562
     1997.32481       -18.48182         7.70782
     1997.32786       -27.61529         6.94204
     1997.33060       -18.47409         6.74734
     1997.33333       -21.36590         6.64074
     1997.33607       -22.53170         6.78976
     1997.33881       -22.09350         6.76692
     1997.34155       -15.92731         6.96162
     1997.34428       -19.24311         6.93225
     1997.34702       -27.79792         6.85829
     1997.34976       -17.46072         6.60484
     1997.35250       -19.16753         6.68316
     1997.35524       -20.04533         6.81043
     1997.35797       -15.40913         6.64835
     1997.36345       -10.69474         6.87352
     1997.36619        -6.95255         6.88657
     1997.38261         0.27163         7.17809
     1997.38535         2.16082         7.78288
     1997.38809        -0.35898         7.66431
     1997.39083         4.87721         8.08419
     1997.39357        -2.95659         7.93516
     1997.39630        -5.92139         7.00731
     1997.39904       -16.14520         7.54901
     1997.40178         8.93700         8.63350
     1997.40452         3.28319         7.95039
     1997.40726        -2.14661         7.57729
     1997.40999        -5.36742         7.91667
     1997.41273        -7.44022         7.40543
     1997.41547        -2.19202         7.94713
     1997.41821       -10.95383         7.85141
     1997.42219        -3.46026        26.67063
     1997.42642       -15.71424         7.49789
     1997.42916        -1.46905         7.65996
     1997.43463        -4.88466         7.70238
     1997.43737        -9.99146         8.00369
     1997.44011        -4.79626         8.62589
     1997.44285         5.51993         8.21036
     1997.44559        -8.15987         7.71000
     1997.44832       -13.57168         7.79593
     1997.45380         0.68871         7.78832
     1997.45654        -3.94809         7.31949
     1997.45927         8.68811         7.76547
     1997.46201       -17.61170         7.56859
     1997.46475       -17.33650         7.48918
     1997.46624       -29.88667        28.71017
     1997.47023         3.53889         8.08527
     1997.47296        -5.14892         8.00152
     1997.47570        -8.23372         7.52943
     1997.47844       -22.79052         7.47178
     1997.48118        -8.29633         8.33219
     1997.48392        -0.81313         7.95039
     1997.48665        -2.71094         8.13749
     1997.48939         9.16326         8.17338
     1997.49213         2.24045         7.73828
     1997.49487        10.54065         8.18426
     1997.49760        -4.29115         7.57512
     1997.50034        -1.31696         7.87969
     1997.50308         0.04724         8.27889
     1997.50856        12.07963         8.91197
     1997.51129        12.63782         8.25823
     1997.51403         2.64202         7.81877
     1997.51677        12.76222         8.26040
     1997.51951         1.93641         8.02871
     1997.52225        -8.27339         7.71761
     1997.52498         3.11480         7.93190
     1997.52772        10.70000         7.82204
     1997.53046        14.27319         7.42283
     1997.53320        -3.56661         7.97867
     1997.53593         9.71459         7.95257
     1997.53867        19.01678         7.83291
     1997.54141         0.29198         7.70238
     1997.54415        21.66417         7.82421
     1997.54689        -2.67163         7.72196
     1997.54962         5.91156         7.60557
     1997.55236        16.46876         7.55227
     1997.55510         8.53596         7.97215
     1997.55783        -0.07184         8.28324
     1997.56057         4.77735         7.70891
     1997.56331         4.34754         7.55771
     1997.56605         8.84274         7.68172
     1997.56879         5.38893         7.55010
     1997.57153        -3.09087         7.32820
     1997.57426         5.49933         7.59361
     1997.57700         1.69652         7.70673
     1997.57974        12.42872         7.68824
     1997.58248         0.67191         7.73067
     1997.58522        -9.58389         7.41087
     1997.58795        -9.39170         7.54140
     1997.59069        16.52750         7.66975
     1997.59343        -2.62930         7.54575
     1997.59617        13.32689         7.85684
     1997.59890         8.04909         7.43480
     1997.60164         8.63828         7.62624
     1997.60438         7.38848         7.35865
     1997.60712         4.81667         7.37062
     1997.60986        18.66787         7.31732
     1997.61259        10.51207         7.49789
     1997.61533         4.42026         7.47613
     1997.61807         5.09446         7.36409
     1997.62081        28.02065         7.30427
     1997.62355         5.59385         7.56315
     1997.62627        -3.05894         7.55119
     1997.62902         1.65624         7.53487
     1997.63450         3.27363         7.79484
     1997.63723         5.01483         7.46634
     1997.63997         7.67102         7.40325
     1997.64271        29.52522         7.38476
     1997.64545         9.96241         7.34669
     1997.64819         8.79461         7.56641
     1997.65092         7.62480         7.44785
     1997.65366         3.14700         7.75242
     1997.65640        15.92320         7.41195
     1997.65914        -7.91361         7.45220
     1997.66188         8.52059         7.57512
     1997.66735        16.43998         7.59905
     1997.67009         5.80617         7.57403
     1997.67283         3.42037         7.42827
     1997.67556         3.85557         7.53596
     1997.67816         9.06205         8.03741
     1997.68378        11.61515         7.42501
     1997.68652        14.15635         7.95474
     1997.68925        23.49454         7.65887
     1997.69199         4.14674         7.83183
     1997.69473         3.63894         7.65670
     1997.70021         7.66032         7.44785
     1997.70294         2.14052         7.56424
     1997.70568         2.92072         8.00478
     1997.70842         8.47791         7.39890
     1997.71116         8.21011         7.65779
     1997.71389        -2.13069         7.44459
     1997.71663         7.46850         7.36736
     1997.71937        15.60170         7.49680
     1997.72211         1.64889         7.58056
     1997.72485         3.44309         7.94822
     1997.72758        13.29628         7.73284
     1997.73032         7.73248         7.36518
     1997.73306        18.11068         8.27889
     1997.73579         9.84888         8.02110
     1997.73854        26.75907         8.12878
     1997.74382        24.21587         8.09615
     1997.74675         6.64865         7.46308
     1997.74949        22.10785         8.31696
     1997.75222        18.92005         7.67519
     1997.75496         9.68124         7.81225
     1997.75770         2.93444         8.09180
     1997.76044        21.09763         7.75568
     1997.76318        15.77283         7.15524
     1997.76591         6.11902         7.56968
     1997.76865        11.71522         7.43371
     1997.77413        -6.65939         7.27490
     1997.77687         1.23781         7.25749
     1997.77960         5.35100         7.18353
     1997.78234        -2.37680         7.15416
     1997.78508        -8.39161         7.43915
     1997.78782        -4.51441         7.50115
     1997.79055        -4.76621         7.65887
     1997.79329         9.11498         7.62080
     1997.79603        -2.00582         7.53269
     1997.79877        -2.31763         7.50332
     1997.80150         6.59958         7.29665
     1997.80424        18.29476         7.40325
     1997.80698         6.69396         7.16177
     1997.80972         3.60116         7.23574
     1997.81246        11.32635         7.43262
     1997.81520        -3.62945         7.58273
     1997.82067         1.86294         7.33364
     1997.82341         3.50713         7.17809
     1997.82615        20.12833         8.20057
     1997.82888        11.59953         8.01348
     1997.83436         0.08491         7.44241
     1997.83710         6.99211         7.40651
     1997.83984         1.25531         7.87316
     1997.84257        -7.88850         7.63059
     1997.84531        -2.54630         7.73502
     1997.84805         2.00989         7.65017
     1997.85079         2.60509         7.49462
     1997.85352         5.14429         7.33472
     1997.85626        -1.46852         7.71870
     1997.85900         0.79368         7.48266
     1997.86121        22.42400        10.34671
     1997.86721        15.07126         7.63494
     1997.86995         5.31546         7.59143
     1997.87269         2.37766         7.11608
     1997.87543         7.45285         7.67084
     1997.87817        14.57205         8.37244
     1997.88090         2.62924         7.55227
     1997.88364         3.93544         8.07657
     1997.88638         6.57463         7.93190
     1997.88912         4.04983         8.23321
     1997.89185         2.86203         7.96997
     1997.89459        11.98122         7.67193
     1997.89733        17.39742         7.67084
     1997.90007         3.51261         7.93734
     1997.90281         0.38981         8.04068
     1997.90554         9.17500         7.76656
     1997.90828        -1.97380         7.52508
     1997.91102        -5.30060         7.67737
     1997.91376        -0.50741         7.65343
     1997.91650        -5.90721         7.50006
     1997.91923        -1.03602         7.27490
     1997.92197       -13.07982         8.14836
     1997.92471         9.42837         7.38258
     1997.92745         3.24057         7.56968
     1997.93018        -6.14323         7.56968
     1997.93292         6.55796         7.42609
     1997.93566         1.58316         7.88730
     1997.93840       -11.19865         7.03233
     1997.94114         2.89455         7.85467
     1997.94387        -6.93326         7.38041
     1997.94661        -9.34506         7.37062
     1997.94935       -10.79086         7.59035
     1997.95209        -2.74667         7.33690
     1997.95483         1.72653         7.55554
     1997.95756        -2.34028         7.25205
     1997.96030         5.81392         7.27055
     1997.96304        -2.52189         7.37388
     1997.96578        -1.93469         7.00622
     1997.97125         1.05670         7.28360
     1997.97332        -3.88768        10.16071
     1997.97673       -14.25591         7.54792
     1997.97947         7.82329         7.27816
     1997.98120        37.57762        15.40477
     1997.98494         6.40868         7.38802
     1997.98768         1.88988         7.05735
     1997.99042        12.70007         7.11500
     1997.99589         0.45046         7.16721
     1997.99863         2.38166         7.27490
     1998.00411         6.05405         7.44241
     1998.00684         5.10525         7.51311
     1998.00958         2.17344         7.20746
     1998.01232       -10.28636         7.18896
     1998.01506        -1.08017         7.40434
     1998.01780         3.06903         7.43153
     1998.02053         6.86522         7.38150
     1998.02327        -0.22458         7.26402
     1998.02601        -9.80038         7.11826
     1998.02875        -8.47419         7.41304
     1998.03149       -16.37399         7.77526
     1998.03696         0.05140         7.82965
     1998.03970        17.31359         7.58708
     1998.04244         5.62879         7.74589
     1998.04517         4.19499         7.46417
     1998.05886        28.20496         7.89274
     1998.06160        22.94016         7.80572
     1998.06434         4.04635         7.47178
     1998.06708         8.36355         7.24335
     1998.06982         3.18075         7.19875
     1998.07255        -6.87906         7.49897
     1998.07529         1.88714         7.29774
     1998.07803        -0.73867         7.49789
     1998.08044         0.09922         8.59543
     1998.09828       -15.24759        18.89863
     1998.09993         4.94490         7.14545
     1998.10267         0.54709         7.27707
     1998.10541         1.58629         7.42827
     1998.10815        -4.48351         7.32493
     1998.11088        -3.20532         7.47287
     1998.11362         3.70488         7.60122
     1998.11636        11.53507         7.24009
     1998.11910        -3.49373         7.27381
     1998.12183         0.37346         7.25967
     1998.12457         6.33566         7.19658
     1998.12731        -6.33314         7.13784
     1998.13005        -3.75895         7.24988
     1998.13279         0.74825         7.79049
     1998.13552         4.17244         7.76547
     1998.13826         1.01564         7.23139
     1998.14100         4.47483         7.15089
     1998.14374       -11.10997         7.29230
     1998.14648        -4.71277         6.81695
     1998.14921       -13.05858         6.94531
     1998.15195         0.01662         7.23247
     1998.15469        -7.36819         7.28686
     1998.15743       -17.70099         7.47287
     1998.16016        -3.23880         7.66540
     1998.16290       -11.91660         7.31406
     1998.16564        -1.32840         7.82748
     1998.16838         1.51479         7.22812
     1998.17112        -0.40801         7.02798
     1998.17659        -6.21462         7.04538
     1998.17933        -1.20743         7.40760
     1998.18207        -9.58923         7.34995
     1998.18480        -0.80603         7.23683
     1998.18754        -4.12684         7.80354
     1998.19028       -10.11764         7.53269
     1998.19302        -5.28845         7.22704
     1998.19576        -9.79925         7.28142
     1998.19849        -7.44706         7.39672
     1998.20123        -1.17386         7.47504
     1998.20397         0.58434         7.43588
     1998.20671        -4.00547         7.36518
     1998.20945        -4.08027         7.24009
     1998.21145        -3.17052        10.45984
     1998.21492        -2.35988         7.38694
     1998.21766         7.54331         7.12587
     1998.22040        -4.55249         7.60013
     1998.22313         6.60171         7.49571
     1998.22587        -2.76110         7.55880
     1998.22861        -5.04790         7.14002
     1998.23135        -5.72971         7.11608
     1998.23409        -4.32651         7.38476
     1998.23682         1.35968         7.18244
     1998.23956        -5.39712         7.28142
     1998.24230        -6.62892         7.65126
     1998.24504        -5.84373         8.06787
     1998.24778         1.84747         7.76003
     1998.25051         3.87466         7.12587
     1998.25325        -6.09314         7.02471
     1998.25599        -0.49795         7.44567
     1998.25873        -3.74375         7.44132
     1998.26146        -8.49855         7.59252
     1998.26397        -9.39888         8.56497
     1998.26694        -5.31416         7.42392
     1998.26968        -9.79297         7.09433
     1998.27242         3.72323         7.60557
     1998.27515         1.07943         8.06896
     1998.27789         8.98262         7.54031
     1998.28063        14.81781         7.23030
     1998.28337        -1.58199         7.40978
     1998.28611        -3.16079         7.42609
     1998.28884        -3.99160         7.50224
     1998.29158         2.15060         7.29448
     1998.29432       -10.84221         7.87316
     1998.29706        -9.92201         7.55336
     1998.29979        -4.46482         7.23791
     1998.30253         8.87338         7.66649
     1998.30527        -0.49642         7.34560
     1998.30801         7.49477         7.46417
     1998.31348        -0.21984         7.36518
     1998.31622         2.45136         7.25205
     1998.31896        -1.92145         7.17156
     1998.32050        15.85928        20.46826
     1998.32444        -2.16905         7.45002
     1998.32717        -0.62186         7.85358
     1998.33265         5.39853         7.45873
     1998.33539         2.58973         7.26728
     1998.33812         7.98392         8.00260
     1998.34086         0.18012         7.11173
     1998.34634         7.56051         7.30970
     1998.34908         6.32371         7.31406
     1998.35181         8.08690         7.20310
     1998.35455         0.74810         7.23356
     1998.35728         7.62330         7.00078
     1998.36003         9.25949         7.13893
     1998.36277         7.14469         7.26402
     1998.36550        14.24188         7.27272
     1998.36824         2.34908         7.18353
     1998.37098        10.64327         7.33690
     1998.37372         8.09947         7.13131
     1998.37645         3.03566         7.57512
     1998.37919        -2.32814         7.33581
     1998.38193         4.11906         7.23247
     1998.38467         5.60925         7.52943
     1998.38741         2.16745         7.50115
     1998.39014         2.41364         7.58491
     1998.39288         4.36684         7.76765
     1998.39562         1.35603         7.50006
     1998.39836        -2.42377         7.36844
     1998.40110         3.96443         7.57838
     1998.40383         3.36962         7.78397
     1998.40657         6.55082         7.77961
     1998.40931        -8.86499         7.54466
     1998.41205        -7.00579         7.30209
     1998.41478        -2.99860         7.41630
     1998.41752        -3.10440         7.14872
     1998.42026         1.60080         7.38258
     1998.42300        -2.11901         7.21833
     1998.42574        -4.33381         7.53705
     1998.42847         5.91438         7.36192
     1998.43121         1.45058         7.39237
     1998.43395         5.19377         7.34234
     1998.43669        -1.26703         7.57512
     1998.43943         9.79717         7.50441
     1998.44216        -2.95364         7.51638
     1998.44490         8.26756         7.48592
     1998.44764        -1.08125         7.33907
     1998.45038        -1.30605         7.26619
     1998.45311        -1.86086         7.90035
     1998.45585        -2.90466         7.45438
     1998.45859        -1.17346         7.24226
     1998.46133        -0.59827         7.00187
     1998.46407        -4.54007         7.06605
     1998.46680        -2.19388         7.57838
     1998.46954         3.08532         7.56533
     1998.47228         0.92851         7.51747
     1998.47775         9.94791         8.15706
