# ================= DQRFIT RESULTS ================
# INPUT FILE: series/SCHO.rad
# OUTPUT: LDETRENDED
# FILTER FUNCTION: f(t)
# f(t)=+line(t)
# line(t)=+P 1+P 2*t
# heav(t)=(t<0?0:1)
# TOTAL OBSERVATIONS MTOT=  148
# INITIAL TIME INTERVAL= 2016.6214 - 2011.4962 =  5.1251
# TOTAL OBSERVATIONS AFTER PREFILTER M=  148
# TIME-SPAN=    0.0000 -    0.0000 =  0.0000
# OBSERVATIONS: USED M=   148 REJECTED MTOT-M=     0 %USED=  100.0000
# N=  2 PARAMETERS
# MAXSIG= 175.00000
# MAXRES=   9.24822
# SCALE FACTOR FOR LENGTHS: SCL=  10.00000
# SCALE FACTOR FOR SIGMAS: SCLSIG=   1.00000
# CHI^2=     71.755 DOF=   146 CHI^2/DOF=   0.49147
# RMS=      4.077 SDEV=      4.091 MEAN=   -0.01374
#  P #       PARAMETER +-    SIGMA %error PARAMETER NAME
# P 1 =     -4945.17820 +-  632.457  12.79 YZERO                              
# P 2 =         2.43871 +-    0.314  12.89 SLOPE                              
#       T            LDETRENDED       SIG_OBS
     2011.49624        -1.63224         4.15232
     2011.49898        -2.20191         4.13760
     2011.50172         1.90441         4.15302
     2011.50445        -8.03927         4.24626
     2011.50719        -4.04094         4.18877
     2011.50993        -7.52662         4.19298
     2011.51267        -8.81330         4.23574
     2011.51541       -10.36698         4.19508
     2011.51814        -5.98665         4.21752
     2011.52088        -0.67033         4.10675
     2011.52362        -1.65701         4.06959
     2011.52636        -0.88068         4.09413
     2011.52909        -1.76036         4.16213
     2011.53183         0.75496         4.16774
     2011.53457         3.07629         4.10815
     2011.53731        -5.24339         4.08572
     2011.54005        -2.69907         4.12708
     2011.54278        -2.56674         4.08642
     2011.54552        -4.53742         4.19158
     2011.54826         4.02290         4.02052
     2011.55100         0.46523         4.07170
     2011.55374        -2.57545         4.06959
     2011.55647         1.68187         4.09203
     2011.55921        -6.58280         4.11937
     2011.56195        -2.20048         4.15302
     2011.56469         1.58284         4.07941
     2011.56742         0.79817         4.11096
     2011.57016        -1.03251         4.21331
     2011.57290        -0.94619         4.07450
     2011.57564        -2.33387         4.12568
     2011.57838        -2.74854         4.17545
     2011.58111        -4.36522         4.20420
     2011.58385        -6.52590         4.12708
     2011.58659         0.99243         4.16003
     2011.58933        -6.36425         4.12568
     2011.59206        -2.79893         4.15302
     2011.59480         3.26640         4.06469
     2011.59754         4.09372         4.20560
     2011.60028        -2.28796         4.15863
     2011.60302         2.30537         4.14461
     2011.60575        -5.01231         4.14180
     2011.60849         4.22701         4.28972
     2011.61123         4.46934         4.31566
     2011.61397         2.18766         4.21121
     2011.61671         2.77198         4.18737
     2011.61944         1.96031         4.35422
     2011.62218        -1.51137         4.18176
     2011.62492         2.72195         4.15723
     2011.62766         1.82928         4.12077
     2011.63039        -0.31840         4.11306
     2011.63313         6.73692         4.08502
     2011.63587        -2.26876         4.16704
     2011.63861         0.43957         4.05838
     2012.49282         2.54540         4.06118
     2012.49556        -0.86228         4.03735
     2012.49829         1.28805         4.06609
     2012.50103         6.73737         4.09693
     2012.50377        -9.61831         4.14531
     2012.50651         2.57102         4.11236
     2012.50924         2.86934         4.19999
     2012.51198        -0.39734         4.11586
     2012.51472        -3.77301         4.04436
     2012.51746         2.02031         4.12708
     2012.52020         1.95263         4.08712
     2012.52293         2.45595         4.02543
     2012.52567         1.16728         4.07590
     2012.52841        -0.56040         4.07590
     2012.53115         5.93192         4.09764
     2012.53389         2.02725         4.22453
     2012.53662         3.78157         4.11166
     2012.53936         2.53089         4.10395
     2012.54210         9.24822         4.05627
     2012.54484         3.01154         4.04085
     2012.54757         7.04686         4.10815
     2012.55031         1.95919         4.10605
     2012.55305         3.25051         4.13409
     2012.55579        -0.95717         4.04436
     2012.55853        -2.14984         4.23154
     2012.56126         7.55948         4.10044
     2012.56400        -0.75520         4.21541
     2012.56674        -0.37787         4.16143
     2012.56948         3.18045         4.08221
     2012.57222        -1.10623         4.10044
     2012.57495        -0.88490         4.06469
     2012.57769        -2.37258         4.20910
     2012.58043         7.26274         4.09063
     2012.58317        -2.31394         4.23644
     2012.58590         0.12739         4.05978
     2012.58864         9.07171         4.10745
     2012.59138         2.50603         4.09413
     2012.59412         6.77136         4.07731
     2012.59686         3.23668         4.13409
     2012.59949         5.77426         4.14040
     2013.31417         4.20635         4.09974
     2013.31691         5.32268         4.01772
     2013.31965        -0.04200         4.02753
     2013.32239         0.06132         4.07310
     2013.32512         4.78065         4.09133
     2013.32786         6.80497         4.04155
     2013.33060        -0.91871         3.95042
     2013.33334        -3.64638         4.03454
     2013.33608         0.04094         4.08502
     2013.33881         7.71426         4.04646
     2013.34155         1.99159         4.04295
     2013.34429         0.22091         3.95953
     2013.34703         4.10923         3.99668
     2013.34977        -5.00444         3.97846
     2013.35250        -2.59912         4.05557
     2013.35524         0.64520         4.19228
     2013.35798        -3.17248         4.01912
     2013.36072        -3.93615         3.98967
     2013.36345        -0.27383         4.06048
     2013.36619        -1.60651         4.12217
     2013.36893         2.67782         4.00299
     2013.37167        -0.98486         4.03805
     2013.37441        -5.82854         4.00089
     2013.37714        -3.37321         4.08221
     2013.37988        -0.47389         4.04225
     2013.38262       -10.31457         4.03314
     2013.38536         1.92776         4.06188
     2013.38810         3.22808         4.05768
     2013.39083         5.45140         3.94200
     2013.39357        -4.83127         4.05768
     2013.39631         1.90805         4.03384
     2013.39905         1.52037         4.05627
     2013.40178        -4.18130         3.98266
     2013.40452        -3.96498         4.02192
     2013.40726         3.27234         4.06188
     2013.41000         6.45067         4.03244
     2013.41274        -1.00601         4.00370
     2013.41547        -2.22169         4.10885
     2013.41821         0.55963         4.01982
     2013.42095         6.19596         4.04646
     2013.42369         1.82028         4.03524
     2013.42643        -2.58740         4.06749
     2013.42916         5.47393         4.01281
     2013.43190        -3.53975         4.05067
     2013.43464        -3.49743         4.10535
     2013.43738        -3.20210         4.02683
     2013.44011        -3.72278         4.10815
     2013.44285         0.40654         4.11025
     2013.44559         1.56787         4.15302
     2013.44820        -6.87550         4.31005
     2016.61055        -5.89554         3.98897
     2016.61328        -4.00122         4.06539
     2016.61602        -3.94989         3.92798
     2016.61876        -5.64757         3.95883
     2016.62136         5.35708         4.20700
