# ================= DQRFIT RESULTS ================
# INPUT FILE: series/SEPR.rad
# OUTPUT: LDETRENDED
# FILTER FUNCTION: f(t)
# f(t)=+line(t)+annual(t)
# line(t)=+P 1+P 2*t
# annual(t)=+P 3*sin(2*pi*t+P 4)
# heav(t)=(t<0?0:1)
# TOTAL OBSERVATIONS MTOT= 1600
# INITIAL TIME INTERVAL= 2022.7488 - 2017.7413 =  5.0075
# TOTAL OBSERVATIONS AFTER PREFILTER M= 1556
# TIME-SPAN= 2022.7488 - 2017.7413 =  5.0075
# OBSERVATIONS: USED M=  1556 REJECTED MTOT-M=    44 %USED=   97.2500
# N=  4 PARAMETERS
# MAXSIG= 175.00000
# MAXRES=  47.06107
# SCALE FACTOR FOR LENGTHS: SCL=  10.00000
# SCALE FACTOR FOR SIGMAS: SCLSIG=   1.00000
# CHI^2=   4286.382 DOF=  1552 CHI^2/DOF=   2.76184
# RMS=     10.303 SDEV=     10.306 MEAN=    0.08354
#  P #       PARAMETER +-    SIGMA %error PARAMETER NAME
# P 1 =     43346.08116 +-  383.180   0.88 YZERO                              
# P 2 =       -21.51839 +-    0.190   0.88 SLOPE                              
# P 3 =        13.16458 +-    0.385   2.93 ANNUAL AMPLITUDE                   
# P 4 =         1.23266 +-    0.013   1.03 ANNUAL PHASE                       
#       T            LDETRENDED       SIG_OBS
     2017.74127        -8.68730         9.93472
     2017.74401         1.53362         9.84331
     2017.74674        -0.97947         9.89483
     2017.74948        12.42545         9.85827
     2017.75222        12.87636         9.94635
     2017.75496        -2.08373         9.87655
     2017.75770        -3.94081        10.11254
     2017.76043        -4.89090         9.87323
     2017.76317        -0.31098        10.00784
     2017.76591        12.74293         9.88486
     2017.76865        21.77385         9.92973
     2017.77138        -4.38224         9.85495
     2017.77412        -3.86033         9.85495
     2017.77686       -12.75241         9.89982
     2017.77960        -7.31350         9.86824
     2017.78234         2.99942         9.90480
     2017.78507         4.38133         9.88320
     2017.78781        -0.76376         9.78349
     2017.79055        -4.75384         9.99122
     2017.79329         2.63307        10.05437
     2017.79603         7.83199         9.99454
     2017.79876         0.25490        10.29368
     2017.80150        -0.32019        10.18234
     2017.80424         0.28473        10.32692
     2017.80698         6.61864        10.10921
     2017.80971         2.78356        10.21225
     2017.81245       -12.64953        10.08927
     2017.81519        -5.09261        10.01116
     2017.81793        -8.75570         9.79678
     2017.82067       -12.92079        10.10921
     2017.82340       -10.84087         9.96629
     2017.82614       -13.08596         9.81008
     2017.82888        -9.77904         9.89151
     2017.83162        -6.20113        10.00119
     2017.83436        -0.59422         9.84664
     2017.83709        12.02770        10.12251
     2017.83983         6.02861         9.78515
     2017.84257         6.01053         9.91311
     2017.84531         6.49844         9.96297
     2017.84804        -0.60064         9.82836
     2017.85078        -8.44673        10.00119
     2017.85352        -6.83582         9.99288
     2017.85626         3.32910        10.08927
     2017.85900        -8.52399        10.23884
     2017.86173         7.62593        10.27374
     2017.86447         1.89284         9.93472
     2017.86721        12.54375        10.03277
     2017.87000         2.31390        10.21890
     2017.87269         8.45758        10.02778
     2017.87542        13.96050         9.87821
     2017.87816        15.30741         9.87323
     2017.88090         9.12733         9.97128
     2017.88312       -10.11491        13.26845
     2017.88637         4.13915        10.81219
     2017.88911         3.71907         9.96962
     2017.89185        -0.10302         9.98623
     2017.89459         5.53090        10.03609
     2017.89733        14.95081        10.12085
     2017.90006         6.26072        10.03443
     2017.90280        -0.09636        10.04440
     2017.90554         6.88555         9.85827
     2017.90828         3.12247        10.06102
     2017.91102        15.59538        10.17070
     2017.91375        -1.59170        10.21890
     2017.91649         0.62321        10.07598
     2017.91923         2.39012        10.01615
     2017.92197        14.12904        10.13913
     2017.92470         4.17195        10.07598
     2017.92744        -6.96013        10.13248
     2017.93018        -5.64722        11.20772
     2017.93292        -4.97131        10.16406
     2017.93566         2.61961        10.13248
     2017.93839         2.33952        10.09924
     2017.94113         0.37244        10.12417
     2017.94387         0.07435        10.14578
     2017.94661         2.79527        10.12916
     2017.94935         2.83618        10.13913
     2017.95208        -3.57391        10.27208
     2017.95482        -2.01999        10.20893
     2018.21791         3.05219        10.96508
     2018.22039         9.27668        10.07431
     2018.22313         4.68459        10.05271
     2018.22587        -6.23649        10.07598
     2018.22861       -12.22958        10.11919
     2018.23134         4.85334        10.80720
     2018.23408        26.61025        10.18732
     2018.23682        -4.41883        10.25214
     2018.23956        -7.16992        10.18566
     2018.24230         1.53099        10.14411
     2018.24503        -8.49109        10.23053
     2018.24777        -1.65318        10.23385
     2018.25051         9.26074        10.27374
     2018.25325        -2.82435        10.23053
     2018.25598         0.16256        10.17403
     2018.25872         3.63848        10.34852
     2018.26146         1.41039        10.55958
     2018.26420        15.18531        10.19563
     2018.26694         5.42722        10.15741
     2018.26967         5.00614        10.33024
     2018.27241         0.29805        10.38841
     2018.27515        15.29796        10.23718
     2018.27789         9.36188        10.38342
     2018.28062         0.14779        10.54296
     2018.28336         5.54771        10.22721
     2018.28610        -0.05438        10.13580
     2018.28884         2.11653        10.23385
     2018.29158         7.90845        10.44325
     2018.29431        -4.59064        10.50474
     2018.29705        -6.81572        10.07764
     2018.29979        -5.71881        10.30033
     2018.30253        -6.83890        10.15907
     2018.30527        -8.54798        10.23718
     2018.30800        -5.92807        10.29867
     2018.31074       -11.18515        10.26377
     2018.31348         2.71376        10.14744
     2018.31622        -4.28432        10.22056
     2018.31895         3.93659        10.52136
     2018.32169        -4.31050        10.14578
     2018.32443        -4.77758        10.11254
     2018.32717       -13.99467        10.16738
     2018.32991        -4.75475        10.50973
     2018.33264        -7.06684        10.19896
     2018.33538       -14.06293        10.43162
     2018.33812        -9.87101        10.70250
     2018.34086       -13.12810        10.25878
     2018.54192         7.22251        32.76728
     2018.54620        -4.34154         9.77850
     2018.54893       -11.26462         9.90480
     2018.55167       -11.88671         9.84664
     2018.55441        -6.95179         9.95798
     2018.55715        -8.65988        10.02778
     2018.55989       -10.55096        10.16073
     2018.56262        -7.01405         9.85993
     2018.56536        -7.80514         9.89151
     2018.56810        -0.45822         9.96131
     2018.57084        -5.84031        10.04274
     2018.57357         0.60261        10.24050
     2018.57631       -14.35248        10.40503
     2018.57905        -7.17157        10.46984
     2018.58179        -3.30965        10.08761
     2018.58453       -17.56674        10.18566
     2018.58726        -2.75982         9.85495
     2018.59000        -2.58991         9.85162
     2018.59274        -0.84399         9.93305
     2018.59548         2.57992         9.99953
     2018.59822        -3.47017         9.91477
     2018.60095        -7.92225         9.87655
     2018.60369         0.57066         9.90148
     2018.60643        -0.86942         9.93305
     2018.60917        -5.69051         9.83500
     2018.61190        -1.92260         9.97128
     2018.61464         1.93632         9.92142
     2018.61738         1.91323         9.83999
     2018.62012         4.61915         9.93305
     2018.62286         2.89806        10.25047
     2018.62559         1.75697        10.17901
     2018.62833        -7.13411         9.86658
     2018.63107        -4.29320         9.87156
     2018.63381        -4.03228        10.12417
     2018.63655        -1.46437         9.99953
     2018.63928        -2.11145        10.38675
     2018.64202        -7.26154        10.35517
     2018.64476         1.16437         9.87323
     2018.64750        -7.00371         9.98956
     2018.65023         5.19520        10.04939
     2018.65297         5.63312        10.04939
     2018.65571        -0.13097         9.95964
     2018.65845        -2.14406         9.86492
     2018.66119         3.28186        10.16239
     2018.66392         4.85777         9.88486
     2018.66666        -1.48031         9.87323
     2018.66940        -0.16140        10.06268
     2018.67214        -6.79648         9.97460
     2018.67488        -3.78357        10.14578
     2018.67761        -3.25566         9.92475
     2018.68035        -5.13074        10.10090
     2018.68309       -13.84483        10.13580
     2018.68583        -1.89891        10.03111
     2018.68856        -8.82500         9.95466
     2018.69130        -5.68409         9.95300
     2018.69404        -3.21917        10.16572
     2018.69678         0.12474         9.94967
     2018.69952         1.79166        10.00452
     2018.70225        -5.15343        10.21557
     2018.70499        -7.99551         9.95632
     2018.70773       -22.00460        10.03775
     2018.71047        -9.93669         9.99787
     2018.71321        -5.98277        10.04606
     2018.71594        -9.01486         9.87323
     2018.71868       -12.14094         9.89317
     2018.72142       -12.68503         9.98457
     2018.72416         9.52488         9.96297
     2018.72689         0.01280         9.95798
     2018.72963        -3.83129         9.98956
     2018.73237       -10.49737        10.10423
     2018.73511        -9.50746         9.86824
     2018.73785        -6.16854         9.89151
     2018.74058        -8.66163         9.81174
     2018.74332        -1.84772        10.00452
     2018.74606       -10.87380         9.95300
     2018.74880         2.35511         9.92142
     2018.75427        -2.99406         9.94801
     2018.75701        -3.38315        10.12417
     2018.75975        -3.80323         9.98125
     2018.76249        18.91668        10.00285
     2018.76522        -7.36240        10.05936
     2018.76796         3.32251         9.87821
     2018.77070        10.68142        10.04606
     2018.77344        -2.17466         9.92973
     2018.77618        -6.28675         9.97959
     2018.77891        -1.49783         9.79678
     2018.78165        -9.49492         9.93804
     2018.78439       -10.32300         9.89649
     2018.78713        -7.84109         9.99288
     2018.78987       -12.22718        10.06600
     2018.79260       -12.32426         9.92308
     2018.79534        -0.03035         9.92142
     2018.79808       -11.04043         9.86326
     2018.80082        -5.30752         9.87987
     2018.80355        -4.88061         9.91311
     2018.80629        -4.05269        10.18067
     2018.80903        -7.62378         9.92641
     2018.81177        -8.29586        10.47317
     2018.81451        -2.56095        10.13248
     2018.81724         5.68097        10.05437
     2018.81998        -1.47312        10.02944
     2018.82272         1.03479        10.01449
     2018.82546        -0.41729         9.94469
     2018.82820        -4.62138         9.89982
     2018.83093         1.26354         9.95632
     2018.83367         0.15245         9.76687
     2018.83641         9.49136        10.09426
     2018.83915         7.99928         9.89317
     2018.84188        -3.08081        10.11420
     2018.84462        16.43711         9.90979
     2018.84736        17.98902         9.80675
     2018.85010        23.01394         9.96297
     2018.85284         4.13585         9.96962
     2018.85557       -12.94024        10.07598
     2018.85831        -7.61132         9.93638
     2018.86105        -5.21941         9.90979
     2018.86379        -1.95849        10.08096
     2018.86653         0.45042         9.94635
     2018.86926        -5.81767        10.06434
     2018.87200         0.92825        10.06102
     2018.87474         9.28816         9.92973
     2018.87748        -3.52292        10.05271
     2018.88021        -7.41601        10.19065
     2018.88295        -7.26709        10.14411
     2018.88569        -4.23018        10.19065
     2018.88843        -1.34327        10.19231
     2018.89117        10.24665        10.18234
     2018.89390        12.62456        10.17569
     2018.89664        13.08248        10.35019
     2018.89938         3.08739        10.05936
     2018.90212         1.43630        10.07598
     2018.90485        13.56522        10.00618
     2018.90759         8.43313        10.16406
     2018.91033        14.74105         9.80177
     2018.91307        19.24596         9.99288
     2018.91581        13.99188         9.75357
     2018.91854        18.99779         9.87821
     2018.92128        12.45570         9.92973
     2018.92402        11.41462         9.86326
     2018.92676        18.35353         9.78016
     2018.92950        17.62345         9.85993
     2018.93223         9.84936        10.26709
     2018.93497        18.77827        10.03775
     2018.93771        18.40719         9.92973
     2018.94045        26.68610         9.81174
     2018.94318        23.91002         9.77351
     2018.94592        44.30493         9.83833
     2018.94866        28.86684        10.05603
     2018.95140        18.86376        10.24549
     2018.95414        27.49167         9.95134
     2018.95687        20.56459         9.90480
     2018.95961        33.72650         9.79844
     2018.96235        32.69742         9.92807
     2018.96509        32.86233         9.98291
     2018.96783        30.36824        10.16904
     2019.03197        49.54553        28.90507
     2019.03353        37.92718        22.30575
     2019.03627         6.06410        16.82487
     2019.03901        16.81801        16.51908
     2019.04082         1.94988        18.46348
     2019.06365        60.20024        13.42466
     2019.06639        15.04015        10.29701
     2019.06913         8.55807        10.47150
     2019.07186         9.97898        10.45156
     2019.07460         6.47790        10.09426
     2019.07734         7.43781        10.09259
     2019.08008        13.00672        10.10257
     2019.08282        10.01264        10.50973
     2019.08555        15.85455        10.09426
     2019.08829        17.59447        10.02280
     2019.09103        18.07338        10.02778
     2019.09377        11.30630         9.93139
     2019.09650         6.20021        10.03941
     2019.09924         2.37112        10.07099
     2019.10198         4.27704        10.00285
     2019.10861        33.64572        25.45833
     2019.11019         8.67078        10.13082
     2019.11293        17.82669        10.28039
     2019.13056        34.56306        28.88845
     2019.13210        16.40409        13.18037
     2019.13483        22.71501        14.13429
     2019.13757        20.74592        14.46334
     2019.14031        19.34884         9.98125
     2019.14305        12.78475        10.09758
     2019.14579        14.43166        10.09592
     2019.14852         8.40858        10.01781
     2019.15126        15.09349        14.81399
     2019.15400        16.85441        12.26800
     2019.15674        14.66332        10.16904
     2019.15948         8.74823         9.96297
     2019.16221        14.08115        10.35351
     2019.16495         8.48206        10.09758
     2019.16769        -0.92202        10.07431
     2019.17043         2.74989         9.91477
     2019.17316         3.43481        10.10257
     2019.17590         4.61172        10.00452
     2019.17864         7.45963        10.07431
     2019.18138         1.65755        10.08429
     2019.18412       -10.19454        10.01282
     2019.18685         1.56638         9.93804
     2019.18959         5.39329        10.06933
     2019.19233        11.40620        10.17403
     2019.19507        23.15812        10.15408
     2019.19780        11.17003        10.05271
     2019.20054         6.15695        10.42331
     2019.20328        -2.09614        10.00119
     2019.20602        -0.73522        10.20560
     2019.20876         2.77569        10.12916
     2019.21149         2.07960        10.24715
     2019.21423         9.88952        10.10755
     2019.21697         7.23143        10.00285
     2019.21971         9.81335        10.41168
     2019.22245         9.85926        10.05437
     2019.22518         8.87217        10.20726
     2019.22792         7.33209        10.11420
     2019.23066         5.95200        10.00119
     2019.23340         5.89092        10.03941
     2019.23613         6.92283        10.00285
     2019.23887         2.22975         9.93472
     2019.24161         4.15966        10.51970
     2019.24435         3.26957        10.40503
     2019.24709         0.02849        10.32027
     2019.24982        13.13340        10.02612
     2019.25256        20.83932        10.42331
     2019.25530        10.58923        10.07099
     2019.25804         6.71714        10.09093
     2019.26078        22.18506        10.08429
     2019.26351        13.47097        10.12583
     2019.26625         9.99989        10.19231
     2019.27451        21.28665        10.20062
     2019.27725        18.23657        10.47150
     2019.27994        13.69446        10.16904
     2019.28268        11.56037        10.12251
     2019.28542         9.30029        10.01615
     2019.28815        10.53920        10.12085
     2019.29089        15.98311        10.08096
     2019.29363         9.56003        10.25214
     2019.29637         4.66994        10.38342
     2019.29911        15.05086        10.20394
     2019.30184         3.36077        10.26543
     2019.30458         2.65368        10.22388
     2019.30839        15.15161        23.32947
     2019.31006         5.38651        10.06933
     2019.31279        -4.18457        10.10589
     2019.31553         6.06634         9.98790
     2019.31827        -3.36974        10.36514
     2019.32101         0.63217        10.21391
     2019.32375       -14.68692        10.43827
     2019.32648        -6.49000        10.66594
     2019.32922        -3.33109         9.94801
     2019.33196        -4.80217        10.39007
     2019.33470        -2.45226        10.36681
     2019.33744        -0.99235        10.41666
     2019.34017        -6.50043         9.97294
     2019.34291        -8.87352        10.70583
     2019.34565       -15.89560        10.73076
     2019.34839       -10.70869        10.24715
     2019.35112       -17.61477        10.19729
     2019.35386       -14.96386         9.88652
     2019.35660       -21.95595        10.27873
     2019.35934       -17.00203        10.34022
     2019.36208       -17.37812         9.98457
     2019.36481       -14.03220         9.98790
     2019.36755       -18.51429        10.26377
     2019.37029        -7.78438         9.90480
     2019.37303        -7.36346        10.05271
     2019.37577       -15.53655        10.53133
