# ================= DQRFIT RESULTS ================
# INPUT FILE: series/SEQM.rad
# OUTPUT: LDETRENDED
# FILTER FUNCTION: f(t)
# f(t)=+line(t)+annual(t)
# line(t)=+P 1+P 2*t
# annual(t)=+P 3*sin(2*pi*t+P 4)
# heav(t)=(t<0?0:1)
# TOTAL OBSERVATIONS MTOT= 2837
# INITIAL TIME INTERVAL= 2022.7488 - 2014.5818 =  8.1670
# TOTAL OBSERVATIONS AFTER PREFILTER M= 2797
# TIME-SPAN= 2022.7488 - 2014.5818 =  8.1670
# OBSERVATIONS: USED M=  2797 REJECTED MTOT-M=    40 %USED=   98.5901
# N=  4 PARAMETERS
# MAXSIG= 175.00000
# MAXRES=  24.30722
# SCALE FACTOR FOR LENGTHS: SCL=  10.00000
# SCALE FACTOR FOR SIGMAS: SCLSIG=   1.00000
# CHI^2=   2974.310 DOF=  2793 CHI^2/DOF=   1.06492
# RMS=      5.768 SDEV=      5.769 MEAN=    0.04811
#  P #       PARAMETER +-    SIGMA %error PARAMETER NAME
# P 1 =     -1715.41308 +-   96.547   5.63 YZERO                              
# P 2 =         0.85324 +-    0.048   5.60 SLOPE                              
# P 3 =         4.65808 +-    0.149   3.20 ANNUAL AMPLITUDE                   
# P 4 =         3.13426 +-    0.045   1.44 ANNUAL PHASE                       
#       T            LDETRENDED       SIG_OBS
     2014.58179         3.82511         5.67055
     2014.58453         4.18478         5.71493
     2014.58726         3.28944         5.91822
     2014.59000         6.04510         5.66436
     2014.59274         4.88077         5.66230
     2014.59548         5.03443         5.73144
     2014.59822         7.77809         5.92235
     2014.60095         2.68276         5.79645
     2014.60369         6.97342         5.60863
     2014.60643        -3.35291         5.61792
     2014.60917         4.46875         5.63443
     2014.61190        11.54841         5.83257
     2014.61464         6.50408         5.65198
     2014.61738         5.11074         5.75724
     2014.62012         8.01441         5.73040
     2014.62286         8.95207         5.62102
     2014.62559         4.70873         5.58800
     2014.62833         2.63440         5.66333
     2014.63107        18.84506         5.71905
     2014.63381         5.06673         5.78407
     2014.63655         8.45139         5.57768
     2014.63928         4.65105         5.60038
     2014.64202         0.67072         5.58903
     2014.64476         1.61738         5.66333
     2014.64750         1.12405         5.57045
     2014.65023        -2.40329         5.56839
     2014.65297         6.61237         5.60554
     2014.65571         7.16504         5.63443
     2014.65802        12.25607         6.74584
     2014.67858        -1.70147        11.52582
     2014.68035         9.52201         5.58593
     2014.68309         5.77768         5.57664
     2014.68583         4.12434         5.66436
     2014.68856         5.09001         5.69222
     2014.69130         3.05967         5.62927
     2014.69404         3.97633         5.58284
     2014.69678         2.20600         5.58180
     2014.69952         7.37466         5.52711
     2014.70225         6.50032         5.60348
     2014.70499         7.17299         5.60760
     2014.70773        11.09765         5.61792
     2014.71047        10.17432         5.65920
     2014.71321        10.14498         5.49718
     2014.71594         5.50264         5.66333
     2014.71868         7.62031         5.57974
     2014.72142         1.33697         5.64063
     2014.72416        13.11964         5.66539
     2014.72689         9.73930         5.69635
     2014.72963        13.81796         5.71596
     2014.73237        -3.71137         5.80161
     2014.73511         3.60929         5.65301
     2014.73785         3.46996         5.57355
     2014.74058         1.65762         5.55394
     2014.74332         3.82428         5.73247
     2014.74606        13.43895         5.72834
     2014.74880         6.07261         5.60038
     2014.75154         6.62228         5.68809
     2014.75427         3.04294         5.62927
     2014.75701        14.41360         5.79748
     2014.75975         7.96027         5.72834
     2014.76249         3.73693         5.66849
     2014.76522         7.10860         5.61070
     2014.76793         7.22028         5.65301
     2014.77002         4.73851         7.51464
     2014.79289        10.35399         6.33203
     2014.79513         9.11308         6.18343
     2014.82085         9.01614         9.70856
     2014.82272        13.65054         5.96775
     2014.82546        11.92820         5.63340
     2014.82820         9.85987         5.65094
     2014.83093         4.89853         5.61276
     2014.83367        -0.02781         5.58696
     2014.83641        -5.09814         5.72215
     2014.83788        17.18860        22.61719
     2014.85928         8.87535        10.36075
     2014.86105         1.35583         5.58696
     2014.86379         2.76550         5.61379
     2014.86653         4.16616         5.61173
     2014.86926        -1.53917         5.64475
     2014.87200         1.50349         5.59109
     2014.87474         1.05315         5.57768
     2014.87748         1.87582         5.59419
     2014.88021         3.73348         5.58696
     2014.88295         1.55115         5.72524
     2014.88569         7.46681         6.25876
     2014.88843         6.59647         5.87694
     2014.89117        11.07414         5.90584
     2014.89390         4.34980         5.88313
     2014.89664         6.59447         5.78407
     2014.89938         0.54113         5.81915
     2014.90212        -0.17021         5.80574
     2014.90485         3.25046         5.75001
     2014.90759         3.49812         5.83670
     2014.91033         3.72378         5.66539
     2014.91307         2.91045         5.64269
     2014.91581        -0.96689         5.59212
     2014.91854         4.11878         5.60451
     2014.92128         3.01644         5.57768
     2014.92402         5.86110         5.59832
     2014.92676         2.96477         5.72112
     2014.92950         2.88343         5.68087
     2014.93223        -8.16590         5.57871
     2014.93497        -9.91024         5.74279
     2014.93771        -9.69758         5.97394
     2014.94045        -8.96291         5.81606
     2014.94318         3.37075         5.88726
     2014.94592        -3.03858         5.62515
     2014.94866       -13.53092         5.52814
     2014.95140        -5.03726         5.53949
     2014.95414        -1.48559         5.57974
     2014.95961        -0.82526         5.54156
     2014.96235        -0.12660         5.49925
     2014.96509         0.75206         5.68294
     2014.96783        -4.75227         5.59935
     2014.97056        -3.29761         5.68087
     2014.97330        -5.93494         5.59316
     2014.97604        -9.47728         5.55497
     2014.97878        -3.93862         5.55085
     2014.98151         0.52405         5.69325
     2014.98425        -8.49329         5.60451
     2014.98699        -2.18562         5.54672
     2014.98973        -2.41496         5.52711
     2014.99247        -3.34930         5.50028
     2014.99520        -6.66963         5.50750
     2014.99794        -0.76197         5.54672
     2015.00068        -1.08830         5.57871
     2015.00342        -4.92364         5.59419
     2015.00616        -7.32698         5.47758
     2015.00889        -0.73431         5.57045
     2015.01163        -0.49465         5.62102
     2015.01437        -7.45299         5.67055
     2015.01711        -4.86532         5.75414
     2015.01984         2.98434         5.59728
     2015.02258        -6.82799         5.75311
     2015.02532        -0.85233         5.60863
     2015.02806         2.75533         5.67674
     2015.03080        -1.18900         5.61895
     2015.03353         1.00366         5.60348
     2015.03627         0.61833         5.57252
     2015.09924        14.14260         5.77478
     2015.13210        -3.59644         5.57252
     2015.13483        -0.96177         5.62927
     2015.15126         0.17821         5.53021
     2015.15400        -1.59512         5.51060
     2015.15674        -0.53046         5.49615
     2015.15948         4.37120         5.54569
     2015.16221         2.83287         5.52711
     2015.16495        -0.31347         5.52195
     2015.16769         2.96120         5.50131
     2015.17043         2.80586         5.51886
     2015.17316         1.99852         5.71699
     2015.17590        -8.43881         5.64269
     2015.17864        -5.39715         5.52195
     2015.18138        -0.34648         5.49822
     2015.18412         2.64018         5.50131
     2015.18685         6.26584         5.53227
     2015.18959        11.37451         5.72112
     2015.19233         2.68417         5.82328
     2015.19507        -0.84216         5.48687
     2015.19780         3.74750         5.59109
     2015.19931         9.65321        17.97756
     2015.20418         0.39806         9.42271
     2015.20602       -10.09151         5.67571
     2015.20876         0.53116         5.60141
     2015.21149        -5.20618         5.55291
     2015.21423        -2.12052         5.72731
     2015.21697         0.57115         5.60657
     2015.21971        -1.59819         5.54569
     2015.22245        -4.75953         5.45178
     2015.22518         1.68214         5.51370
     2015.22792         1.12980         5.50234
     2015.23066        -3.42553         5.55807
     2015.23340        -2.46287         5.62205
     2015.23613        -1.92821         5.76033
     2015.23887        -2.65854         5.79955
     2015.24161         1.45412         5.88623
     2015.24435         2.10779         5.87385
     2015.24709        -8.30555         5.64991
     2015.24982         0.25711         5.45900
     2015.25256         0.74278         5.53537
     2015.25530        -1.16156         5.56220
     2015.25804        -0.67089         5.52505
     2015.26078         7.71977         5.53537
     2015.26351        -0.70257         5.51576
     2015.26625         3.02610         5.50131
     2015.26899        -2.88424         5.59832
     2015.27173         6.26043         5.61173
     2015.27446         8.77909         5.67468
     2015.27720         2.37475         5.54878
     2015.27994        -2.35258         5.53743
     2015.28268         1.41408         5.55291
     2015.28542        -0.94325         5.65714
     2015.28815        -2.97759         5.80367
     2015.29089        -6.38293         5.71183
     2015.29363        -2.74326         5.55807
     2015.29637         1.48040         5.52092
     2015.29911         2.62707         5.50647
     2015.30184         3.11973         5.51679
     2015.30458        -5.38261         5.64475
     2015.30732        -1.22494         5.47448
     2015.31006         0.52072         5.44971
     2015.31279        -3.42361         5.38883
     2015.31553        -5.76895         5.40637
     2015.31827        -5.09029         5.43733
     2015.32101       -14.55362         5.44662
     2015.32375        -6.05496         5.33723
     2015.32648        -3.14530         5.48893
     2015.32907         0.41449         5.85011
     2015.34112        -0.26679         9.49495
     2015.34289        -5.12030         6.14009
     2015.36036        -4.42620        10.69098
     2015.36208         1.47834         5.43836
     2015.36481        -0.47700         5.37541
     2015.36755        -1.98934         5.40225
     2015.46163         1.74439        11.62489
     2015.46338         0.89990         5.56942
     2015.46611         4.42257         5.49615
     2015.46885         0.81523         5.44868
     2015.47159         7.14389         5.45591
     2015.47433         1.34456         5.60244
     2015.47707         0.07522         5.58180
     2015.47980        -1.38011         5.51370
     2015.48254        -4.93945         5.67881
     2015.48528         4.94121         5.43733
     2015.48802         5.34988         5.41463
     2015.49076         3.60254         5.49202
     2015.49349         3.85921         5.63856
     2015.49623        -0.69013         5.70667
     2015.49897         1.17453         5.50338
     2015.50171         4.09720         5.50028
     2015.50444         5.86086         5.40947
     2015.50718         1.24953         5.46932
     2015.50992         6.55919         5.40534
     2015.51266         0.71385         5.41256
     2015.51540         2.86852         5.43011
     2015.51813         4.95818         5.57458
     2015.52087         4.24885         5.46829
     2015.52361         5.47851         5.55601
     2015.52635         3.99417         5.42598
     2015.52908         5.56884         5.42598
     2015.53182         8.01750         5.43114
     2015.53456         5.65216         5.43836
     2015.53730         2.45883         5.47964
     2015.54004         0.21349         5.59212
     2015.54254         2.91636         5.93679
     2015.57066         3.63437         7.72000
     2015.57289        -1.22354         5.93886
     2015.57518         7.04651         6.73655
     2015.58978        -4.38195         7.27729
     2015.59206         9.00011         5.76033
     2015.59479         4.83877         5.63340
     2015.59753         4.57544         5.76859
     2015.60027        13.07310         5.92338
     2015.60301        11.23876         5.95847
     2015.60574        10.32743         5.90893
     2015.60848         9.16409         5.67571
     2015.61122         9.99776         5.65610
     2015.61396         9.65842         5.69429
     2015.61670         9.39708         5.57664
     2015.61943         5.62575         5.61173
     2015.62217         8.59141         5.61586
     2015.62491        14.11708         5.54775
     2015.62765        10.58274         5.56839
     2015.63039        16.58840         5.62308
     2015.63312         8.53207         5.82122
     2015.63586        13.60173         5.59832
     2015.63860         2.96139         5.54981
     2015.64134        11.45406         5.52814
     2015.64407        10.09772         5.58696
     2015.64681         5.81539         5.63650
     2015.64955         9.99305         5.51782
     2015.65229         6.33471         5.61689
     2015.65503        20.19638         5.72524
     2015.65776        13.04304         5.82947
     2015.66050        14.24371         5.71080
     2015.66324        18.76937         5.53743
     2015.66598        17.74903         5.76859
     2015.66872        10.85170         5.78200
     2015.67145        10.59736         5.53640
     2015.67419         6.10903         5.52608
     2015.67693         7.74569         5.53433
     2015.67967         9.41035         5.71699
     2015.68240         4.00802         5.57355
     2015.68514         7.38968         5.66023
     2015.68788         4.80935         5.60760
     2015.69062        11.71301         5.86765
     2015.69336        10.84567         5.71905
     2015.69609         8.09134         5.54259
     2015.69883        15.14500         5.71905
     2015.70157         8.24867         5.70151
     2015.70431        12.58533         5.62308
     2015.70705        10.03599         5.54362
     2015.70978        15.44866         5.59212
     2015.71251         5.70633         5.66230
     2015.71526         8.51999         5.59625
     2015.71800         5.52765         5.70977
     2015.72073         8.03531         5.70254
     2015.72347         5.55298         5.52298
     2015.72621         7.80764         5.54878
     2015.72895         7.86131         5.66746
     2015.73169         9.81797         5.59316
     2015.73442         5.06663         5.59832
     2015.73713        11.14333         5.69738
     2015.73992        12.51994         5.66539
     2015.74264        10.40162         5.66023
     2015.74538        11.96229         5.81606
     2015.74811         0.53195         5.82844
     2015.75085        -2.05038         5.61379
     2015.75359         4.38228         5.63031
     2015.75633         8.84194         5.49202
     2015.75906         8.66661         5.64888
     2015.76180         4.68227         5.67055
     2015.76454         3.00894         5.59935
     2015.76683         6.31398         6.91714
     2015.77064        13.63273         8.06467
     2015.77275        22.42793         5.82225
     2015.77549        -0.07541         5.64785
     2015.77823        13.83626         5.68190
     2015.78097         9.91992         5.59006
     2015.78378        -0.03348         8.95111
     2015.78772        23.77416        23.21882
     2015.78918         6.35891         5.62824
     2015.79192        14.16058         5.63650
     2015.79466         9.51124         5.58490
     2015.79739        12.27690         5.64888
     2015.80013        15.26657         5.98323
     2015.80287        -7.69477         5.91306
     2015.80561        -0.26910         5.60863
     2015.80835         0.68256         5.56736
     2015.81108        -0.22278         5.67571
     2015.81382        12.01089         5.83463
     2015.81656         4.43255         5.75930
     2015.81930         0.82922         5.60967
     2015.82203         8.19688         5.73969
     2015.82477         6.34754         5.73969
     2015.82751        11.51221         5.70254
     2015.83025        12.75887         5.96569
     2015.83299         5.62454         5.85630
     2015.83572         4.35520         5.66436
     2015.83846        -1.98214         5.82122
     2015.84120        -3.67647         5.74279
     2015.84394        -2.25881         5.72421
     2015.84547        -7.63111        25.82036
     2015.86126         0.90341         9.37318
     2015.86310        -0.24016         5.80264
     2015.86490        11.46530        11.06867
     2015.89965         5.00365         9.87471
     2015.90143        -0.24387         5.71389
     2015.90417        -4.00320         5.67674
     2015.90691         0.85746         5.63753
     2015.90965         1.04313         5.88932
     2015.91238         1.51679         5.74795
     2015.91512        -1.47755         5.69945
     2015.91786        -0.73388         5.73453
     2015.92060         7.75978         5.78819
     2015.92334         0.94045         5.65301
     2015.92577        -6.75863         6.53842
     2015.93796        10.48597        10.23382
     2015.93976         8.18843         6.09262
     2015.94250         0.14909         5.88623
     2015.94524        -6.29224         5.83360
     2015.94798         1.16642         5.81502
     2015.95071         4.90508         5.59522
     2015.95345        -3.55425         5.59419
     2015.95619         3.73441         5.68397
     2015.95872        -0.89675         6.18653
     2016.01469        -9.71550        11.82096
     2016.01642        -0.41298         5.80470
     2016.01916         0.71768         5.93783
     2016.02063        11.05443        22.29935
     2016.07489         5.72013        10.85402
     2016.07666         0.63963         5.72834
     2016.07939         6.18229         5.59419
     2016.08213        -1.16705         5.73144
     2016.08487        -1.39438         5.56117
     2016.08761        -6.55472         5.51886
     2016.09034        -8.20405         5.90584
     2016.09308        -4.19039         5.78407
     2016.09582        -2.69173         5.71596
     2016.09856       -14.12506         5.68706
     2016.10130       -16.19740         5.51886
     2016.10403       -19.14573         5.52298
     2016.10677       -15.23807         5.66436
     2016.10951       -10.69041         5.65817
     2016.11225        -8.88774         5.86559
     2016.11498        -6.24308         5.75208
     2016.11772        -9.92041         5.56117
     2016.12046        -6.83475         5.76136
     2016.12320        -9.39509         5.53330
     2016.12594        -6.53542         5.62205
     2016.12867         0.28824         5.56013
     2016.13141         5.16991         5.50338
