# ================= DQRFIT RESULTS ================
# INPUT FILE: series/SHPB.rad
# OUTPUT: LDETRENDED
# FILTER FUNCTION: f(t)
# f(t)=+line(t)+annual(t)
# line(t)=+P 1+P 2*t
# annual(t)=+P 3*sin(2*pi*t+P 4)
# heav(t)=(t<0?0:1)
# TOTAL OBSERVATIONS MTOT=  940
# INITIAL TIME INTERVAL= 2022.7488 - 2019.5537 =  3.1951
# TOTAL OBSERVATIONS AFTER PREFILTER M=  940
# TIME-SPAN= 2022.7488 - 2019.5537 =  3.1951
# OBSERVATIONS: USED M=   940 REJECTED MTOT-M=     0 %USED=  100.0000
# N=  4 PARAMETERS
# MAXSIG= 175.00000
# MAXRES=  18.01893
# SCALE FACTOR FOR LENGTHS: SCL=  10.00000
# SCALE FACTOR FOR SIGMAS: SCLSIG=   1.00000
# CHI^2=    850.062 DOF=   936 CHI^2/DOF=   0.90819
# RMS=      5.175 SDEV=      5.178 MEAN=    0.00087
#  P #       PARAMETER +-    SIGMA %error PARAMETER NAME
# P 1 =     -7219.70241 +-  399.978   5.54 YZERO                              
# P 2 =         3.58220 +-    0.198   5.52 SLOPE                              
# P 3 =         3.40820 +-    0.254   7.45 ANNUAL AMPLITUDE                   
# P 4 =         2.71757 +-    0.096   3.53 ANNUAL PHASE                       
#       T            LDETRENDED       SIG_OBS
     2019.55373         7.90547         5.30243
     2019.55646         2.17766         5.19950
     2019.55920        -1.98115         5.31481
     2019.56194         1.00305         5.35770
     2019.56468        -3.14376         5.25382
     2019.56741         2.05643         5.16329
     2019.57015         0.34162         5.06608
     2019.57289        -0.47418         5.23667
     2019.57563        -6.19299         5.20999
     2019.57837         6.48820         5.19283
     2019.58110         4.97739         5.08419
     2019.58384         0.48559         5.61882
     2019.58658         3.06778         5.08324
     2019.58932         8.25097         5.06037
     2019.59206        10.79716         5.22905
     2019.59479         3.33736         5.13375
     2019.59753         6.50355         5.27479
     2019.60027         3.14474         5.29861
     2019.60301         1.63193         5.08514
     2019.60574         2.26113         5.30910
     2019.60848         0.33732         5.36532
     2019.61122         1.53151         5.15185
     2019.61396         1.11870         5.30433
     2019.61670         5.74890         5.08228
     2019.61943        10.68109         5.11278
     2019.62217         5.99828         5.41964
     2019.62491         2.60147         5.09944
     2019.62765         6.41567         5.11373
     2019.63039        12.48186         5.09658
     2019.63312         1.95305         5.16519
     2019.63586         5.38924         5.54163
     2019.63860         4.75344         5.14042
     2019.64134        -0.49637         5.42917
     2019.64407         2.70282         5.20236
     2019.64681        -0.29799         5.11755
     2019.64955         2.18521         5.15090
     2019.65229         6.84940         5.15662
     2019.65503        -1.60941         5.17472
     2019.65776        -1.63222         5.16901
     2019.66050         2.01398         5.19283
     2019.66324         7.62117         5.28527
     2019.66598         0.67436         5.25954
     2019.66872         4.86755         5.16138
     2019.67145         2.77175         5.09753
     2019.67419        -0.10206         5.17663
     2019.67693         3.87513         5.23667
     2019.67967         1.97132         5.33387
     2019.68240        -1.91748         5.17377
     2019.68514         4.31571         5.21380
     2019.68788        -0.12810         5.18140
     2019.69062         1.80109         5.17949
     2019.69336         1.11929         5.09372
     2019.69609         0.72848         5.29766
     2019.69883        -1.19533         5.22714
     2019.70157        -2.76514         5.48730
     2019.70431        -1.87694         5.09181
     2019.70705        -2.99975         5.07657
     2019.70978        -5.32756         5.24048
     2019.71252        -2.03437         5.06513
     2019.71526         3.84483         5.18997
     2019.71800         1.27602         5.32530
     2019.72073         0.73121         5.32244
     2019.72347        -3.61160         5.25382
     2019.72621        -5.18940         5.22619
     2019.72895         7.60279         5.17377
     2019.73169         4.82398         5.19855
     2019.73442         7.31617         5.24715
     2019.73716         8.25937         5.06894
     2019.73990         4.83656         5.25382
     2019.74264         0.98575         5.15566
     2019.74538        -1.93806         5.04417
     2019.74811         1.43413         5.22905
     2019.75085         1.00433         5.22047
     2019.75359         7.47652         5.34245
     2019.75633         4.05071         5.26526
     2019.75906         0.03490         5.09753
     2019.76180        -0.55890         5.12231
     2019.76454         1.09829         5.12993
     2019.76728         5.66448         5.16805
     2019.77002        -1.87233         5.14232
     2019.77275         2.56787         5.30052
     2019.77549         3.12906         5.17949
     2019.77823        -2.55875         5.12993
     2019.78097         1.61444         5.09467
     2019.78371        -1.72536         5.14804
     2019.78644         0.46683         5.27955
     2019.78918         1.20402         5.21475
     2019.79192        -2.47479         5.16901
     2019.79466         9.74341         5.16710
     2019.79739         5.17560         5.10039
     2019.80013         7.74779         5.20331
     2019.80287        10.12098         5.10611
     2019.80561         4.86218         5.20999
     2019.80835         6.02937         5.07847
     2019.81108         6.21556         5.19378
     2019.81382        12.26675         5.36532
     2019.81656         3.71895         5.08800
     2019.81930        -0.35486         5.11373
     2019.82203         2.38133         5.11183
     2019.82477        -2.80448         5.10325
     2019.82751        -0.38628         5.09753
     2019.83025         3.77591         5.22428
     2019.83299         4.96010         5.26431
     2019.83572         2.31029         5.22809
     2019.83846        17.33449         5.15662
     2019.84120        11.80268         5.11373
     2019.84394         7.45487         5.24429
     2019.84668        -2.40594         5.08705
     2019.84941        -0.24974         5.08991
     2019.85215         0.50645         5.14995
     2019.85489         3.69764         5.12326
     2019.85763         6.63583         5.07657
     2019.86036         1.20703         5.12993
     2019.86310        -2.70578         5.25382
     2019.86584        10.83441         5.21284
     2019.86858         4.24260         5.16424
     2019.87132         6.51380         5.23095
     2019.87405         9.69699         5.08610
     2019.87679         4.77218         5.30814
     2019.87953        12.11237         5.14328
     2019.88227        15.86257         5.09849
     2019.88501         7.97776         5.13089
     2019.88774         9.26195         5.29004
     2019.89048         5.55914         5.14899
     2019.89322        11.85234         5.12612
     2019.89596         3.93653         5.23857
     2019.89869        12.60772         5.05941
     2019.90143        11.09791         5.07847
     2019.90417         2.45611         5.16138
     2019.90691         2.35430         5.14995
     2019.90965         2.31449         5.08038
     2019.91238         4.49868         5.04988
     2019.91512         7.36588         5.08133
     2019.91786        13.01207         5.23286
     2019.92060        14.22826         5.12136
     2019.92334         8.45045         5.17091
     2019.92607         5.25565         5.13565
     2019.92881         3.14984         5.11183
     2019.93155         2.89703         5.20999
     2019.93429         5.56322         5.16329
     2019.93702        -1.21858         5.14709
     2019.93976         6.72361         5.21189
     2019.94250         1.11180         5.16710
     2019.94524        -4.90401         5.15376
     2019.94798         0.06218         5.25954
     2019.95071         5.40138         5.39772
     2019.95345         8.49557         5.06513
     2019.95619        10.01376         5.15471
     2019.95893        -0.60605         5.15852
     2019.96167         0.24515         5.18807
     2019.96440        -1.49666         5.34245
     2019.96714         3.26853         5.27193
     2019.96988        -3.13228         5.13661
     2019.97262        -1.13208         5.14899
     2019.97535        -0.66389         5.10897
     2019.97809         3.61730         5.15948
     2019.98083        -1.52751         5.12708
     2019.98357        -4.58131         5.11183
     2019.98631         5.10488         5.07561
     2019.98904         4.93707         5.09372
     2019.99178        13.81026         5.21189
     2019.99452         0.86146         5.14804
     2020.00000        12.80184         5.16138
     2020.00273         7.68303         5.09944
     2020.00547         5.09523         5.21856
     2020.00821         2.25142         5.24906
     2020.01095        -1.45539         5.41488
     2020.01368        -2.27220         5.17663
     2020.01642         1.06600         5.22142
     2020.01916         0.04919         5.10897
     2020.57882         1.35237        11.54068
     2020.58042         1.75764         5.27574
     2020.58316        -8.57116         5.22619
     2020.58590         5.32003         5.15471
     2020.58863         3.55722         5.23476
     2020.59137         1.05441         5.18044
     2020.59411         5.18961         5.25096
     2020.59685        -3.33520         5.47492
     2020.59958        -5.35201         5.38819
     2020.60232         0.57418         5.23000
     2020.60506         0.36238         5.25573
     2020.60780        11.45657         5.45967
     2020.61054         7.25876         5.19950
     2020.61327         4.30495         5.18807
     2020.61601         3.78015         5.18616
     2020.61875        -0.29666         5.22714
     2020.62149        -1.32647         5.24525
     2020.62423         0.97672         5.26526
     2020.62696        -0.05408         5.35770
     2020.62970         0.12511         5.21475
     2020.63244         6.37630         5.19474
     2020.63518         6.95949         5.35103
     2020.63791        -0.54531         5.41107
     2020.64065        -1.65712         5.25763
     2020.64339         1.19707         5.15090
     2020.64613         3.71626         5.18711
     2020.64887         4.43146         5.16519
     2020.65160         3.93765         5.20046
     2020.65434        -3.29816         5.22714
     2020.65708         4.72103         5.18997
     2020.65982        13.56723         5.36056
     2020.66256         2.48342         5.16424
     2020.66529         5.83661         5.23286
     2020.66803         2.74080         5.21189
     2020.67077         4.72400         5.80751
     2020.67351         4.06119         5.18425
     2020.67624         5.64738         5.14232
     2020.67898        -3.81343         5.19378
     2020.68172         1.20477         5.30910
     2020.68446         3.22996         5.27098
     2020.68720         2.23215         5.23000
     2020.68993         4.88934         5.15281
     2020.69267         2.88954         5.29957
     2020.69541         3.65973         5.45204
     2020.69815         1.67492         5.27098
     2020.70089         2.46011         5.20713
     2020.70362         0.49631         5.24429
     2020.70636         7.59250         5.49302
     2020.70910        -2.48931         5.48254
     2020.71184        10.21788         5.48159
     2020.71457         1.33508         5.39296
     2020.71731        -2.07973         5.30052
     2020.72005       -10.63154         5.46539
     2020.72279        -1.52835         5.35770
     2020.72553         5.93585         5.33387
     2020.72826        -5.23696         5.61119
     2020.73100         5.72923         5.39201
     2020.73374         2.81142         5.50732
     2020.73648         6.30362         5.35103
     2020.73921         3.34181         5.25001
     2020.74195         3.91200         5.17663
     2020.74469         4.99719         5.18140
     2020.74743         3.78139         5.21761
     2020.75017         7.35358         5.20903
     2020.75290         3.88377         5.13661
     2020.75564         2.73196         5.10325
     2020.75838         4.04215         5.22428
     2020.76112         4.16035         5.26621
     2020.76386         0.94454         5.21475
     2020.76659         9.95073         5.17187
     2020.76933         7.87792         5.27860
     2020.77207         0.22912         5.17187
     2020.77481         5.05631         5.24429
     2020.77754        11.05550         5.24334
     2020.78028         8.42369         5.19569
     2020.78302         9.23789         5.30528
     2020.78576         4.53408         5.24525
     2020.78850         1.67727         5.17949
     2020.79123         3.23446         5.44823
     2020.79397         3.43466         5.18997
     2020.79671         5.39285         5.28813
     2020.79945        -5.19296         5.21856
     2020.80219         0.15123         5.28337
     2020.80492         9.56443         5.18235
     2020.80766         1.72662         5.19855
     2020.81040         2.40581         5.25573
     2020.81314         1.28300         5.16615
     2020.81587        -1.43780         5.17282
     2020.81861         2.83439         5.19474
     2020.82135         2.43858         5.13756
     2020.82409         6.84477         5.14328
     2020.82683         0.66997         5.24715
     2020.82956        -1.66584         5.45204
     2020.83230         3.25135         5.23667
     2020.83504         3.71554         5.32434
     2020.83778         5.02974         5.23000
     2020.84052         9.71093         5.25954
     2020.84325         6.16512         5.42917
     2020.84599        -3.84669         5.48826
     2020.84873         8.20551         5.15757
     2020.85147         5.64870         5.16805
     2020.85420        13.06889         5.17282
     2020.85694        10.60708         5.29099
     2020.85968        14.15628         5.20999
     2020.86242         9.00047         5.17091
     2020.86516         9.71266         5.41774
     2020.86789         7.91085         5.36723
     2020.87063        13.02205         5.18997
     2020.87337        15.04424         5.21475
     2020.87611        10.60543         5.26621
     2020.87885         5.73562         5.28051
     2020.88158         9.75782         5.21189
     2020.88432        11.34901         5.27384
     2020.88706         2.19420         5.37485
     2020.88980         7.29939         5.21856
     2020.89253         9.39859         5.19474
     2020.89527        -7.77222         5.39105
     2020.89801         8.81297         5.41297
     2020.90075         6.58916         5.18044
     2020.90349         6.03836         5.22619
     2020.90622         2.59355         5.19569
     2020.90896         4.89574         5.32434
     2020.91170         7.62493         5.32911
     2020.91444         0.38513         5.33483
     2020.91718         6.34632         5.16805
     2020.91991         0.97551         5.14423
     2020.92265         2.42970         5.25573
     2020.92539         2.67390         5.17949
     2020.92813        -4.53091         5.21189
     2020.93086        -3.07972         5.33578
     2020.93360         3.91247         5.20331
     2020.93634         5.33267         5.21189
     2020.93908        -1.73514         5.16043
     2020.94182         0.26305         5.15852
     2020.94455        -3.67576         5.11755
     2020.94729        -4.01456         5.10706
     2020.95003        -1.95437         5.13756
     2020.95277       -11.61018         5.18235
     2020.95551        -4.83199         5.18425
     2020.95824        -1.55080         5.15852
     2020.96098         1.86940         5.22333
     2020.96372        -0.87041         5.14042
     2020.96527        -6.03198        14.66363
     2021.00860         6.14982        11.27289
     2021.00895         9.99856        63.38895
     2021.02234        -6.51240        12.61470
     2021.02270         3.39830        19.11217
     2021.04691        -3.59642        11.51019
     2021.04954        -3.78885        12.53751
     2021.05237         4.78602        11.06324
     2021.05407         2.38994         5.32339
     2021.05681        -3.10087         5.19188
     2021.05954        -8.11167         5.04702
     2021.06228        -6.11248         5.06418
     2021.06502         1.70771         5.05941
     2021.06776         1.91890         5.03273
     2021.07049        -0.64690         5.08896
     2021.07323        -3.15871         5.04798
     2021.07597        -3.82852         5.14614
     2021.07871        -7.09733         5.16138
     2021.08145        -2.88413         5.08896
     2021.08418        -6.91594         5.08324
     2021.08692        -6.58775         5.02511
     2021.08966        -7.03856         5.03559
     2021.09240        -8.96036         5.02415
     2021.09514        -3.59017         5.23190
     2021.09787        -4.52698         5.15852
     2021.10061        -5.97379         5.04226
     2021.10335        -2.90759         5.02034
     2021.10609        -6.56440         5.02034
     2021.10882        -5.53121         5.01843
     2021.11156        -7.78502         5.02701
     2021.11430        -8.74082         5.04226
     2021.11704        -6.54663         4.99747
     2021.11978        -7.17544         5.02034
     2021.12251        -5.71525         5.03845
     2021.12525        -5.05205         5.06418
     2021.12799        -5.39286         5.06227
     2021.13073        -9.84367         5.03559
     2021.13347        -3.53548         5.12993
     2021.13620        -5.98228         5.12993
     2021.13894        -4.67309         5.03940
     2021.14168        -5.54190         4.98889
     2021.14442        -2.10071         5.01081
     2021.14715        -3.80451         5.01558
     2021.14989        -6.72032         5.00795
     2021.15263        -4.48613         5.12422
     2021.15537        -1.99994         5.13279
     2021.15811        -0.18075         5.25382
     2021.16084         0.76345         5.14804
     2021.16358        -4.46736         5.14232
     2021.16632         1.34283         5.18616
     2021.16906        -0.42398         4.97650
     2021.17180        -5.07078         5.05179
     2021.17453        -3.79459         5.20331
     2021.17727        -6.71640         5.24715
     2021.18001        -6.69121         5.19378
     2021.18275        -9.75001         5.25096
     2021.18548        -5.36882         4.99652
     2021.18822        -9.81063         4.98032
     2021.19096        -4.20144         4.94887
     2021.19370        -3.27524         5.03940
     2021.19644       -15.79305         5.05084
     2021.19917       -11.94086         5.00605
     2021.20191       -10.46867         4.97079
     2021.20465        -1.11447         4.96793
     2021.20739        -2.61628         5.00414
     2021.21013        -4.95709         5.12040
     2021.21286       -17.96390         5.22905
     2021.21560        -3.77970         4.97746
     2021.21834        -3.60451         4.97936
     2021.22108        -3.95232         5.00986
     2021.22381        -8.56513         4.98889
     2021.22655        -4.73093         4.99937
     2021.22929         2.87526         5.01367
     2021.23203        -0.04555         4.98413
     2021.23477       -10.98636         5.00414
     2021.23750        -6.17216         5.04417
     2021.24024        -2.59597         5.00223
     2021.24298        -6.82478         5.01843
     2021.24572        -9.73559         4.96030
     2021.24846        -6.02739         5.12898
