# ================= DQRFIT RESULTS ================
# INPUT FILE: series/SHRK.rad
# OUTPUT: LDETRENDED
# FILTER FUNCTION: f(t)
# f(t)=+line(t)+annual(t)
# line(t)=+P 1+P 2*t
# annual(t)=+P 3*sin(2*pi*t+P 4)
# heav(t)=(t<0?0:1)
# TOTAL OBSERVATIONS MTOT= 1692
# INITIAL TIME INTERVAL= 2022.7488 - 2015.5455 =  7.2033
# TOTAL OBSERVATIONS AFTER PREFILTER M= 1689
# TIME-SPAN= 2022.7488 - 2015.5455 =  7.2033
# OBSERVATIONS: USED M=  1689 REJECTED MTOT-M=     3 %USED=   99.8227
# N=  4 PARAMETERS
# MAXSIG= 175.00000
# MAXRES=  24.11610
# SCALE FACTOR FOR LENGTHS: SCL=  10.00000
# SCALE FACTOR FOR SIGMAS: SCLSIG=   1.00000
# CHI^2=   2359.393 DOF=  1685 CHI^2/DOF=   1.40023
# RMS=      7.058 SDEV=      7.059 MEAN=    0.11564
#  P #       PARAMETER +-    SIGMA %error PARAMETER NAME
# P 1 =      5164.78933 +-  149.167   2.89 YZERO                              
# P 2 =        -2.56353 +-    0.074   2.88 SLOPE                              
# P 3 =         5.71858 +-    0.239   4.19 ANNUAL AMPLITUDE                   
# P 4 =         3.08531 +-    0.059   1.92 ANNUAL PHASE                       
#       T            LDETRENDED       SIG_OBS
     2015.54551         8.97631         6.90819
     2015.54825        14.92633         7.08687
     2015.55099         6.64334         6.93067
     2015.55373         9.31736         6.99339
     2015.55646        13.94438         7.05610
     2015.55920        20.58440         7.07504
     2015.56194        15.24842         6.98984
     2015.56468        21.28344         6.86086
     2015.56741         4.31946         6.84547
     2015.57015        13.37747         7.09989
     2015.57289         6.87349         7.07030
     2015.57563        10.41851         6.86677
     2015.57837         3.76053         6.92594
     2015.58110         9.86255         6.85612
     2015.58384         9.23557         6.93422
     2015.58658        10.27959         7.00759
     2015.58932         7.43560         7.22177
     2015.59479        17.90864         7.09634
     2015.59753        14.22166         6.94014
     2015.60027        12.27968         7.30460
     2015.60301        11.30770         7.60280
     2015.60574         4.67772         7.11882
     2015.60848        14.51573         7.21585
     2015.61122        13.72675         6.87979
     2015.61396        17.22477         7.06202
     2015.61670         9.89879         7.03835
     2015.61943         7.42381         7.07504
     2015.62217        15.17283         6.91647
     2015.62491        14.07185         6.93541
     2015.62765         9.95886         6.88452
     2015.63039        13.11388         6.96854
     2015.63312         6.65890         7.40045
     2015.63586        12.90892         7.29632
     2015.63860         3.86194         6.91056
     2015.64134        12.21896         7.00995
     2015.64407         8.65198         7.07267
     2015.67255        17.08696        15.11803
     2015.67419         5.56218         6.84192
     2015.67693        13.96720         6.87269
     2015.67967         0.95922         6.97327
     2015.68240         1.06124         6.93896
     2015.68514         5.43525         6.86559
     2015.68788        13.99627         6.90701
     2015.69062        15.41229         6.91529
     2015.69336        10.57331         7.24070
     2015.69609        15.26233         6.86441
     2015.69883        12.93935         7.10107
     2015.70157        24.68637         6.86204
     2015.70431        15.80438         6.95197
     2015.70705         9.04040         6.95316
     2015.70978         7.54242         6.90701
     2015.71252         5.02644         6.77093
     2015.71526         8.91446         6.93186
     2015.71800        15.42548         6.80879
     2015.72073        14.37850         6.79932
     2015.72347         8.93551         6.93659
     2015.72621         8.10653         6.93304
     2015.72895         7.59955         6.87269
     2015.73169        10.38757         6.97682
     2015.73442         4.97059         6.85731
     2015.73716        13.75861         6.76738
     2015.73990        13.18162         6.91529
     2015.74264        14.91864         6.94606
     2015.74538        15.43166         7.26792
     2015.74811        11.95668         7.31288
     2015.75085         6.58170         6.86441
     2015.75359        15.15172         6.89754
     2015.75633        12.37774         6.67389
     2015.75906        12.47275         6.75791
     2015.76180         5.26277         6.71176
     2015.76454        12.45579         6.77684
     2015.76728        14.34981         6.84547
     2015.77002         4.38183         6.89517
     2015.77275        16.71485         6.86559
     2015.77549         2.68787         6.96499
     2015.77823        12.36588         6.85612
     2015.78097         6.96790         6.71531
     2015.78371         6.74192         6.74608
     2015.78644        14.87494         6.75318
     2015.78918        10.46196         6.85139
     2015.79192         9.55998         6.74608
     2015.79466         9.49700         6.72359
     2015.79739         1.75501         6.93541
     2015.80013        12.58903         6.92949
     2015.80287         6.43905         6.71294
     2015.80561         6.26907         6.93304
     2015.80835         6.87709         6.69046
     2015.81108        12.62411         6.83364
     2015.81382        11.21913         6.90227
     2015.81656         2.51314         6.96972
     2015.81930         6.41616         6.81826
     2015.82203         2.86518         6.96854
     2015.82477        17.68620         7.10580
     2015.82751        13.91422         7.01587
     2015.83025         6.43524         7.32590
     2015.83299        -7.98574         7.22177
     2015.83572         8.40827         6.94842
     2015.83846         7.73029         6.82417
     2015.84120         3.36131         6.83956
     2015.84394         2.17133         6.88216
     2015.84668         1.51035         6.98392
     2015.84941         7.33637         6.90227
     2015.85215         9.23139         7.05610
     2015.85489         8.59940         6.95671
     2015.85763         3.49642         6.84902
     2015.86036         7.87744         7.09042
     2015.86310         4.01346         6.97446
     2015.86584         5.40248         7.08214
     2015.86858         9.60850         6.96144
     2015.87132         5.48252         7.21230
     2015.87405         3.65553         6.88097
     2015.87679         3.25255         7.25372
     2015.87953        24.18557         7.22295
     2015.88227        12.06259         6.97446
     2015.88501        -3.41739         7.03717
     2015.88774        -0.19637         7.04545
     2015.89048         9.28065         6.97209
     2015.89322         8.84666         6.92002
     2015.89596        13.20168         6.95552
     2015.89869         4.40370         6.87742
     2015.90143        -0.79028         6.85849
     2015.90417        -0.50326         6.69401
     2015.90691         3.56176         6.69756
     2015.90965         2.27278         6.75199
     2015.91238         6.94479         6.80051
     2015.91512         1.91681         6.82417
     2015.91786         1.97183         6.94369
     2015.92060         4.39785         7.18509
     2015.92334         6.24387         6.97564
     2015.92607         2.73889         6.90227
     2015.92881         4.19191         6.94842
     2015.93155         7.17392         7.23360
     2015.93429        21.52994         7.20875
     2015.93702        15.20096         7.48446
     2015.93976        17.81598         7.57321
     2015.94250         3.49500         7.20165
     2015.94524        -9.91698         7.06557
     2015.94798        13.80003         7.07859
     2015.95071         9.25705         6.80997
     2015.95345        -1.17593         6.74371
     2015.95619         4.41409         6.85139
     2015.95893        -5.62989         7.04782
     2015.96167        -0.99887         7.20520
     2015.96440        -2.47985         6.77329
     2015.96714         3.18616         6.95907
     2015.96988         6.18218         6.90701
     2015.97535        17.60122         7.12829
     2015.97809         9.35524         7.00641
     2015.98083        -0.54474         6.99221
     2015.98357       -10.32272         6.88452
     2015.98631        -5.98671         6.89281
     2015.98904        -3.34969         6.90346
     2015.99178        -8.66267         6.93896
     2015.99452        -5.10765         6.93422
     2015.99726        -4.16663         6.96617
     2016.00000         3.27039         7.09279
     2016.00273         2.69441         7.06439
     2016.00547        15.18142         7.10580
     2016.00821        18.55444         7.15314
     2016.01095         5.79646         6.94014
     2016.01368        -7.24752         6.95552
     2016.01642        -4.21350         7.03599
     2016.01916        -5.15848         7.24662
     2016.02190        -4.78846         6.96262
     2016.02464        -5.14145         6.97091
     2016.02737        -0.05843         7.12829
     2016.03011        -1.16941         6.87742
     2016.03285        -2.67339         7.03125
     2016.03559        -9.28137         6.88689
     2016.03833       -10.72835         7.04072
     2016.04106         6.43567         6.94842
     2016.04380         4.14068         6.94606
     2016.04654        -3.39230         6.82772
     2016.04928         0.76372         6.85021
     2016.05201        -8.05426         6.79932
     2016.05475         4.52676         6.80051
     2016.05749        -1.09322         6.92002
     2016.06023        -6.70220         6.83601
     2016.06297        -8.45719         6.86914
     2016.06570        -7.11517         6.88571
     2016.06844        -3.59315         6.95197
     2016.07118        -9.03113         7.01114
     2016.07392        -7.73411         7.13065
     2016.07666        -2.90609         7.18390
     2016.07939         7.90393         6.98984
     2016.08213        -3.51706         7.03125
     2016.08487        -2.50304         6.77329
     2016.08761       -11.28002         6.92831
     2016.09034        -6.13100         6.95316
     2016.09308         5.61002         7.14012
     2016.09582       -14.28896         7.02415
     2016.09856       -16.21394         7.14130
     2016.10130       -17.50393         6.97209
     2016.10403       -13.99091         6.97446
     2016.10677       -14.63289         6.93067
     2016.10951         0.75113         7.05019
     2016.11225        -7.06685         6.99812
     2016.11498        -9.26983         7.08095
     2016.11772       -18.09381         7.10462
     2016.12046        -7.12880         7.06320
     2016.12320         0.23322         7.13657
     2016.12594        -5.13676         6.97209
     2016.12867        -3.04174         6.91766
     2016.13141         4.48328         7.03835
     2016.13415        13.36430         7.00167
     2016.13689        -6.26768         6.89991
     2016.13963        -8.21367         6.93659
     2016.14236       -14.88765         6.87979
     2016.14510       -12.46263         6.85494
     2016.14784       -11.70661         6.89872
     2016.15058        -7.11659         6.84784
     2016.15331        -7.97457         7.00641
     2016.15605        -9.07055         7.04190
     2016.15879        -7.94454         7.05374
     2016.16153        -8.07752         6.94842
     2016.16427        -8.92550         7.05729
     2016.16700         0.19152         6.99339
     2016.16974        -3.46146         6.86441
     2016.17248        -3.71344         7.11527
     2016.17522        -3.75543         6.98037
     2016.17796         6.71559         6.94487
     2016.18069         1.12561         7.08332
     2016.18343       -10.25437         7.10225
     2016.18617        -2.57635         6.84192
     2016.18891        -3.64233         7.03480
     2016.19164        -5.75331         6.89044
     2016.19438         3.81270         6.82062
     2016.19712         4.15672         6.80879
     2016.19986        -5.52226         7.05847
     2016.20260        -9.65724         7.04900
     2016.20533       -14.64522         7.28212
     2016.20807        -7.58420         7.06794
     2016.21081       -11.50018         7.03599
     2016.21355        -6.47717         6.91884
     2016.21629        -8.24015         6.87032
     2016.21902         1.09787         6.88334
     2016.22176       -13.70711         6.83246
     2016.22450       -16.08709         6.85021
     2016.22724        -9.27207         6.94014
     2016.22997        -7.53205         6.77803
     2016.23271        -9.63004         6.72359
     2016.23545        -9.15202         6.87151
     2016.23819       -10.62000         6.81944
     2016.24093        -5.95998         6.83956
     2016.24366        -5.71696         6.76974
     2016.24640        -7.11694         6.74844
     2016.24914        -6.91392         6.80169
     2016.25188        -8.37091         6.87979
     2016.25462        -6.73189         6.83837
     2016.25735         0.79513         6.97919
     2016.26009        -9.83885         6.83246
     2016.26283       -13.25583         6.85257
     2016.26557        -9.59681         6.84074
     2016.26830        -8.67879         6.81352
     2016.27104        -2.10078         6.78868
     2016.27378        -8.03776         6.76738
     2016.27652        -9.93974         6.81471
     2016.27926       -11.08972         6.84074
     2016.28199       -10.62570         6.85257
     2016.28473        -7.26168         6.81352
     2016.28747       -10.96966         6.75554
     2016.29021       -11.50265         6.87979
     2016.29295       -11.37863         6.90937
     2016.29568       -13.15061         6.86204
     2016.29842        -6.29959         7.00877
     2016.30116       -10.73057         7.03007
     2016.30390       -11.15855         6.94606
     2016.30663        -6.76753         6.87387
     2016.30937        -1.58452         6.87151
     2016.31211        -9.22950         6.89044
     2016.31485        -2.01648         6.83719
     2016.31759        -7.27546         6.81589
     2016.32032       -10.08344         6.78513
     2016.32306       -14.39242         6.79578
     2016.32580       -10.43240         6.94251
     2016.32854        -8.38939         6.84192
     2016.33128       -11.50637         6.78631
     2016.33401        -4.80735         6.83127
     2016.33675        -7.65733         6.91174
     2016.33949        -7.61331         6.96262
     2016.34223       -10.42929         6.87979
     2016.34496        -9.32127         7.01587
     2016.34770         0.64674         7.10935
     2016.35044         5.35876         7.40400
     2016.35318        -3.73022         6.91647
     2016.35592       -10.16420         6.92476
     2016.35865       -11.19518         6.85257
     2016.36139        -6.61416         6.76146
     2016.36413         1.88886         6.92594
     2016.36687        -1.41813         6.88452
     2016.36961         5.17089         6.97801
     2016.37234         4.42891         6.98511
     2016.37508        -6.58007         6.75791
     2016.37782        -3.04605         7.04664
     2016.38056         3.35597         7.09515
     2016.38329        -3.47602         6.77921
     2016.38603        -5.67200         6.75791
     2016.38877         8.01102         6.84192
     2016.39151        -6.90796         6.72951
     2016.39425       -10.93294         6.73306
     2016.39698         1.56208         6.80997
     2016.39972         0.23010         6.89754
     2016.40246         0.45111         6.90346
     2016.40520        -7.89687         6.80642
     2016.40794       -13.40685         6.91292
     2016.41067       -13.01083         6.82062
     2016.41341        -6.16981         6.77921
     2016.41615        -2.87079         6.83956
     2016.41889         7.72123         6.88807
     2016.42162         2.95224         7.01232
     2016.42436        -7.66774         6.86914
     2016.42710        -3.42172         6.81116
     2016.42984        -8.56270         6.84429
     2016.43258         3.12132         6.89991
     2016.43531         5.69534         7.10817
     2016.43805        -2.48264         6.86677
     2016.44079         1.64337         6.93186
     2016.44353        -2.96461         6.86914
     2016.44626       -10.11959         6.83719
     2016.44900        -2.05157         7.02889
     2016.45174         8.08345         7.02652
     2016.45448         2.84547         7.01114
     2016.45722        -7.38251         6.74371
     2016.45995         4.32650         6.83364
     2016.46269        -4.28648         7.05729
     2016.46543        -8.12146         6.85967
     2016.46817        -4.47444         6.96854
     2016.47091         7.23658         6.93541
     2016.47364         2.73360         6.98392
     2016.47638         2.08862         7.04900
     2016.47912         0.76763         7.16734
     2016.48186        -5.31835         6.94014
     2016.48459        -2.69133         6.90227
     2016.48733        -1.77331         6.96262
     2016.49007         5.64671         7.03480
     2016.49281         3.19073         7.24898
     2016.49555         4.12275         6.89281
     2016.49828        -4.85024         6.94014
     2016.50102        -6.95922         6.99694
     2016.50376         2.52080         7.23952
     2016.50650        -9.97518         7.04782
     2016.50924        -0.93516         6.89872
     2016.51197        -5.63314         6.92357
     2016.51471         6.66288         6.85849
     2016.51745        -3.29911         7.33182
     2016.52019         1.87791         7.04545
     2016.52292        -0.93707         6.96499
     2016.52566        -1.01505         6.81471
     2016.52840        -1.77403         6.78868
     2016.53114       -10.47001         6.87032
     2016.53388         0.93601         6.84192
     2016.53661         1.00902         6.83956
     2016.53935        -8.78096         6.77566
     2016.54209        -4.73194         6.79814
     2016.54483        -2.88192         6.84429
     2016.54757        -7.81790         6.87387
     2016.55030        -2.99888         6.97446
     2016.55304         1.23514         6.80524
     2016.55578         9.60715         7.19455
     2016.55852         1.45817         6.80761
     2016.56125        -0.13781         6.77803
     2016.56399         4.97921         6.83127
     2016.56673         4.53023         7.03599
     2016.56947         3.86925         6.93777
     2016.57221         6.29327         6.87151
     2016.57494         2.65628         7.00877
     2016.57768         5.07530         6.91884
     2016.58042         2.73732         6.83482
     2016.58316         1.51934         6.86204
     2016.58590        -1.75164         6.94132
     2016.58863        -2.40662         6.78986
     2016.59137        -0.83360         6.77211
     2016.59411         0.10941         6.87506
     2016.59685        11.64943         6.86322
     2016.59958         9.92445         7.02060
     2016.60232         2.56647         7.09160
     2016.60506        -1.61751         6.92121
     2016.60780        -0.09349         6.88334
     2016.61054         3.41552         6.88097
     2016.61327        -4.75546         6.85612
     2016.61601         1.89556         6.86559
     2016.61875         8.95958         6.91056
     2016.62149         7.38660         6.85612
     2016.62423         6.83962         6.96381
     2016.62696         4.24064         6.89281
     2016.62970        -0.25535         6.84784
     2016.63244         2.92467         7.05610
     2016.63518         8.24969         6.89162
     2016.63791        11.35671         6.91529
     2016.64065        18.12473         7.11527
     2016.64339         2.09775         6.76619
     2016.64613         3.91777         6.84666
