# ================= DQRFIT RESULTS ================
# INPUT FILE: series/SKCO.rad
# OUTPUT: LDETRENDED
# FILTER FUNCTION: f(t)
# f(t)=+line(t)
# line(t)=+P 1+P 2*t
# heav(t)=(t<0?0:1)
# TOTAL OBSERVATIONS MTOT=  669
# INITIAL TIME INTERVAL= 2022.7488 - 2020.8925 =  1.8563
# TOTAL OBSERVATIONS AFTER PREFILTER M=  668
# TIME-SPAN= 2022.7488 - 2020.8925 =  1.8563
# OBSERVATIONS: USED M=   668 REJECTED MTOT-M=     1 %USED=   99.8505
# N=  2 PARAMETERS
# MAXSIG= 175.00000
# MAXRES=  21.89434
# SCALE FACTOR FOR LENGTHS: SCL=  10.00000
# SCALE FACTOR FOR SIGMAS: SCLSIG=   1.00000
# CHI^2=    868.053 DOF=   666 CHI^2/DOF=   1.30338
# RMS=      6.453 SDEV=      6.458 MEAN=    0.03724
#  P #       PARAMETER +-    SIGMA %error PARAMETER NAME
# P 1 =      5906.85168 +-  932.887  15.79 YZERO                              
# P 2 =        -2.79541 +-    0.461  16.51 SLOPE                              
#       T            LDETRENDED       SIG_OBS
     2020.89253         5.21114         6.17751
     2020.91718         3.02603         6.19920
     2020.91991        -0.74332         6.16153
     2020.92265        -2.79167         6.18322
     2020.92539        -2.46701         6.14440
     2020.92813        -3.74936         6.19692
     2020.93086        -4.59871         6.14554
     2020.93360         1.08395         6.20263
     2020.93634        -2.00740         6.14326
     2020.93908        10.01625         6.20719
     2020.94182         1.56491         6.15468
     2020.94455         2.31356         6.12842
     2020.94729        -3.02979         6.11586
     2020.95003        -2.88213         6.20948
     2020.95277         0.24752         6.18664
     2020.95551         2.38317         6.18208
     2020.95824        -4.32017         6.33392
     2020.96098         5.74048         6.73122
     2020.96372        -1.23087         6.14783
     2020.96646         8.99079         6.35218
     2020.96919         7.55944         6.24487
     2020.97193        -5.38491         6.12271
     2020.97467        -5.34325         6.21861
     2020.97741        -5.69560         6.22546
     2020.98015        -6.89295         6.37844
     2020.98288         1.69071         6.25629
     2020.98562        10.35336         6.07819
     2020.98836         7.39701         6.07819
     2020.99110         3.60167         6.04850
     2020.99384         2.14432         6.04850
     2020.99657         1.22197         6.06905
     2020.99931         4.15063         6.11130
     2021.00205         4.11728         6.08047
     2021.00479         8.74093         6.08846
     2021.00752        11.56859         6.07819
     2021.01026        12.00124         6.12271
     2021.01300         3.75389         6.05650
     2021.01574         3.15055         6.25400
     2021.01848         3.81020         6.04280
     2021.02121         6.08585         6.24259
     2021.02395         0.65451         6.06449
     2021.02669        -4.98584         6.15696
     2021.02943         1.96382         6.06677
     2021.03216         4.42547         6.10901
     2021.03490         2.42212         6.39557
     2021.03764        -5.36322         6.10102
     2021.04038         0.43043         6.20605
     2021.04312        -0.43292         6.06220
     2021.04585         1.19674         6.05992
     2021.04859         0.57539         6.07020
     2021.05133        -6.57796         6.11815
     2021.05405         1.71764         6.45836
     2021.05681         2.55535         6.22089
     2021.05954        -4.77300         6.08504
     2021.06228        -6.10134         6.06905
     2021.06502        -0.11269         6.12499
     2021.06776         5.69996         6.05764
     2021.07049         1.82962         6.03252
     2021.07323         5.26127         6.20491
     2021.07597        -1.26108         6.06220
     2021.07871        -1.52842         6.09303
     2021.08145         0.85823         6.02110
     2021.08418        -3.58712         6.06449
     2021.08692         1.34054         6.04280
     2021.08966        -0.19181         6.12842
     2021.09240        -5.67516         6.08960
     2021.09514        -2.18350         6.19806
     2021.09787        -1.53785         6.28711
     2021.10061        -0.70420         6.11130
     2021.10335         4.52246         6.14897
     2021.10609        -5.02889         6.08390
     2021.10882        -2.75824         6.09303
     2021.11156       -10.00958         6.04850
     2021.11430        -9.70593         6.05079
     2021.11704        -5.26228         6.05079
     2021.11978        -5.23262         6.06905
     2021.12251        -3.21197         6.10901
     2021.12525       -10.43632         6.14326
     2021.12799        -6.83666         6.12842
     2021.13073        -5.04701         6.06220
     2021.13347        -9.12636         6.20491
     2021.13620        -4.95570         6.17979
     2021.13894        -0.43705         6.06335
     2021.14168         2.50960         6.21633
     2021.14442         4.42126         6.09988
     2021.14715        -8.59309         6.17523
     2021.14989        -9.12643         6.05307
     2021.15263        -6.45478         6.21747
     2021.15537        -5.82813         6.27684
     2021.15811        -3.62447         6.33049
     2021.16084        -5.86782         6.16838
     2021.16358        -0.62917         6.20034
     2021.16632         0.49349         6.21861
     2021.16906         1.43114         6.17751
     2021.17180        -0.57221         6.03937
     2021.17453        -3.82655         6.20719
     2021.17727        -0.20290         6.20491
     2021.18001        -5.56925         6.20719
     2021.18275        -3.63459         6.33049
     2021.18548        -3.76594         5.99941
     2021.18822        -4.98229         6.03366
     2021.19096        -4.63763         6.00626
     2021.19370        -6.60998         6.12614
     2021.19644       -11.99933         6.00740
     2021.19917        -5.01567         6.06677
     2021.20191        -3.87902         6.00170
     2021.20465        -1.09237         6.02681
     2021.20739        -6.91671         6.06449
     2021.21013         2.06794         6.24487
     2021.21286         0.85859         6.20263
     2021.21560        -5.44675         6.07933
     2021.21834        -6.03110         6.13184
     2021.22108        -6.66245         6.11929
     2021.22381        -8.43479         5.99485
     2021.22655        -7.56714         6.19349
     2021.22929         3.62151         6.02681
     2021.23203         2.24017         5.99142
     2021.23477       -11.96518         6.07134
     2021.23750        -1.19453         6.06335
     2021.24024        -2.73687         6.09075
     2021.24298        -6.75522         6.00284
     2021.24572        -9.51857         5.99256
     2021.24846        -7.31591         6.14554
     2021.25119        -0.53726         6.06905
     2021.25393        -2.46161         6.16039
     2021.25667        -4.26295         6.08047
     2021.25941        -5.80030         6.00626
     2021.26214        -2.34865         6.13070
     2021.26488        -3.37199         6.06106
     2021.26762        -1.83534         6.13413
     2021.27036        -2.30769         6.58851
     2021.27310        -1.28903         6.01654
     2021.27583        -5.62038         6.00170
     2021.27857        -4.68672         6.15810
     2021.28131        -1.91107         6.11472
     2021.28405         1.40158         6.16153
     2021.28679         2.76124         6.17294
     2021.28952        -6.08211         6.63760
     2021.29226        -4.82746         6.10673
     2021.29500         1.28420         6.17180
     2021.29774         0.23085         6.42639
     2021.30047        -3.14650         6.27455
     2021.30321         4.48416         6.22204
     2021.30595         5.21181         6.32593
     2021.30869        10.38046         6.32022
     2021.31143        10.87612         6.18779
     2021.31416         7.53277         6.19806
     2021.31690         5.86542         6.08618
     2021.32021         2.33067         8.52590
     2021.32295        -3.74768         8.40603
     2021.32569        -4.09102         8.05554
     2021.32842        -2.14037         8.03042
     2021.33116         6.39028         8.32154
     2021.33390        -6.75806         7.91169
     2021.33664        -0.03941         7.93338
     2021.33937         2.08524         7.89571
     2021.34211         2.61490         8.10006
     2021.34485         4.39855         8.33753
     2021.34759        -6.23380         8.17541
     2021.35033        -3.02514         8.28159
     2021.35306        -3.50649         7.98019
     2021.35580        -0.75784         8.03271
     2021.35854        -0.52618         8.02700
     2021.36128         3.32547         8.21651
     2021.36402        -9.60887         8.13317
     2021.36653        -5.17086         7.19016
     2021.36892        -8.88416         6.12614
     2021.37166         0.39149         6.16838
     2021.37440         0.67014         6.09760
     2021.37770        -5.22061         8.08979
     2021.38044         2.42205         8.50649
     2021.38318        -3.31130         8.58184
     2021.38592         6.32235         8.43457
     2021.38866        -0.44799         8.12518
     2021.39214         6.00373       127.86227
     2021.39413         0.08131         8.12975
     2021.39687         5.78297         8.23135
     2021.39938        -4.59102         7.16276
     2021.40177         0.48568         6.24259
     2021.40451        -0.47867         6.20263
     2021.40782         5.25958         8.04755
     2021.41056         0.85223         8.09778
     2021.41330         3.04989         8.47795
     2021.41603         1.41354         8.09550
     2021.41877        -5.99281         8.04755
     2021.42151        19.15585         8.25419
     2021.42425         1.08250         8.22336
     2021.42699         5.28415         8.11947
     2021.42972         7.28381         8.01558
     2021.43246         5.62846         8.27017
     2021.43520         1.56411         7.99846
     2021.43794         1.88577         8.16285
     2021.44068        -1.54058         8.20510
     2021.44341        -0.55293         8.19025
     2021.44615        -0.01027         8.10006
     2021.44889         5.70638         8.11376
     2021.45163        -1.75197         8.73597
     2021.45436        -6.04231         8.38776
     2021.45710         0.16234         8.22793
     2021.45984         3.15299         8.09207
     2021.46258        12.71565         7.99046
     2021.46528        -4.22979         8.14002
     2021.46805         5.10695         7.89114
     2021.47079         4.14361         7.98590
     2021.47353        -3.06774         8.42429
     2021.47627       -11.77109         8.20167
     2021.47901         4.53157         8.12632
     2021.48174        -4.63078         8.05440
     2021.48448        -6.14313         7.99275
     2021.48722       -12.64047         7.99960
     2021.48996        -9.55182         8.10463
     2021.49269         4.54584         8.02129
     2021.49520        -2.93915         7.12395
     2021.49817        -5.45086         8.43685
     2021.50091        -6.93020         8.05211
     2021.50365       -12.06355         8.16628
     2021.50638        -6.63790         8.05554
     2021.50912        -4.50224         8.30442
     2021.51186        -3.99659         8.55787
     2021.51459         7.53505         8.42429
     2021.51733        -9.73728         8.10805
     2021.52007         4.82137         8.20738
     2021.52281        -4.12998         8.11833
     2021.52555         0.66868         7.96535
     2021.52829         0.83533         8.04298
     2021.53102        -3.59902         8.05782
     2021.53376         2.09764         8.08066
     2021.53650         0.67229         8.37863
     2021.53924        10.42494         8.61267
     2021.54198         1.04760         8.11376
     2021.54471        -3.88775         8.23250
     2021.54745         5.93490         8.26560
     2021.55019         1.47856         8.31469
     2021.55293         0.84721         8.03156
     2021.55566        -0.29314         8.27588
     2021.55840        -2.17648         8.17884
     2021.56114        -1.27083         8.14116
     2021.56388         2.23282         8.04641
     2021.56605         2.04988         6.15924
     2021.56878         2.96354         6.13070
     2021.57152        -0.45281         6.30766
     2021.57426         0.48484         6.39443
     2021.57700         0.87950         6.49033
     2021.57974        -0.79185         6.22089
     2021.58247       -10.32720         6.21747
     2021.58521        -7.40354         6.16153
     2021.58795        -0.80789         6.20834
     2021.59069        -2.11524         6.15810
     2021.59342        -5.46058         6.26314
     2021.59616         4.51807         6.56225
     2021.59890         3.75172         6.28254
     2021.60164        -1.95962         6.37159
     2021.60438         0.59803         6.10445
     2021.60711         0.93368         6.14098
     2021.60985         1.53534         6.18779
     2021.61259         4.94399         6.21176
     2021.61533        -6.68736         6.14783
     2021.61807        -1.40070         6.17523
     2021.62080         0.17295         6.17751
     2021.62354        -6.41140         6.29967
     2021.62628        15.80426         6.60449
     2021.62902         2.66091         6.13755
     2021.63175        -0.01944         6.29853
     2021.63449        -0.03678         6.31908
     2021.63723         5.62187         6.48804
     2021.63997         8.13152         6.31337
     2021.64271         5.26218         6.30195
     2021.64544         3.65883         6.08504
     2021.64818         3.63148         6.12157
     2021.65092         5.20314         6.16495
     2021.65366        -0.49221         6.21519
     2021.65639         0.97645         6.15125
     2021.65913         3.34110         6.13869
     2021.66187         3.57075         6.10787
     2021.66461         6.07941         6.07933
     2021.66735         4.64306         6.12614
     2021.67008         2.25671         6.22089
     2021.67282         5.32237         6.37045
     2021.67556         5.85702         6.41612
     2021.67830         5.95667         6.29739
     2021.68104         3.88533         6.18436
     2021.68377         5.19798         6.20491
     2021.68651        10.91763         6.29967
     2021.68925         4.68929         6.27227
     2021.69199         7.88194         6.19806
     2021.69472         2.53359         6.15011
     2021.69746         6.22625         6.15011
     2021.70020         6.68390         6.23916
     2021.70294         4.78255         6.23345
     2021.70568         2.99221         6.41155
     2021.70841         5.78986         6.28254
     2021.71115         8.52851         6.26314
     2021.71389        10.72717         6.55083
     2021.71663         8.04482         6.39785
     2021.71937        12.69247         6.30081
     2021.72210         0.44613         6.25172
     2021.72484         4.51278         6.28711
     2021.72758         1.60143         6.23117
     2021.73032        -7.54491         6.67299
     2021.73305         3.98774         6.27227
     2021.73579        15.93039         6.36018
     2021.73853         8.49005         6.66957
     2021.74127         7.04670         6.31794
     2021.74401         8.95335         6.31565
     2021.74674         4.58001         6.33164
     2021.74948         6.51866         6.45151
     2021.75222         4.03731         6.29168
     2021.75496         8.08097         6.36018
     2021.75706        18.41784         8.65491
     2021.76043         6.56527         6.58851
     2021.76317         5.23993         6.53713
     2021.76591         4.25658         6.23117
     2021.76865         4.88723         6.25400
     2021.77138         4.21289         6.29967
     2021.77412         6.67954         6.49033
     2021.77686         9.39419         6.27113
     2021.77960        12.87285         6.25400
     2021.78234        10.04850         6.30652
     2021.78507        14.48216         6.24030
     2021.78781         9.29281         6.29282
     2021.79055         8.62646         6.24030
     2021.79329         8.43212         6.22774
     2021.79603         7.38977         6.22432
     2021.79876         7.72742         6.21975
     2021.80150         8.00008         6.51887
     2021.80424         7.00373         6.48462
     2021.80698        17.78738         6.33963
     2021.80971        10.06904         6.36931
     2021.81245        13.67569         6.45379
     2021.81519        21.89434         6.22318
     2021.81793         9.89500         6.30309
     2021.82067        -0.31935         6.52458
     2021.82340         9.22130         6.54398
     2021.82614        -1.52504         6.39214
     2021.82888         6.33561         6.32364
     2021.83162         4.96126         6.35447
     2021.83436        16.62792         6.40927
     2021.83709         5.76057         6.43210
     2021.83983         1.38122         6.49489
     2021.84257         0.69988         6.66500
     2021.84531         5.12253         6.40698
     2021.84804         9.32418         6.39100
     2021.85078         4.93084         6.39785
     2021.85352         4.89049         6.28026
     2021.85626         9.46014         6.36474
     2021.85900         2.03580         6.26770
     2021.86447        -2.05690         6.47548
     2021.86721         7.61476         6.74149
     2021.86995         9.00441         6.68783
     2021.87269        12.87106         6.68897
     2021.87542         1.73372         6.36588
     2021.87816        -0.85763         6.31679
     2021.88090        10.43402         6.27341
     2021.88364        -0.94832         6.25857
     2021.88637        -3.43567         6.30424
     2021.88911        -3.16102         6.23916
     2021.89185        -5.98836         6.32022
     2021.89459         1.36029         6.36246
     2021.89733         0.92194         6.23574
     2021.90006        -6.85140         6.28369
     2021.90280         3.21425         6.35561
     2021.90554        -1.16410         6.22889
     2021.90828         0.37956         6.42639
     2021.91102         5.64021         6.32136
     2021.91375        -7.18913         6.33848
     2021.91649        -1.21048         6.26884
     2021.91923        14.08517         6.44009
     2021.92197        -5.61617         6.64331
     2021.92470        -6.52752         6.42982
     2021.92744         0.37813         6.50859
     2021.93018        -0.51921         6.46521
     2021.93292         9.82744         6.55426
     2021.93566         7.89309         6.74263
     2021.93839         3.66975         6.50174
     2021.94113        11.18440         6.61591
     2021.94387        11.93105         6.41726
     2021.94661         2.10271         6.41383
     2021.94935         7.68236         6.38073
     2021.95208         6.59801         6.37730
     2021.95482         7.43867         6.41383
     2021.95756        11.78832         6.36588
     2021.96030        -0.31403         6.49375
     2021.96303        -1.21837         6.40356
     2021.96577         6.51028         6.38073
     2021.96851         4.94593         6.40128
     2021.97125         2.22259         6.40013
     2021.97399         9.40124         6.40128
     2021.97672        10.18889         6.40356
     2021.97946         5.56255         6.40927
     2021.98220        10.25820         6.41383
     2021.98494         6.50785         6.40013
     2021.98767         1.61451         6.37502
     2021.99041         4.25316         6.39557
     2021.99315         2.90081         6.40013
     2021.99589         9.11547         6.47320
     2021.99863        -3.66088         6.43553
