# ================= DQRFIT RESULTS ================
# INPUT FILE: series/SKED.rad
# OUTPUT: LDETRENDED
# FILTER FUNCTION: f(t)
# f(t)=+line(t)+annual(t)
# line(t)=+P 1+P 2*t
# annual(t)=+P 3*sin(2*pi*t+P 4)
# heav(t)=(t<0?0:1)
# TOTAL OBSERVATIONS MTOT=  865
# INITIAL TIME INTERVAL= 2019.5045 - 2005.2704 = 14.2341
# TOTAL OBSERVATIONS AFTER PREFILTER M=  865
# TIME-SPAN= 2019.5045 - 2005.2704 = 14.2341
# OBSERVATIONS: USED M=   865 REJECTED MTOT-M=     0 %USED=  100.0000
# N=  4 PARAMETERS
# MAXSIG= 175.00000
# MAXRES=  20.10228
# SCALE FACTOR FOR LENGTHS: SCL=  10.00000
# SCALE FACTOR FOR SIGMAS: SCLSIG=   1.00000
# CHI^2=   1050.490 DOF=   861 CHI^2/DOF=   1.22008
# RMS=      6.421 SDEV=      6.424 MEAN=   -0.02999
#  P #       PARAMETER +-    SIGMA %error PARAMETER NAME
# P 1 =        58.53271 +-  106.275 181.57 YZERO                              
# P 2 =        -0.02769 +-    0.053 190.93 SLOPE                              
# P 3 =         4.41045 +-    0.309   7.00 ANNUAL AMPLITUDE                   
# P 4 =         3.01255 +-    0.098   3.25 ANNUAL PHASE                       
#       T            LDETRENDED       SIG_OBS
     2005.27037        11.97698         6.54459
     2005.27311         2.60305         6.50704
     2005.27584         1.28213         6.56779
     2005.27858        -3.04279         6.55122
     2005.28132        -2.48972         6.58546
     2005.28406        -1.56864         6.70144
     2005.28679        -1.16657         6.55785
     2005.28953         2.56351         6.47721
     2005.29227        -1.95142         6.57663
     2005.29501         5.99666         6.47611
     2005.29775        -1.32726         6.48826
     2005.30048         1.42581         6.38333
     2005.30322         1.08589         6.42199
     2005.30596         1.45296         6.42199
     2005.30870        -1.88896         6.46396
     2005.31144        -1.96588         6.49820
     2005.31417        -0.64781         6.47832
     2005.31691        -1.61973         6.44297
     2005.31965        -5.21766         6.54128
     2005.32239         2.02642         6.57663
     2005.32512        -5.60851         6.55453
     2005.32786        -3.33643         6.49157
     2005.33060        -1.60335         6.41204
     2005.33334         8.21472         6.28723
     2005.33608         2.85680         6.53134
     2005.33881         4.66887         6.42640
     2005.34155        -0.99705         6.36897
     2005.34429         2.99502         6.38333
     2005.34703         1.37910         6.29938
     2005.34977        -2.74482         6.33362
     2005.35250        -3.13475         6.65836
     2005.35524         5.27533         6.63296
     2005.35798         2.56040         6.58104
     2005.36072        -5.66052         6.63075
     2005.36345        -4.47144         6.62191
     2005.36619         3.43163         6.62633
     2005.36893        -5.45229         6.84172
     2005.37167         0.51678         6.65836
     2005.37441         3.23286         6.70586
     2005.37714         7.11193         6.65726
     2005.37988        -4.57699         6.93230
     2005.38262        -2.50991         6.91683
     2005.38536        -0.85384         6.63959
     2005.38810        -1.73876         6.60093
     2005.39083        -5.51769         6.48384
     2005.39357        -5.03361         6.46727
     2005.39631        -4.11653         6.46727
     2005.39905        -4.91446         6.48384
     2005.40178        -7.48838         6.67051
     2005.40452         4.42469         6.56227
     2005.40726        -1.14623         6.58767
     2005.41000        -5.47316         6.57331
     2005.41274        -3.03508         6.55343
     2005.41547        -4.95500         6.43635
     2005.41821        -5.93593         6.39879
     2005.42095        -6.00685         6.33804
     2005.42369        -1.34878         6.38443
     2005.42643        -0.91370         6.58988
     2005.42916        -2.61363         6.42972
     2005.43190         1.17445         6.49047
     2005.64819         2.18044         6.40542
     2005.65093         7.95052         6.41536
     2005.65367         6.89559         6.43414
     2005.65640         3.69467         6.38443
     2005.65914        10.75174         6.36013
     2005.66188         7.40382         6.30932
     2005.66462         5.75489         6.34688
     2005.66736         9.87297         6.38222
     2005.67009        12.73105         6.49931
     2005.67283         6.85312         6.40652
     2005.67557         6.29820         6.46506
     2005.67831         3.82327         6.33031
     2005.68105         3.82935         6.34135
     2005.68378         5.33743         6.40542
     2005.68652         8.69450         6.41094
     2005.68926         2.78158         6.50593
     2005.69200         2.12665         6.58657
     2005.69473         3.02973         6.48826
     2005.69747         1.87280         6.43966
     2005.70021         9.57788         6.62191
     2005.70295        11.19996         6.55122
     2005.70569         2.96503         6.61418
     2005.70842         3.56711         6.65947
     2005.71116         1.96918         6.45733
     2005.71390         6.58326         6.37338
     2005.71664         2.24633         6.58546
     2005.71938         4.17141         6.32037
     2005.72211        10.56849         6.48163
     2005.72485         1.38056         6.33141
     2005.72759         3.25064         6.42309
     2005.73033         6.19371         6.48495
     2005.73306         8.09279         6.45954
     2005.73580         9.06587         6.47501
     2005.73854         5.34594         6.52471
     2005.74128         8.13502         6.47832
     2005.74402         8.55209         6.42751
     2005.74675         8.27917         6.33804
     2005.74949        20.11024         6.37670
     2005.75223         6.25932         6.51919
     2005.75497        10.86040         6.48384
     2005.75770         7.19747         6.45844
     2005.76044        11.90555         6.36344
     2005.76318        13.17062         6.39216
     2005.76592        12.89570         6.33141
     2005.76866        11.19578         6.40652
     2005.77139         9.30685         6.32810
     2005.77413        10.85193         6.32037
     2005.77687         5.63600         6.61860
     2005.77961         7.22308         6.57221
     2005.78235         9.61615         6.44739
     2005.78508        11.77423         6.31042
     2005.78782        16.04131         6.46617
     2005.79056        10.56438         6.40873
     2005.79330        15.99046         6.39879
     2005.79603        12.86453         6.45181
     2005.79877         4.66661         6.53023
     2005.80151         4.86468         6.50041
     2005.80425        11.34876         6.43414
     2005.80699         9.42384         6.39769
     2005.80972        11.74691         6.34577
     2005.81246         9.17399         6.38885
     2005.81520         5.98006         6.41646
     2005.81794        13.77914         6.63406
     2005.82068         8.84422         6.44187
     2005.82341        11.19329         6.42640
     2005.82615        13.32137         6.36897
     2005.82889        12.70444         6.30711
     2005.83163         2.27852         6.54570
     2005.83436         4.52259         6.63075
     2005.83710         0.37567         6.71249
     2005.83984         6.14975         6.62412
     2005.84258         3.87282         6.58878
     2005.84532         3.94690         6.70476
     2005.84805        10.04397         6.90579
     2005.85079         7.46505         6.73568
     2005.85353        -0.69087         6.55122
     2005.85627         7.96420         6.59209
     2005.85901         6.25628         6.49599
     2005.86174         2.58135         6.69592
     2005.86448        10.02543         6.53023
     2005.86722         0.94050         6.44739
     2005.86996         5.18758         6.48053
     2005.87269        -0.07334         6.60645
     2005.87543         1.14573         6.48053
     2005.87817         2.52781         6.38222
     2005.88091         3.90088         6.42530
     2005.88365         3.44296         6.37228
     2005.88638         2.37503         6.45070
     2005.88912         4.00511         6.64180
     2005.89186         5.09019         6.42640
     2005.89460         5.99426         6.44408
     2005.89734        -0.74566         6.45954
     2005.90007         0.27041         6.51919
     2005.90281        -0.08251         6.56669
     2005.90555         5.57957         6.60093
     2005.90829         4.30764         6.39769
     2005.91102         0.86172         6.41536
     2005.91376        -4.01521         6.42972
     2005.91650        -3.91213         6.68267
     2005.91924        -3.98806         6.57663
     2005.92198         3.43002         6.40652
     2005.92471        -2.89790         6.33914
     2005.92745        -2.84883         6.31705
     2005.93019        -1.88175         6.32037
     2005.93293         4.18532         6.37780
     2005.93567         6.70440         6.38222
     2005.93840        -0.41552         6.35019
     2005.94114         2.18155         6.36676
     2005.95757         5.86601         7.05491
     2005.96031         1.41008         6.88370
     2005.97400        -4.05454         6.52582
     2005.97673        -5.19546         6.57000
     2005.97947        -3.38039         6.48716
     2005.98221        -0.15431         6.64621
     2005.98495         9.03076         6.42861
     2005.98768        -2.74516         6.42420
     2005.99042       -10.10708         6.63075
     2005.99316        -0.84001         6.51919
     2005.99590         0.37307         6.60314
     2005.99864         4.15714         6.49047
     2006.00411        -2.37871         6.46727
     2006.00685        -9.31863         6.54791
     2006.00959        -9.04555         6.51367
     2006.01233        -4.96648         6.48495
     2006.01506       -13.63040         6.53576
     2006.01780        -1.85533         6.62081
     2006.02054        -1.03625         6.66499
     2006.02328        -3.79017         6.63185
     2006.02601        -2.68510         6.66610
     2006.02875        -3.46902         6.57331
     2006.03149         0.39605         6.48936
     2006.03423         5.11713         6.48384
     2006.03697         4.55520         6.56779
     2006.03970        -3.45572         6.52582
     2006.04244        -0.94364         6.46396
     2006.04518        -6.28757         6.60976
     2006.04792        -3.53749         6.52029
     2006.05065         2.07558         6.43635
     2006.05339        -3.35534         6.45402
     2006.05613         1.66273         6.32478
     2006.05887        -5.33219         6.26955
     2006.06161        -5.31611         6.26403
     2006.06434         4.35296         6.37891
     2006.06708        -4.70096         6.17346
     2006.06982        -5.87689         6.14584
     2006.07256        -9.86281         6.18450
     2006.07530        -6.29873         6.19997
     2006.07803        -6.83266         6.25961
     2006.08077        -3.56258         6.38001
     2006.08351        -5.01951         6.29054
     2006.08625        -3.85543         6.38885
     2006.08898        -5.26936         6.33914
     2006.09172        -3.37428         6.32037
     2006.09446        -6.18120         6.50483
     2006.09720        -9.73113         6.38001
     2006.09994        -8.06305         6.22206
     2006.10267        -8.04498         6.22979
     2006.20397       -16.89417         6.58215
     2006.20671       -17.88010         6.58767
     2006.20945       -10.69902         6.42751
     2006.21219       -14.05594         6.50925
     2006.21493       -10.88887         6.43082
     2006.21766       -12.34079         6.46065
     2006.22040       -16.42472         6.55012
     2006.22314       -17.55264         6.54459
     2006.22588       -14.00656         6.61529
     2006.22862        -6.82649         6.78429
     2006.23135       -10.76541         6.47942
     2006.23409        -4.55134         6.51256
     2006.23683       -15.74926         6.38885
     2006.23957        -9.32819         6.31153
     2006.24230        -6.95711         6.29386
     2006.24504        -6.68103         6.32037
     2006.24778        -1.49396         6.33252
     2006.25052       -12.64488         6.28723
     2006.25326        -7.46781         6.33472
     2006.25599        -7.88573         6.38112
     2006.25873        -4.94366         6.36013
     2006.26147        -5.11158         6.47942
     2006.26421        -4.88750         6.55233
     2006.26695       -11.63543         6.54128
     2006.26968        -9.44435         6.32478
     2006.27242        -4.85828         6.38222
     2006.27516        -2.28220         6.57221
     2006.27790       -14.76512         6.57552
     2006.28063       -11.06205         6.32037
     2006.28337        -4.16097         6.34688
     2006.28611        -6.00790         6.50814
     2006.28885       -14.79382         6.44187
     2006.29159        -7.58475         6.28281
     2006.29432        -6.29967         6.29827
     2006.29706        -6.73559         6.28281
     2006.29980        -0.09652         6.44408
     2006.30254        -5.25644         6.36676
     2006.30528       -14.21737         6.38774
     2006.30801        -5.28929         6.30380
     2006.31075        -8.99221         6.31042
     2006.31349       -13.52414         6.56669
     2006.31623       -14.38506         6.39216
     2006.32170       -13.95791         6.37228
     2006.32444       -11.10984         6.39437
     2006.32718       -12.76076         6.41315
     2006.32992        -9.39568         6.43524
     2006.33265       -10.04661         6.35019
     2006.33539       -11.45853         6.30932
     2006.33813       -10.40846         6.28281
     2006.34087       -14.08138         6.38443
     2006.34361       -12.15131         6.39658
     2006.34634        -9.36423         6.46506
     2006.34908       -13.18015         6.43966
     2006.35182       -13.48108         6.40873
     2006.35456       -15.05300         6.28612
     2006.35729       -10.59593         6.36676
     2006.36003       -10.73385         6.33914
     2006.36277       -11.99177         6.37559
     2006.36551       -17.94270         6.33252
     2006.36825       -16.01762         6.40984
     2006.37098       -14.67355         6.49268
     2006.37372       -15.27147         6.53576
     2006.37646        -3.81240         6.50925
     2006.37920        -4.16632         6.66720
     2006.38193        -5.98324         6.61970
     2006.38467        -7.53917         6.63185
     2006.38741        -8.04709         6.56006
     2006.39015       -12.22002         6.61529
     2006.39289       -11.85194         6.56006
     2006.39562       -14.08586         6.71801
     2006.39836       -12.36779         6.71359
     2006.40110       -15.04271         6.50704
     2006.40384        -9.11764         6.52803
     2006.40658       -10.67356         6.49599
     2006.40931       -11.92049         6.48936
     2006.41205       -12.13141         6.46175
     2006.41479       -10.83533         6.48274
     2006.41753       -14.96326         6.75999
     2006.42026       -10.35818         6.70476
     2006.42300       -17.03611         6.76219
     2006.42574       -13.65303         6.75004
     2006.42848       -11.32896         6.81411
     2006.43122       -11.17188         6.75446
     2006.43395       -11.25980         6.67051
     2006.43669       -10.71773         6.53134
     2006.43943       -11.75665         6.57773
     2006.44217       -10.83558         6.56889
     2006.44491       -10.36850         6.57994
     2006.44764       -13.66742         6.60535
     2006.87749         4.37748         6.44518
     2006.88022         0.84855         6.42640
     2006.88296        -1.47337         6.38995
     2006.88570        -3.04930         6.44850
     2006.88844        -4.48322         6.57442
     2006.89118        -5.31814         6.53686
     2006.89391       -16.98807         6.80969
     2006.89665         0.88901         6.52582
     2006.89939        -1.85792         6.41536
     2006.90213         1.89716         6.43303
     2006.90486        -9.07276         6.58325
     2006.90760        10.36231         6.39437
     2006.91034         1.31439         6.40321
     2006.91308         0.49646         6.43082
     2006.91582        -5.47046         6.53134
     2006.91855        -8.75239         6.46065
     2006.92129        -4.34231         6.41978
     2006.92403        -5.35423         6.38995
     2006.92677        -4.59016         6.47721
     2006.92951        -1.85808         6.62523
     2006.93224        -4.24601         6.49047
     2006.93498        -2.17893         6.55122
     2006.93772        -0.24885         6.55453
     2006.94046         4.67322         6.64511
     2006.94319        -1.88370         6.49820
     2006.94593        -5.11863         6.62633
     2006.94867        -1.14155         6.54680
     2006.95141        -4.11148         6.63627
     2006.95415       -10.58140         6.87265
     2006.95688         5.56368         6.56558
     2006.95962         1.61375         6.53465
     2006.96236        -1.69117         6.56227
     2006.96510        -0.96310         6.64953
     2006.96784        -0.86302         6.49931
     2006.97057        -5.75495         6.58657
     2006.97331        -8.22887         6.61418
     2006.97605        -6.33879         6.72685
     2006.97879        -2.37372         6.62302
     2006.98152        -9.06364         6.62412
     2006.98426        -8.34057         6.78539
     2006.98700        -2.32449         6.92567
     2006.98974        -2.36041         6.84504
     2006.99248        -9.53834         6.79644
     2006.99521        -4.95026         6.71801
     2006.99795        -4.31319         6.68156
     2007.00343        -0.93304         6.68929
     2007.00616        -1.26096         6.74121
     2007.01164        -0.97181         8.11861
     2007.01438        -3.01673         6.52692
     2007.01985        -9.47858         6.54570
     2007.02259        -6.05150         6.38664
     2007.02533         1.20457         6.55674
     2007.02807        -1.68135         6.54128
     2007.03081        -8.24828         6.32257
     2007.03354        -5.78520         6.25961
     2007.03628        -6.00613         6.24967
     2007.03902        -9.01705         6.21322
     2007.04176        -8.85197         6.26955
     2007.04449        -7.31390         6.25078
     2007.04723       -10.08682         6.39106
     2007.04997        -6.60475         6.55453
     2007.05271        -4.65667         6.48826
     2007.05545        -8.61860         6.22095
     2007.05818        -6.84452         6.22095
     2007.06092       -11.28544         6.21764
     2007.52909         4.29452         6.35240
     2007.53183         6.43460         6.40873
     2007.53457        -0.73433         6.46727
     2007.53731         4.02975         6.36565
     2007.54005         2.63382         6.53907
     2007.54278         4.04090         6.49047
     2007.54552         9.37197         6.59651
     2007.54826         7.14205         6.39658
     2007.55100         1.62313         6.35571
     2007.55374         4.04920         6.31816
     2007.55647         3.30428         6.36013
     2007.55921        11.29935         6.61860
     2007.56195         5.49143         6.60976
     2007.56469         9.95951         6.35461
     2007.56742         3.46158         6.33031
     2007.57016         6.24666         6.46286
     2007.57290        -1.34027         6.39769
     2007.57564        -1.47219         6.40431
     2007.57838         8.61288         6.48605
     2007.58111         0.73396         6.36344
     2007.58385         2.41404         6.38001
