# ================= DQRFIT RESULTS ================
# INPUT FILE: series/SKGT.rad
# OUTPUT: LDETRENDED
# FILTER FUNCTION: f(t)
# f(t)=+line(t)+annual(t)
# line(t)=+P 1+P 2*t
# annual(t)=+P 3*sin(2*pi*t+P 4)
# heav(t)=(t<0?0:1)
# TOTAL OBSERVATIONS MTOT= 1625
# INITIAL TIME INTERVAL= 2022.7488 - 2018.2916 =  4.4572
# TOTAL OBSERVATIONS AFTER PREFILTER M= 1607
# TIME-SPAN= 2022.7488 - 2018.2916 =  4.4572
# OBSERVATIONS: USED M=  1607 REJECTED MTOT-M=    18 %USED=   98.8923
# N=  4 PARAMETERS
# MAXSIG= 175.00000
# MAXRES=  21.92506
# SCALE FACTOR FOR LENGTHS: SCL=  10.00000
# SCALE FACTOR FOR SIGMAS: SCLSIG=   1.00000
# CHI^2=   1247.789 DOF=  1603 CHI^2/DOF=   0.77841
# RMS=      5.035 SDEV=      5.036 MEAN=    0.04508
#  P #       PARAMETER +-    SIGMA %error PARAMETER NAME
# P 1 =      6100.49564 +-  194.393   3.19 YZERO                              
# P 2 =        -3.03084 +-    0.096   3.17 SLOPE                              
# P 3 =         4.33419 +-    0.175   4.03 ANNUAL AMPLITUDE                   
# P 4 =         3.04702 +-    0.057   1.86 ANNUAL PHASE                       
#       T            LDETRENDED       SIG_OBS
     2018.29158        -7.53779         4.93368
     2018.29431        -8.20250         4.83398
     2018.29705        -8.77520         4.70517
     2018.29979        -8.42090         4.78899
     2018.30253        -7.95160         4.84545
     2018.30527       -10.85330         4.77222
     2018.30800       -12.52801         4.74752
     2018.31074       -10.67971         4.69282
     2018.31348       -11.40741         4.70782
     2018.31622        -9.79611         4.74223
     2018.31895        -0.21781         4.86398
     2018.32169        -4.92452         4.76340
     2018.32443        -7.43022         4.76252
     2018.32717        -9.82292         4.74487
     2018.32991        -3.14262         4.85692
     2018.33264        -2.33932         4.72723
     2018.33538       -13.42303         5.14013
     2018.33812        -5.99073         4.96632
     2018.34086        -2.51743         4.78105
     2018.34360        -6.65113         4.72370
     2018.34633        -4.88383         4.71841
     2018.34907        -6.23554         4.73782
     2018.35181        -1.78724         5.01926
     2018.35455        -6.86294         4.74840
     2018.35728        -0.61964         4.68576
     2018.36002        -4.78834         4.81546
     2018.36276         3.16795         4.81898
     2018.36550        -4.30675         4.75193
     2018.36824        -1.06145         4.76870
     2018.37097        -1.89815         4.88427
     2018.37371        -1.19285         4.71135
     2018.37645        -3.66956         4.79693
     2018.37919        -4.13426         4.74487
     2018.38193        -0.92296         4.82075
     2018.38466        -1.05366         4.77487
     2018.38740        -0.11836         4.73164
     2018.39014         3.68093         4.77134
     2018.39288        -0.09377         4.82869
     2018.39561        -0.45247         4.79781
     2018.39835         1.74783         4.86927
     2018.40109         1.95613         4.73517
     2018.40383         0.05242         4.84898
     2018.40657         0.29072         4.73605
     2018.40930        10.94302         4.88251
     2018.41204         7.20632         4.76870
     2018.41478         0.31462         4.76340
     2018.42299        -0.49749         4.74487
     2018.42573         9.30081         4.79516
     2018.42847         3.65711         4.77222
     2018.43121         5.67240         4.81634
     2018.43394         1.67070         4.72723
     2018.43668         0.65100         4.70958
     2018.43942         4.33330         4.74311
     2018.44216        -1.06640         4.80840
     2018.44490         2.65989         4.79957
     2018.44763         2.35019         4.84722
     2018.45037        -2.68951         4.70605
     2018.45311        -0.51821         4.72458
     2018.45585         4.14409         4.77487
     2018.45859        -2.53062         4.81016
     2018.46132        -5.08732         4.94691
     2018.46406        -2.36802         4.76428
     2018.46680         4.74528         4.78193
     2018.46954        -1.78642         4.76164
     2018.47227         1.32687         4.91868
     2018.47501         5.41417         4.80310
     2018.47775         3.53147         4.79163
     2018.48049         1.52577         4.85339
     2018.48323         1.06607         4.69458
     2018.48596        -3.54964         4.82163
     2018.48870         2.90966         4.79340
     2018.49144         2.41396         4.76164
     2018.49418         5.45226         4.87898
     2018.49692         2.88856         4.93544
     2018.49965         3.30985         4.80222
     2018.50239         0.27015         4.73340
     2018.50513        -2.87655         4.80840
     2018.50787         4.03675         4.78016
     2018.51060         2.17205         5.01132
     2018.51334         1.21134         4.75987
     2018.51608        -1.94936         4.79163
     2018.51882        -0.38606         4.79075
     2018.52156         3.70824         4.80310
     2018.52429         1.61154         4.72458
     2018.52703         1.27783         4.77222
     2018.52977         1.77713         4.84016
     2018.53251         0.76443         4.80399
     2018.53525         3.53573         4.71576
     2018.53798        -0.37597         4.76870
     2018.54072         4.71832         4.75281
     2018.54346         5.50362         4.79163
     2018.54620         2.81492         4.77928
     2018.54893         0.69922         4.75811
     2018.55167         3.62452         4.88339
     2018.55441        -0.58019         4.76605
     2018.55715        -1.60789         4.90457
     2018.55989        -0.53959         4.94250
     2018.56262        -1.48329         4.74664
     2018.56536         0.72401         4.81281
     2018.56810         4.56130         4.76781
     2018.57084         0.17460         4.74487
     2018.57357        -0.45010         4.82693
     2018.57631        -2.28680         5.06073
     2018.57905        -1.85151         5.01661
     2018.58179         4.71079         4.91162
     2018.58453        -0.07891         4.95927
     2018.58726         2.71339         4.71929
     2018.59000         3.52869         4.69458
     2018.59274         0.86398         4.75370
     2018.59548         1.45728         4.97427
     2018.59822         3.34458         4.79781
     2018.60095         0.20588         4.74929
     2018.60369         1.66618         4.65929
     2018.60643         3.48847         4.79516
     2018.60917        -2.35323         4.84192
     2018.61190         7.71307         4.79163
     2018.61464         1.47537         4.70958
     2018.61738         5.75867         4.71929
     2018.62012         0.75396         4.63724
     2018.62286         2.57426         4.83398
     2018.62559        10.51456         4.89574
     2018.62833         1.14186         4.76164
     2018.63107         5.05616         4.72899
     2018.63381         4.36445         4.94956
     2018.63655         3.42575         4.72017
     2018.63928         6.77005         4.96280
     2018.64202         3.57835         5.14807
     2018.64476         7.50465         4.71929
     2018.64750         2.94494         4.74576
     2018.65023        10.42624         4.90898
     2018.65297         8.02954         4.76164
     2018.65571        11.59284         4.77752
     2018.65845         4.15014         4.84545
     2018.66119         7.51043         4.77222
     2018.66392         6.02673         4.73782
     2018.66666         5.06003         4.78016
     2018.66940         3.37633         4.80222
     2018.67214         9.00963         4.84457
     2018.67488         3.38292         4.77928
     2018.67761         4.26322         4.76870
     2018.68035        -0.07148         4.81634
     2018.68309        -1.41818         4.91251
     2018.68583         8.79812         4.77487
     2018.68856         0.99441         4.83310
     2018.69130         2.79771         4.91780
     2018.69404         5.52201         4.93103
     2018.69678         0.06931         4.81987
     2018.69952         2.80861         4.76428
     2018.70225         2.55690         4.88780
     2018.70499        -0.88680         4.75370
     2018.70773         2.55050         4.79957
     2018.71047         1.61580         4.76428
     2018.71321         4.72710         4.74752
     2018.71594         3.05739         4.69811
     2018.71868        -7.56531         4.76252
     2018.72142        -1.82601         4.83575
     2018.72416        -5.53771         4.86398
     2018.72689         1.32859         4.84545
     2018.72963         0.30188         4.80046
     2018.73237        -1.25682         4.75370
     2018.73511        -2.29352         4.80222
     2018.73785         1.35578         4.82075
     2018.74058         0.03708         4.77664
     2018.74332         7.78837         4.75723
     2018.74606         2.50067         4.79340
     2018.74880         4.36697         4.86222
     2018.75154         0.52327         4.98397
     2018.75427         3.76957         4.74487
     2018.75701         5.94086         4.87104
     2018.75975         1.42016         4.73693
     2018.76249         4.27946         4.73252
     2018.76522         0.18276         4.80840
     2018.76796         3.30106         4.73693
     2018.77070         3.95935         4.81722
     2018.77344         6.68865         4.75458
     2018.77618         2.47695         4.77134
     2018.77891         3.17225         4.84986
     2018.78165         1.22955         4.78369
     2018.78439         3.56084         4.75105
     2018.78713         1.03214         4.73164
     2018.78987        -8.90956         4.77575
     2018.79260        -3.50126         4.74752
     2018.79534         4.31904         4.71488
     2018.79808         0.88933         4.73782
     2018.80082        -0.06637         5.52304
     2018.80355         4.92893         4.74399
     2018.80629         3.62023         4.91515
     2018.80903         1.40253         4.78546
     2018.81177         2.70182         4.99191
     2018.81451         3.48612         4.88074
     2018.81724         4.87642         5.00338
     2018.81998         4.30672         4.90192
     2018.82272        13.00002         4.84457
     2018.82546        10.26731         4.79516
     2018.82820         1.95861         4.70252
     2018.83093         3.31191         4.79605
     2018.83367        -1.31479         4.74311
     2018.83641        13.55551         4.96721
     2018.83915         2.85780         4.77752
     2018.84188         6.65210         4.75370
     2018.84462        -0.56260         4.75105
     2018.84736         0.32970         4.75193
     2018.85010         5.86000         4.72811
     2018.85284        -1.29471         4.72899
     2018.85557        -3.90141         4.84634
     2018.85831         0.03289         4.74046
     2018.86105        -2.57581         4.79693
     2018.86379         0.60349         4.84722
     2018.86653        -2.84522         4.81987
     2018.86926        -0.65692         4.83310
     2018.87200        -0.31262         4.83928
     2018.87474        -2.00232         4.80487
     2018.87748         0.61798         4.86575
     2018.88021         4.88827         4.97956
     2018.88295         5.27257         4.87986
     2018.88569         8.14387         4.85516
     2018.88843         8.69317         4.88868
     2018.89117         4.03146         4.92309
     2018.89390         4.96976         4.91251
     2018.89664        -0.88794         4.95662
     2018.89938         4.72636         4.83487
     2018.90212         0.99566         4.85869
     2018.90485         8.56095         5.04573
     2018.90759         2.90825         4.83045
     2018.91033         4.49855         4.88604
     2018.91307         8.79385         4.89486
     2018.91581        12.07115         4.84104
     2018.91854        10.20044         4.78369
     2018.92128         4.10774         4.83398
     2018.92402         6.81604         4.82428
     2018.92676         8.89834         4.82869
     2018.92950        12.86764         4.83045
     2018.93223         5.20493         4.93544
     2018.93497         4.61023         4.92221
     2018.93771         2.83453         4.83487
     2018.94045         2.33283         4.82781
     2018.94318         5.21513         4.74576
     2018.94592        11.67042         4.83575
     2018.94866         3.08572         4.74399
     2018.95140        15.59702         4.98309
     2018.95414        13.56432         4.84192
     2018.95687        10.85362         4.77046
     2018.95961        12.55591         4.85339
     2018.96235        11.77121         4.79163
     2018.96509         8.62551         4.79075
     2018.96783         3.21481         4.93280
     2018.97056         9.07911         4.78546
     2018.97330         2.91140         4.83663
     2018.97604         3.28770         4.87810
     2018.97878         5.03100         4.74134
     2018.98151        -5.67570         4.75017
     2018.98425         1.60960         4.88427
     2018.98699        -2.47211         4.88692
     2018.98973        -3.40681         4.77840
     2018.99247         0.97749         4.79428
     2018.99520        -0.59021         4.82957
     2018.99794        -4.88691         4.88516
     2019.00068        -6.31562         4.91162
     2019.00342        -2.74832         4.88604
     2019.00616        -8.11102         4.80663
     2019.00889        -1.11872         4.85339
     2019.01163        -0.95042         4.75193
     2019.01437         5.27387         4.81457
     2019.01711         5.58017         4.94250
     2019.01984        -1.49553         4.81281
     2019.02258        -2.69923         4.76164
     2019.02532        -3.37093         4.81898
     2019.02806        -5.09564         4.85516
     2019.03080        -4.03534         4.84722
     2019.03353        -7.97904         4.72635
     2019.03627        -8.60774         4.75987
     2019.03901        -2.82844         4.73252
     2019.04175        -3.70015         4.73605
     2019.04449         0.79615         4.75370
     2019.04722        -5.19555         4.88251
     2019.04996        -5.91325         4.97074
     2019.05270        -5.56195         4.87721
     2019.05544        -9.06266         4.85163
     2019.05817         0.04164         5.00603
     2019.06091        -0.10706         4.84810
     2019.06365        -3.17576         4.78546
     2019.06639        -0.30946         4.81457
     2019.06913        -2.80817         4.83663
     2019.07186        -8.43087         4.88780
     2019.07460         0.94643         4.75634
     2019.07734         0.68873         4.71752
     2019.08008         1.19903         4.66018
     2019.08282        -2.83168         4.91780
     2019.08555         2.72762         4.79516
     2019.08829        -2.28908         4.72635
     2019.09103         1.55222         4.82604
     2019.09377         1.22052         4.74223
     2019.09650         9.90981         4.75193
     2019.09924         0.22711         4.76164
     2019.10198        -2.27859         4.72635
     2019.10472         0.20671         4.77752
     2019.10746         6.92401         4.67694
     2019.11019         1.80730         4.74223
     2019.11293         6.58360         4.81369
     2019.12115        16.83250         4.85516
     2019.12388         9.13579         4.78193
     2019.12662         6.80109         4.89486
     2019.12936         2.55139         4.76605
     2019.13210        -1.75131         4.75105
     2019.13483        -3.54201         4.84457
     2019.13757         0.03028         4.76164
     2019.14031         4.76358         4.76605
     2019.14305         2.54488         4.78105
     2019.14579        -5.59282         4.73693
     2019.14852        -0.64952         4.81457
     2019.15126         4.92477         4.74576
     2019.15400        -0.18793         4.73076
     2019.15674        -3.36463         4.68841
     2019.15948        -1.27833         4.71135
     2019.16221        -6.75103         4.77752
     2019.16495        -3.02274         4.74046
     2019.16769        -7.20244         4.69811
     2019.17043        -7.14914         4.69105
     2019.17316        -3.63884         4.71399
     2019.17590        -1.69254         4.70870
     2019.18412       -11.24465         4.72282
     2019.18685        -7.72935         4.72017
     2019.18959        -3.52605         4.72811
     2019.19233        -6.18976         4.70782
     2019.19507        -2.27746         4.73252
     2019.19780        -4.79716         4.74311
     2019.20054        -7.61986         4.84634
     2019.20328       -10.24857         4.73782
     2019.20602       -13.95927         4.91603
     2019.20876       -11.61197         4.70958
     2019.21149        -7.93667         4.74576
     2019.21423        -6.11837         4.72282
     2019.21697        -6.86408         4.75281
     2019.21971        -6.68078         4.91780
     2019.22245        -6.29248         4.72193
     2019.22518        -4.84018         4.72193
     2019.22792        -7.07188         4.79781
     2019.23066       -15.70559         4.73340
     2019.23340        -5.58929         4.72105
     2019.23613        -5.78399         4.68841
     2019.23887        -5.24269         4.71488
     2019.24161       -10.91539         5.02279
     2019.24435       -10.34210         4.82869
     2019.24709        -8.73080         4.83398
     2019.24982        -1.93050         4.82075
     2019.25256         0.01680         4.83928
     2019.25530        -6.60390         4.72282
     2019.25804        -8.78361         4.85604
     2019.26078        -7.88031         4.75899
     2019.26351        -2.45601         4.82428
     2019.26625        -6.02071         4.69458
     2019.26899        -7.33541         4.81634
     2019.27173        -5.05212         4.98132
     2019.27446       -11.44482         4.74134
     2019.27720        -7.40052         4.85692
     2019.27994        -6.56422         4.79693
     2019.28268        -8.87492         4.81898
     2019.28542         1.91537         4.71752
     2019.28815        -1.42833         4.73870
     2019.29089        -4.41603         4.76517
     2019.29363        -5.76473         4.76781
     2019.29637        -5.22743         4.86751
     2019.29911         1.97686         4.76605
     2019.30184        -5.67384         4.75723
     2019.30458        -5.66854         4.76781
     2019.30732        -9.18924         4.76340
     2019.31006        -1.71894         4.78546
     2019.31279        -6.34065         4.78811
     2019.31553         4.26265         4.79252
     2019.31827        -4.39005         4.91427
     2019.32101        -5.27575         4.74752
     2019.32375       -12.51645         4.69282
     2019.32648        -4.79916         4.69282
     2019.32922        -3.55286         4.74929
     2019.33196        -6.32456         4.82251
     2019.33470        -9.82526         4.82781
     2019.33744        -8.96696         4.79428
     2019.34017       -11.59067         4.77134
     2019.34291        -2.05837         4.74576
     2019.34565        -3.44207         4.83310
     2019.34839        -3.05577         4.83487
     2019.35112        -8.14647         4.79516
     2019.35386        -9.94218         4.74223
     2019.35660        -4.32888         4.82163
     2019.35934         5.77142         4.78987
     2019.36208        -0.61428         4.75281
     2019.36481        -2.46998         4.84545
     2019.36755        -2.47669         4.78281
     2019.37029        -7.37739         4.78811
     2019.37303        -2.64809         4.77311
     2019.37577         4.06021         4.85692
     2019.37850        -3.87849         4.83928
