# ================= DQRFIT RESULTS ================
# INPUT FILE: series/SKMA.rad
# OUTPUT: LDETRENDED
# FILTER FUNCTION: f(t)
# f(t)=+line(t)+annual(t)+jumps(t)
# line(t)=+P 1+P 2*t
# annual(t)=+P 3*sin(2*pi*t+P 4)
# jumps(t)=+P 5*heav(t-2014.5178  )
# heav(t)=(t<0?0:1)
# TOTAL OBSERVATIONS MTOT= 2828
# INITIAL TIME INTERVAL= 2014.5402 - 2006.2394 =  8.3008
# TOTAL OBSERVATIONS AFTER PREFILTER M= 2788
# TIME-SPAN= 2014.5402 - 2006.2394 =  8.3008
# OBSERVATIONS: USED M=  2788 REJECTED MTOT-M=    40 %USED=   98.5856
# N=  5 PARAMETERS
# MAXSIG= 175.00000
# MAXRES=  32.48952
# SCALE FACTOR FOR LENGTHS: SCL=  10.00000
# SCALE FACTOR FOR SIGMAS: SCLSIG=   1.00000
# CHI^2=   6517.508 DOF=  2783 CHI^2/DOF=   2.34190
# RMS=      8.906 SDEV=      8.907 MEAN=   -0.03365
#  P #       PARAMETER +-    SIGMA %error PARAMETER NAME
# P 1 =      -466.71403 +-  146.227  31.33 YZERO                              
# P 2 =         0.36870 +-    0.073  19.73 SLOPE                              
# P 3 =         7.17389 +-    0.231   3.23 ANNUAL AMPLITUDE                   
# P 4 =        -2.83003 +-    0.043   1.53 ANNUAL PHASE                       
# P 5 =      -295.57966 +-    2.898   0.98 OFFSET 2014.5178                   
#       T            LDETRENDED       SIG_OBS
     2006.23938         6.08610         9.28296
     2006.25873         3.20597         8.58666
     2006.26147         5.98096         8.95547
     2006.26421         4.07195         9.03658
     2006.26695         2.23794         8.62033
     2006.26968        -5.37207         8.55453
     2006.27242        -1.79108         8.54687
     2006.27516         5.11191         9.01515
     2006.27790        -0.74610         8.95853
     2006.28063         9.52089         8.71368
     2006.28337        -3.98412         8.64329
     2006.28611         1.54887         8.62186
     2006.28885         2.77186         8.69226
     2006.29159        -3.34615         8.64022
     2006.29395        -7.38202        11.29381
     2006.34908         1.02266         8.83917
     2006.35182        -2.33435         8.74429
     2006.35456        -3.95636         8.57901
     2006.35729         1.17563         8.68613
     2006.36003         8.56162         8.61880
     2006.39098       -15.76479        14.15552
     2006.39289        -2.66150         8.96771
     2006.39562        -6.86050         9.17737
     2006.39836        -5.63251         9.07790
     2006.40110         2.04248         8.78101
     2006.40384         0.13147         8.91415
     2006.40658        -1.02754         8.83305
     2006.40931        -7.71155         8.84988
     2006.41205         1.81944         8.88355
     2006.41450        -4.01546         9.93641
     2006.42574         3.47839         9.15594
     2006.42848         3.21138        11.35962
     2006.43122        -7.94763        10.08638
     2006.43395         1.11536         8.81927
     2006.43669         4.63035         8.77183
     2006.43943         2.43834         8.73664
     2006.44217        -3.54467         8.91874
     2006.44491         3.18833         8.81621
     2006.44764         1.84732         9.01209
     2006.45038         6.37531         8.85906
     2006.45312        10.86230         9.77420
     2006.45586        -6.63271         9.31969
     2006.45956         4.27492        17.21618
     2006.46133         5.27427         9.00597
     2006.48708        -7.68222        21.79950
     2006.48871         1.26317         9.24929
     2006.49057         6.19849        15.88479
     2006.54700        -2.14832        13.38577
     2006.54894        -1.99903         8.87590
     2006.55168         8.26696         8.78714
     2006.55442         6.49495         8.79938
     2006.55665        -1.44687        11.40093
     2006.60754        19.55236        22.17137
     2006.60864        10.93195        11.38716
     2006.62652         0.92036        15.10892
     2006.62834         0.66269         8.86518
     2006.63108         6.02168         8.72745
     2006.63337         7.21184        10.80258
     2006.68310        12.02350         9.60127
     2006.68584        11.29549         9.67167
     2006.69953         2.08445         9.18043
     2006.70226        13.30044         9.30133
     2006.70500         3.98443         9.01362
     2006.70776         2.89941         8.89120
     2006.71048         6.07641         8.78561
     2006.71321        10.94940         9.17278
     2006.71869        13.43138         8.79173
     2006.72143        18.48037         9.13605
     2006.72417         7.91736         9.09779
     2006.72690        11.30135         8.89426
     2006.72964        10.42534         8.90956
     2006.73238        11.13133         8.84988
     2006.73512        12.20132         8.77183
     2006.73786         4.42931         8.91721
     2006.74059         4.77331         8.79785
     2006.74333         8.23430         8.94782
     2006.74607        14.11129         8.97384
     2006.74881         8.68128         8.98455
     2006.75154        -0.04373         9.29520
     2006.75428         4.17726         9.18961
     2006.75702        -0.86175         8.80856
     2006.75976        -0.62576         8.84529
     2006.76250         7.52423         9.26001
     2006.76523        12.32822         8.99679
     2006.76797         0.79421         9.11463
     2006.77071        -1.96880         8.84070
     2006.77345         6.08419         8.81774
     2006.77619        11.90018         8.94935
     2006.77892        16.21417         8.79938
     2006.78166         7.99116         8.68001
     2006.78440         3.01915         8.72898
     2006.78714         7.83314         9.25542
     2006.78987         0.07514         8.91262
     2006.79261        12.24313         8.64788
     2006.79535        -0.05288         8.87590
     2006.79809        -5.87189         9.00444
     2006.80083         7.42910         9.15748
     2006.80356         2.88809         8.83917
     2006.80630         4.90508         8.69073
     2006.80904         2.83807         8.78561
     2006.81178        -0.12494         8.91874
     2006.81452        -3.88195         9.13758
     2006.81725         3.74304         8.97843
     2006.81999        -7.16497         8.69073
     2006.82273       -11.98798         8.66624
     2006.82546         8.36602         8.97231
     2006.82826         2.29998         8.90803
     2006.83094         9.14199        17.22842
     2006.83374         6.83796         8.99526
     2006.83648         0.33395         9.04729
     2006.83921        -4.18506         9.03964
     2006.84195       -17.85807         9.35948
     2006.84469       -10.71107         9.89815
     2006.84743       -14.95608         9.19879
     2006.84994       -11.30301         9.46813
     2006.85285        -6.49008         9.22175
     2006.85558        -6.75809         9.33958
     2006.85832        -8.69910         9.06872
     2006.86106       -11.33411         9.26307
     2006.86364       -14.43406        19.89578
     2006.86653       -15.65713         9.14370
     2006.86927        -3.99014         8.74276
     2006.87192       -12.87211         9.31051
     2006.87475        -0.36816         8.81468
     2006.87749        -0.18017        11.64273
     2006.88022        -7.38918         8.84223
     2006.88296        -2.71419         8.92946
     2006.88570        -4.25720         8.97996
     2006.88844        -8.09120         8.69838
     2006.89118        -8.96921         8.74276
     2006.89391       -18.64722         8.98761
     2006.89665       -16.51223         8.90956
     2006.89939       -17.68124         8.70603
     2006.90213        -1.58825         8.72898
     2006.90486       -11.94626         8.80703
     2006.90760        -5.17627         8.69838
     2006.91034        -8.32128         8.65094
     2006.91308        -8.47629         8.88049
     2006.91582       -14.94830         8.58819
     2006.91855       -16.64831         8.55912
     2006.92129        -6.52532         8.55300
     2006.92403        -1.53433         8.78408
     2006.92677       -13.89734         8.87896
     2006.92951        -1.58035         8.70756
     2006.93224         7.20364        11.84473
     2006.93498        -1.20837         8.94935
     2006.93772        -6.30737         8.90191
     2006.94046         0.57362         8.80397
     2006.94319       -15.92839         8.79479
     2006.94593       -10.88640         8.85906
     2006.94867       -18.09441         8.79479
     2006.95141       -13.02242         8.91568
     2006.95415        -4.37643         9.17431
     2006.95688         1.63456         8.81009
     2006.95949         6.82760         9.18502
     2006.96236         0.26954         8.61115
     2006.96510         1.82353         8.80550
     2006.96784         0.12952         8.73051
     2006.97057        -3.58749         8.73664
     2006.97331       -15.02250         8.82080
     2006.97605       -22.30751         8.79479
     2006.97879       -17.53052         8.79632
     2006.98152       -18.11353         8.73970
     2006.98426       -14.45654         8.86365
     2006.98700        -8.11754         9.14217
     2006.98974       -11.12855         8.94629
     2006.99248       -10.51456         8.94017
     2006.99521        -6.85957         9.07943
     2006.99795        -4.76558         8.91568
     2007.00343        -9.64360         9.10544
     2007.00616       -18.08161         8.87283
     2007.00890       -13.63062         8.93099
     2007.01164       -22.59363         8.82846
     2007.01438       -19.31564         8.97537
     2007.01712       -14.39065         8.96771
     2007.01985       -19.92866         8.75194
     2007.02259       -33.58467         8.70297
     2007.02533       -14.48568         8.66777
     2007.02807       -18.92469         8.72286
     2007.02985       -15.27734        15.79450
     2007.03354       -13.49571        26.39048
     2007.04184       -11.98576         8.80856
     2007.04449       -11.75974         8.38313
     2007.04723       -14.58575         8.60044
     2007.04997       -25.69276        10.13688
     2007.05227       -31.53861        11.07804
     2007.06417       -24.12000        11.00305
     2007.06616       -16.32673         9.76042
     2007.06914       -12.20883         8.26836
     2007.07187        -8.98284         8.29896
     2007.07461        -9.27485         8.31580
     2007.07735        -6.09486         8.23316
     2007.08009       -15.92987         8.27601
     2007.08228       -15.29468        10.92347
     2007.19062        -5.39262        16.78921
     2007.19234       -15.71425         8.81468
     2007.19508         5.76374         8.45353
     2007.19781       -11.66727         8.50097
     2007.20055       -16.45428         8.52851
     2007.20329       -12.23229         8.50250
     2007.20603       -14.62330         8.50709
     2007.20877       -17.51131         8.60962
     2007.21150       -11.11832         8.51321
     2007.21424       -19.31033         8.71368
     2007.21698        -5.30134         8.51780
     2007.21972        -4.11535         8.49178
     2007.22246        -6.62036         8.42904
     2007.22519       -27.24337         8.50403
     2007.22793       -15.17138         8.47189
     2007.23067        -7.55539         8.31273
     2007.23341       -11.57339         8.57748
     2007.23614        -6.72440         8.53922
     2007.23888        -9.87541         8.46730
     2007.24162       -10.45542         8.63410
     2007.24436       -18.10443         8.54381
     2007.24710        -8.66244         8.43057
     2007.24983        -1.03245         8.34487
     2007.25257        -7.58646         8.47342
     2007.25531        -7.05647         8.60350
     2007.25805        -3.94848         8.43516
     2007.26079        -5.34949         8.48107
     2007.26352        -3.37550         8.37701
     2007.26626        -5.54051         8.78408
     2007.26900       -10.21052         8.52698
     2007.27174        -8.39453         8.65553
     2007.27447        -2.77354         8.32957
     2007.27721        -0.36355         8.42292
     2007.27995       -10.39556         8.58054
     2007.28271        12.27343        16.88103
     2007.28543         4.55043         8.42292
     2007.28816        -6.26458         8.43210
     2007.29090       -13.90359         8.54534
     2007.29364        -3.75760         8.38466
     2007.29638       -14.08161         8.47954
     2007.29911       -10.55462         8.36171
     2007.30185        -8.61963         8.38007
     2007.30459       -13.84664         8.40608
     2007.30733         0.13435         8.46424
     2007.31007        -4.03866         8.73357
     2007.31280         5.17433         8.64788
     2007.31554        -2.00168         8.37854
     2007.31828        -1.22369         8.45812
     2007.32102        -7.41170         8.49331
     2007.32376        -0.76571         8.45199
     2007.33196        -6.79773         8.70603
     2007.33470       -13.34374         8.72745
     2007.33744        -7.98575         8.51780
     2007.34017       -10.52476         8.57595
     2007.34291       -11.14077         8.51780
     2007.34565        -6.12278         8.41833
     2007.34839       -10.59179         8.60044
     2007.35112        -0.06480         8.60503
     2007.35386       -13.50481         9.07484
     2007.37029        -7.79286         8.65400
     2007.37303        -0.06087         8.86977
     2007.37577        -4.86688         8.89579
     2007.37850        -4.45189         8.70450
     2007.38124        -6.66390         8.64788
     2007.38398       -12.68291         8.72286
     2007.38672       -11.40992         8.45812
     2007.38945       -15.95793         8.71827
     2007.39219        -9.90794         8.77642
     2007.39493        -8.10195         8.54075
     2007.39767       -11.45896         8.54534
     2007.40041         5.70603         8.59125
     2007.40314       -12.38498         8.50097
     2007.40588        -7.44999         8.44587
     2007.40862       -11.13600         8.61268
     2007.41136        -4.28601         8.62798
     2007.41410        -6.26401         8.66471
     2007.41683        -2.02802         8.55453
     2007.41957        -3.23703         8.60962
     2007.42231        -4.20304         8.81927
     2007.42505        -4.13605         8.92181
     2007.42778         2.25594         8.47648
     2007.43052        -5.68207         8.47342
     2007.43326        -4.01108         8.44281
     2007.43600        -1.89909         8.46883
     2007.43874       -10.28010         8.60044
     2007.44421        -6.02912         8.57289
     2007.44695        -8.02613         8.71062
     2007.44915       -18.62494        11.01835
     2007.45243       -14.11615         8.45506
     2007.45516       -10.88616         8.31886
     2007.45790        -7.84217         8.44434
     2007.46064        -5.96218         8.52086
     2007.47159       -10.34721         8.42445
     2007.47433        -5.95322         8.38772
     2007.47707       -12.30723         8.86518
     2007.47980        -7.02524         8.56065
     2007.48254       -12.81825         8.50097
     2007.48528        -7.74826         8.51627
     2007.48802        -8.92927         8.60350
     2007.49076        -2.82828         9.08096
     2007.49454         7.59933        17.85891
     2007.49623       -16.06930        25.58400
     2007.49942        11.31452        14.51209
     2007.50172        -7.72832        10.96938
     2007.50416       -17.84522        13.22814
     2007.50718        -7.32034         8.44893
     2007.50992        -8.36335         8.58972
     2007.51266       -14.32035         8.75806
     2007.51540        -9.74236         8.79938
     2007.51813        -7.09337         8.53616
     2007.52087        -2.52438         8.39384
     2007.52361        -4.26039         8.52239
     2007.52635        -3.64540         8.62339
     2007.52908         8.55059         9.78644
     2007.53189         6.91055         9.20798
     2007.53456         4.15857         8.68767
     2007.53730        -1.77144         8.65553
     2007.54004         2.27055         8.85600
     2007.54277        -5.09146         8.63257
     2007.54551       -12.71547         8.67848
     2007.54825         2.42852         8.54994
     2007.55099        -7.54049         8.60197
     2007.55373        -0.14550         8.46883
     2007.55646        -6.84851         8.57901
     2007.55920         3.36148         8.77183
     2007.56194        -3.57452        10.08026
     2007.56468        -0.06353         8.90344
     2007.56741         3.83746         8.58054
     2007.57015         5.78845         8.64788
     2007.57289        -6.98456         8.85294
     2007.57563         3.37643         8.68154
     2007.57837        -1.53658         8.63104
     2007.58110         3.51741         8.40455
     2007.58384        -1.28460         8.61268
     2007.58658         0.69639         8.75959
     2007.58932         0.59038         8.65247
     2007.59206         4.99037         8.56371
     2007.59479         3.83936         9.11769
     2007.59753         3.87535         8.64635
     2007.60027         8.59534         8.48872
     2007.60301         4.52333         8.74276
     2007.60574         6.83032         8.58360
     2007.60848        -3.10069         8.55147
     2007.61122        -2.52969         8.80091
     2007.61396        -4.79170         8.69226
     2007.61670        -3.49071         9.12687
     2007.61943         5.23428         9.28602
     2007.62303        11.20695        15.16554
     2007.62491         0.20826         9.16054
     2007.62769         5.32223         9.06260
     2007.63039         1.09724         9.32428
     2007.63312        -9.51477         9.14064
     2007.63586        -9.20578         8.88967
     2007.63860        -7.93279         8.77642
     2007.64134        -0.54080         8.53004
     2007.64407        -4.76181         8.90803
     2007.64681         4.63018         8.90650
     2007.64955        13.97517         9.33499
     2007.65229         1.17516         9.17125
     2007.65503        -0.02685         8.98149
     2007.65776         6.27914         8.74735
     2007.66050         5.49714         9.04882
     2007.66324         5.45813         8.91109
     2007.66598         1.30912         8.84682
     2007.66872        -0.53289         8.97078
     2007.67145         2.63310         8.86977
     2007.67419        12.99309         9.36407
     2007.67693         0.72708         8.98302
     2007.67967         1.49707         8.85141
     2007.68788         1.64904         9.04423
     2007.69062         3.97403         8.76112
     2007.69336         4.91602         8.89426
     2007.69609         4.68101         8.85141
     2007.69883         2.28900         8.87130
     2007.70157         8.44599         8.93558
     2007.70431        12.04698         9.15288
     2007.70705        11.73097         8.87896
     2007.70978         6.71397         8.92793
     2007.71252         6.82996         8.86977
     2007.71526         8.67995         8.52392
     2007.71800         8.09094         8.66777
     2007.72073         2.21493         8.59738
     2007.72347        19.78692         8.67695
     2007.72621         7.67791         8.48719
     2007.72895         1.98290         8.53616
     2007.73169         8.74989         8.76418
     2007.73442         4.57988         8.60503
     2007.73716        -5.47313         9.14982
     2007.73990        -0.45414         8.76112
     2007.74264         8.97685         8.54534
     2007.74538         3.02984         8.59432
     2007.74811       -10.58317         9.12687
     2007.75085        -9.43718         9.22634
     2007.75359        -2.67419         9.17125
     2007.75633        -3.40520         8.58666
     2007.75906        -0.48820         8.47954
