# ================= DQRFIT RESULTS ================
# INPUT FILE: series/SKND.rad
# OUTPUT: LDETRENDED
# FILTER FUNCTION: f(t)
# f(t)=+line(t)+annual(t)
# line(t)=+P 1+P 2*t
# annual(t)=+P 3*sin(2*pi*t+P 4)
# heav(t)=(t<0?0:1)
# TOTAL OBSERVATIONS MTOT=  334
# INITIAL TIME INTERVAL= 2017.0486 - 2011.4990 =  5.5496
# TOTAL OBSERVATIONS AFTER PREFILTER M=  334
# TIME-SPAN= 2017.0486 - 2011.4990 =  5.5496
# OBSERVATIONS: USED M=   334 REJECTED MTOT-M=     0 %USED=  100.0000
# N=  4 PARAMETERS
# MAXSIG= 175.00000
# MAXRES=  10.47133
# SCALE FACTOR FOR LENGTHS: SCL=  10.00000
# SCALE FACTOR FOR SIGMAS: SCLSIG=   1.00000
# CHI^2=    221.438 DOF=   330 CHI^2/DOF=   0.67102
# RMS=      4.704 SDEV=      4.711 MEAN=    0.04299
#  P #       PARAMETER +-    SIGMA %error PARAMETER NAME
# P 1 =      -851.68326 +-  450.088  52.85 YZERO                              
# P 2 =         0.42404 +-    0.223  52.68 SLOPE                              
# P 3 =         2.71208 +-    0.433  15.95 ANNUAL AMPLITUDE                   
# P 4 =         0.02932 +-    0.225 768.60 ANNUAL PHASE                       
#       T            LDETRENDED       SIG_OBS
     2011.49898         1.00580         4.69133
     2011.50172        -5.77336         4.80192
     2011.50445        -5.38052         4.73229
     2011.50719        -6.49568         4.73720
     2011.50993       -13.91984         4.84533
     2011.51267       -12.91400         4.98049
     2011.51541        -5.81616         4.75686
     2011.51814        -3.22932         4.77161
     2011.52088         0.79151         4.75768
     2011.52362        -5.99065         4.66102
     2011.52636        -4.84381         4.71263
     2011.52909         2.88703         4.73065
     2011.53183         3.51987         4.82403
     2011.53457         1.23771         4.72082
     2011.53731        -5.68045         4.64054
     2011.54005        -3.64361         4.62826
     2011.54278        -3.42177         4.65447
     2011.54552        -0.71393         4.77079
     2011.54826        -1.51809         4.76751
     2011.55100        -4.16726         4.69788
     2011.55374        -7.07042         4.69952
     2011.55647        -3.33258         4.71099
     2011.55921         1.70026         4.75031
     2011.56195         3.82010         4.73802
     2011.56469         2.02994         4.78062
     2011.56742        -7.27522         4.76178
     2011.57016        -5.98438         4.77079
     2011.57290         3.23346         4.70771
     2011.57564        -3.90370         4.83714
     2011.57838       -11.77386         4.74458
     2011.58111       -15.24203         4.92725
     2011.58385        -4.01319         4.74130
     2011.58659        -5.13135         4.75850
     2011.58933        -3.80151         4.73393
     2011.59206        -4.10867         4.67331
     2011.59480         1.45717         4.67986
     2011.59754        -2.28699         4.86991
     2011.60028         0.65585         4.67167
     2011.60302        -0.27831         4.71754
     2011.60575        -0.33247         4.77407
     2011.60849         7.91936         5.00671
     2011.61123         1.31620         5.03128
     2011.61397        -8.11496         4.87482
     2011.61671         2.29688         4.80192
     2011.61944        -3.04028         4.81093
     2011.62218         0.45756         4.79782
     2011.62492        -2.90960         4.79782
     2011.62766        -4.09476         4.77816
     2011.63039        -3.70192         4.81912
     2011.63313         3.85192         4.82649
     2011.63587         6.33376         4.80765
     2011.63861         0.61759         4.71427
     2011.64101         1.39358         5.64893
     2012.49282        -7.57262         4.59139
     2012.49556         1.03622         4.71672
     2012.49829        -3.08294         4.60614
     2012.50103         2.98590         4.67822
     2012.50377        -4.60227         4.68068
     2012.50651        -1.13743         4.63235
     2012.50924         2.46641         4.87810
     2012.51198         3.87725         4.76997
     2012.51472         0.42609         4.68396
     2012.51746        -0.53307         4.70608
     2012.52020        -5.43223         4.67822
     2012.52293        -2.59339         4.67167
     2012.52567        -0.28655         4.76997
     2012.52841        -0.55671         4.61843
     2012.53115        -4.72988         4.72655
     2012.53389         1.37296         4.73475
     2012.53662         2.95080         4.75195
     2012.53936         4.13964         4.72574
     2012.54210         8.27748         4.61597
     2012.54484         6.21332         4.67249
     2012.54757         1.23416         4.68969
     2012.55031         5.81600         4.73884
     2012.55305         5.09284         4.63071
     2012.55579         3.90068         4.69133
     2012.55853         2.37652         4.78635
     2012.56126         2.53135         4.74703
     2012.56400        -3.58981         4.59958
     2012.56674         4.16803         4.59139
     2012.56948         8.42287         4.71427
     2012.57222         1.20571         4.67167
     2012.57495        -6.67545         4.62088
     2012.57769         5.63539         4.71509
     2012.58043         4.43923         4.62989
     2012.58317        -5.63493         4.68478
     2012.58590         0.44091         4.63317
     2012.58864         1.43074         4.58484
     2012.59138        -0.42542         4.58238
     2012.59412         3.61042         4.67904
     2012.59686         3.20026         4.69051
     2012.59929         8.21023         5.25409
     2013.31417         1.41609         4.71754
     2013.31691        -0.11107         4.72574
     2013.31965        -1.94923         4.68396
     2013.32239         3.95161         4.74621
     2013.32512         1.09845         4.72082
     2013.32786         4.76729         4.80601
     2013.33060        -4.96887         4.72000
     2013.33334        -8.68703         4.69297
     2013.33608        -5.65919         4.69379
     2013.33881         1.38164         4.68396
     2013.34155         2.72348         4.74212
     2013.34429         6.97732         4.74867
     2013.34703         2.05516         4.72328
     2013.34977        -3.78100         4.67003
     2013.35250        -0.00516         4.67577
     2013.35524        -5.96432         4.85598
     2013.35798        -2.25548         4.76587
     2013.36072        -0.85864         4.73065
     2013.36345        -3.48280         4.70689
     2013.36619        -0.88096         4.75359
     2013.36893        -3.37313         4.84779
     2013.37167         5.69071         4.69706
     2013.37414         3.91767         5.34666
     2015.11842         2.55003         4.79618
     2015.12115         2.84487         4.78717
     2015.12389         5.26871         4.81994
     2015.12663         3.09254         4.77816
     2015.12937         2.46538         4.77079
     2015.13211        10.30522         4.81584
     2015.13484         2.55406         4.89776
     2015.13758         5.12990         4.83223
     2015.14032        12.61474         4.89121
     2015.14306         8.64658         4.83305
     2015.14580        10.76242         4.79291
     2015.14853         8.96226         4.85680
     2015.15127         6.10210         4.77816
     2015.15401         0.51494         4.86335
     2015.15675        10.01277         4.83059
     2015.15948         8.59461         4.77898
     2015.16222        10.03645         4.78881
     2015.16496         4.94129         4.77898
     2015.16770         5.53913         4.82731
     2015.17044         4.86997         4.79454
     2015.17317         3.09881         4.96903
     2015.17591         3.69865         4.95100
     2015.17865         4.18149         4.80683
     2015.18139         3.75833         4.83386
     2015.18413         3.50316         4.84042
     2015.18686         2.52600         4.81830
     2015.18960         5.38384         4.83305
     2015.19234        -1.07032         4.94691
     2015.19508         3.48452         4.86008
     2015.19781         0.69736         4.81666
     2015.20055        -0.06780         4.85844
     2015.20329         1.66904         4.87073
     2015.20603         3.81488         4.94609
     2015.20877        -1.04228         4.85352
     2015.21150        -2.05844         4.73393
     2015.21424        -3.53161         4.74212
     2015.21698        -3.07477         4.89121
     2015.21972         1.72607         4.83714
     2015.22246         6.43691         4.85025
     2015.22519        11.74075         4.77816
     2015.22793         3.15459         4.79700
     2015.23067         2.47843         4.74048
     2015.23341         2.42427         4.92643
     2015.23614         5.15911         5.01080
     2015.23888         5.71195         4.95428
     2015.24162         9.01678         4.92561
     2015.24436         4.91362         4.99032
     2015.24710         5.33646         4.80192
     2015.24983         0.20330         4.79536
     2015.25257         4.14014         4.77652
     2015.25531         8.61298         4.80601
     2015.25805         5.11482         4.80437
     2015.26079        11.97466         4.80110
     2015.26352        12.13050         4.78062
     2015.26626         7.04134         4.77325
     2015.26900         4.59318         4.76260
     2015.27174         6.97301         4.86172
     2015.27447        12.79085         4.91168
     2015.27721         4.94569         4.77079
     2015.27995         3.70553         4.79373
     2015.28269         2.35037         4.86090
     2016.61055        -8.40769         4.59139
     2016.61328        -7.93585         4.61187
     2016.61602       -10.48301         4.62662
     2016.61876        -6.99017         4.63481
     2016.62150        -8.24633         4.72164
     2016.62423        -5.62849         4.69379
     2016.62697        -3.93766         4.62252
     2016.62971        -5.23182         4.70034
     2016.63245        -7.38098         4.68068
     2016.63519        -4.29014         4.60122
     2016.63792        -6.49030         4.60860
     2016.64066         0.00854         4.64300
     2016.64340         1.15138         4.67822
     2016.64614        -1.97078         4.64300
     2016.64888        -8.77394         4.61187
     2016.65161        -0.56610         4.72246
     2016.65435        -8.77126         4.58975
     2016.65709        -8.75743         4.65119
     2016.65983        -7.49359         4.69297
     2016.66256        -8.40175         4.61924
     2016.66530        -2.68591         4.65529
     2016.66804         0.59893         4.74048
     2016.67078         0.32677         4.76014
     2016.67352        -1.75539         4.65611
     2016.67625         2.79145         4.69051
     2016.67899         1.92329         4.60941
     2016.68173         2.51913         4.61269
     2016.68447         5.77696         4.93298
     2016.68721        -5.09820         4.94363
     2016.68994        -1.77336         4.69870
     2016.69268        -7.12752         4.65529
     2016.69542        -4.01868         4.63727
     2016.69816         4.56516         4.72410
     2016.70089         2.78600         4.62416
     2016.70363         3.82984         4.75932
     2016.70637        -0.03432         4.95592
     2016.70911        -6.06648         4.93462
     2016.71185        -1.19864         4.70116
     2016.71458         5.57619         4.65119
     2016.71732         0.25703         4.65037
     2016.72006         5.86687         4.69051
     2016.72280         2.88871         4.61433
     2016.72554        -3.23145         4.77980
     2016.72827        -1.57761         4.75113
     2016.73101        -1.80277         4.67904
     2016.73375        -7.36493         4.59631
     2016.73649         3.67491         4.60122
     2016.73922        -3.78125         4.55945
     2016.74196        -8.21642         4.64628
     2016.74470       -13.64258         4.61187
     2016.74744         1.06926         4.60696
     2016.75018         1.46610         4.58238
     2016.75291         2.73494         4.59958
     2016.75565         1.99078         4.60696
     2016.75839         4.45262         4.56190
     2016.76113        -1.04454         4.64218
     2016.76387         2.67330         4.62416
     2016.76660        -0.02686         4.64710
     2016.76934         2.84798         4.60122
     2016.77208        -0.30619         4.64054
     2016.77482        -2.76035         4.66594
     2016.77755        -4.70851         4.65447
     2016.78029        -4.95167         4.64300
     2016.78303        -3.66583         4.67495
     2016.78577        -1.22099         4.69215
     2016.78851         6.60285         4.82240
     2016.79124        -1.46331         4.72655
     2016.79398         1.08253         4.69625
     2016.79672         3.30537         4.67577
     2016.79946        -5.82480         4.60614
     2016.80220        -1.69396         4.64054
     2016.80493        -2.34712         4.67413
     2016.80767        -4.39428         4.72000
     2016.81041        -6.23544         4.65775
     2016.81315         3.70640         4.66839
     2016.81588        -5.22076         4.62826
     2016.81862        -2.46592         4.62416
     2016.82136         0.42492         4.68887
     2016.82410        -4.53724         4.61761
     2016.82684        -5.26940         4.54470
     2016.82957         2.62943         4.64136
     2016.83231         4.03027         4.57337
     2016.83505        -0.28289         4.54634
     2016.83779        -5.63705         4.58402
     2016.84052        -8.82621         4.57419
     2016.84326        -5.34837         4.55535
     2016.84600        -4.00753         4.59713
     2016.84874         0.65331         4.64464
     2016.85148        -2.22685         4.60204
     2016.85421        -3.58501         4.62088
     2016.85695         1.35882         4.61597
     2016.85969        -2.15734         4.69788
     2016.86243        -2.16550         4.66348
     2016.86517         1.72834         4.70935
     2016.86790        -1.65582         4.62989
     2016.87064        -5.16798         4.58812
     2016.87338         4.08486         4.67740
     2016.87612        -0.30230         4.72655
     2016.87885        -3.72646         4.64546
     2016.88159        -7.13062         4.64546
     2016.88433        -4.52078         4.60040
     2016.88707         0.31505         4.57992
     2016.88981         2.18989         4.64054
     2016.89254        -1.21627         4.62989
     2016.89528         4.52657         4.70935
     2016.89802        -4.44359         4.65119
     2016.90076        -8.09475         4.60368
     2016.90350         2.41709         4.69543
     2016.90623         6.45993         4.75031
     2016.90897         4.35777         4.70034
     2016.91171        -1.84639         4.69051
     2016.91445        -5.46256         4.64710
     2016.91718        -3.09572         4.67904
     2016.91992        -6.80588         4.68969
     2016.92266        -1.12804         4.62907
     2016.92540        -7.03220         4.71181
     2016.92814        -5.34136         4.71836
     2016.93087        -2.74452         4.63645
     2016.93361        -3.53568         4.58566
     2016.93635        -2.80784         4.55699
     2016.93909       -11.01200         4.75686
     2016.94183        -3.11116         4.63235
     2016.94456        -8.49133         4.61433
     2016.94730         0.53351         4.63071
     2016.95004        -0.93365         4.74376
     2016.95278        -7.71781         5.00261
     2016.95551        -4.07097         4.59385
     2016.96099         0.15071         4.60696
     2016.96373        -8.32045         4.61187
     2016.96647        -4.04161         4.64873
     2016.96920         0.27323         4.66594
     2016.97194        -4.64394         4.64792
     2016.97468         1.97390         4.64382
     2016.97742         2.59774         4.59057
     2016.98016       -11.08642         4.58156
     2016.98289         1.13842         4.66266
     2016.98563        -3.00574         4.63645
     2016.98837        -2.81190         4.67085
     2016.99111         0.32694         4.56272
     2016.99384        -0.71022         4.59139
     2016.99658         1.03962         4.63645
     2016.99932         0.13446         4.57829
     2017.00206        -1.17971         4.67495
     2017.00480         2.91913         4.65611
     2017.00753       -10.42403         4.59303
     2017.01027        -4.99419         4.59958
     2017.01301         2.77365         4.59467
     2017.01575        -3.13251         4.60614
     2017.01849        -1.45567         4.68396
     2017.02122       -10.97583         4.60286
     2017.02396         1.09701         4.62334
     2017.02670        -0.91015         4.69133
     2017.02944         0.48768         4.57501
     2017.03765        -8.23680         4.60941
     2017.04039        -5.95796         4.62498
     2017.04313        -7.83512         4.58074
     2017.04860         6.01056         4.89284
