# ================= DQRFIT RESULTS ================
# INPUT FILE: series/SMM1.rad
# OUTPUT: LDETRENDED
# FILTER FUNCTION: f(t)
# f(t)=+line(t)+annual(t)+jumps(t)
# line(t)=+P 1+P 2*t
# annual(t)=+P 3*sin(2*pi*t+P 4)
# jumps(t)=+P 5*heav(t-2013.5147  )
# heav(t)=(t<0?0:1)
# TOTAL OBSERVATIONS MTOT= 1656
# INITIAL TIME INTERVAL= 2014.4997 - 2009.5031 =  4.9966
# TOTAL OBSERVATIONS AFTER PREFILTER M= 1518
# TIME-SPAN= 2014.4997 - 2009.5332 =  4.9665
# OBSERVATIONS: USED M=  1518 REJECTED MTOT-M=   138 %USED=   91.6667
# N=  5 PARAMETERS
# MAXSIG= 175.00000
# MAXRES=  64.19739
# SCALE FACTOR FOR LENGTHS: SCL=  10.00000
# SCALE FACTOR FOR SIGMAS: SCLSIG=   1.00000
# CHI^2=  11526.099 DOF=  1513 CHI^2/DOF=   7.61804
# RMS=     21.550 SDEV=     21.557 MEAN=   -0.01033
#  P #       PARAMETER +-    SIGMA %error PARAMETER NAME
# P 1 =   1532017.16154 +- 1040.421   0.07 YZERO                              
# P 2 =      -762.86138 +-    0.517   0.07 SLOPE                              
# P 3 =         0.67686 +-    0.815 120.43 ANNUAL AMPLITUDE                   
# P 4 =        -0.22367 +-    1.664 744.16 ANNUAL PHASE                       
# P 5 =      4319.13504 +-    2.306   0.05 OFFSET 2013.5147                   
#       T            LDETRENDED       SIG_OBS
     2009.53319        61.97214        25.90335
     2009.53593        64.19574        21.06217
     2009.53867        56.80034        21.24710
     2009.54141        55.37094        20.96005
     2009.54414        60.89554        20.88277
     2009.54688        53.15414        20.87725
     2009.54962        52.58774        21.55347
     2009.55236        53.05734        21.96748
     2009.55509        46.59194        23.52140
     2009.55783        52.29754        22.38425
     2009.56057        52.99815        23.07979
     2009.56331        50.56275        21.40166
     2009.56605        45.54135        21.32438
     2009.56878        41.61795        20.82757
     2009.57152        44.40155        21.10909
     2009.57426        51.58815        21.01249
     2009.57700        47.62475        21.25538
     2009.57974        44.27135        20.71164
     2009.58247        42.67195        20.75856
     2009.58521        39.98655        20.95177
     2009.58795        42.12515        21.90400
     2009.59069        45.26275        20.80272
     2009.59342        40.22035        21.84880
     2009.59616        39.96195        21.49274
     2009.59890        41.07755        21.34646
     2009.60164        43.94315        20.73096
     2009.60438        44.03275        21.13669
     2009.60711        43.82235        20.85517
     2009.60985        43.02895        21.93160
     2009.61259        37.16355        20.54880
     2009.61533        38.35115        20.78616
     2009.61807        48.32775        21.09805
     2009.62080        43.69835        20.70612
     2009.62354        44.17895        20.72268
     2009.62628        42.03355        20.67024
     2009.62902        42.00816        20.48256
     2009.63175        42.55676        20.99041
     2009.63449        37.58136        21.53139
     2009.63723        41.85296        22.37321
     2009.63997        42.51256        21.22226
     2009.64271        39.21416        21.07321
     2009.64544        28.89376        20.83309
     2009.64818        37.19036        20.89381
     2009.65092        34.67496        21.51207
     2009.65366        33.05956        21.92884
     2009.68377        29.27217        20.47428
     2009.68651        27.10977        20.65920
     2009.69199        22.22397        20.94901
     2009.69472        21.95457        21.29954
     2009.69746        29.34817        20.97385
     2009.70020        36.41778        21.60039
     2009.70294        25.29838        20.88829
     2009.70568        24.89798        20.76132
     2009.70841        22.07558        20.34731
     2009.71115        30.78918        21.35750
     2009.71389        32.05378        20.88829
     2009.71663        23.80238        20.54328
     2009.71937        29.32698        20.73096
     2009.72210        26.49158        21.40994
     2009.72484        29.36318        21.93988
     2009.72758        31.30878        21.23882
     2009.73032        30.94938        20.48532
     2009.73305        27.50299        20.84689
     2009.73579        28.13059        20.97937
     2009.73853        24.30619        22.59954
     2009.74127        24.33879        21.70527
     2009.74401        25.25739        21.20018
     2009.74674        18.31299        20.64540
     2009.74948        19.48059        20.63436
     2009.75222        20.62119        20.65368
     2009.75496        19.40979        20.78064
     2009.75770        23.27439        21.09253
     2009.76043        29.77999        20.57916
     2009.76317        25.39559        20.39147
     2009.76591        20.52319        20.54604
     2009.76865        23.77679        21.07321
     2009.77138        19.80139        20.87449
     2009.77412        19.74899        21.01249
     2009.77686        16.84459        20.79168
     2009.77960        21.15919        20.63160
     2009.78234        26.40479        21.25814
     2009.78507        21.35639        20.53500
     2009.78781        22.23499        21.04837
     2009.79055        17.95959        20.94073
     2009.79329        18.95519        20.91313
     2009.79603        21.32179        21.44582
     2009.79876        25.65239        21.15878
     2009.80150        21.70799        21.04285
     2009.80424        18.85360        20.95177
     2009.80698        11.81720        22.72098
     2009.80971        11.55080        21.51759
     2009.81245        14.10540        21.76323
     2009.81519        16.74200        23.31164
     2009.81793        17.46360        21.87364
     2009.82067        18.40020        21.63627
     2009.82340        21.07880        22.59126
     2009.82614        19.89040        21.69423
     2009.83709        19.26380        21.38510
     2009.83983        23.49041        20.97385
     2009.84257        18.44901        21.19190
     2009.84531         9.40461        21.59763
     2009.84804         8.00021        21.37682
     2009.85078         9.12581        20.99593
     2009.85352         9.36741        21.69699
     2009.85626        11.95201        21.33542
     2009.85900        14.66061        21.46790
     2009.86173        10.97721        21.00421
     2009.86447        13.91781        22.20485
     2009.86721        11.29541        21.40994
     2009.86995         3.33601        23.33096
     2009.87269        18.26162        22.20485
     2009.87542        11.66422        21.28850
     2009.87816        16.70282        21.39062
     2009.88090        16.42042        21.92884
     2009.88364        17.47702        20.97385
     2009.88637        20.98062        21.28022
     2009.88911        14.20822        22.62714
     2009.89185        17.53382        21.69699
     2009.89459        16.36642        21.05665
     2009.89733        10.96902        22.19105
     2009.90006        20.12862        21.63903
     2009.90280        18.40822        21.47342
     2009.90554        20.29682        20.79996
     2009.90828        14.74543        20.87449
     2009.91102        10.16603        20.78340
     2009.91375        11.79663        20.62884
     2009.91649        20.76823        20.63988
     2009.91923        17.59183        20.61228
     2009.92197        19.48343        20.66472
     2009.92470        18.21803        20.48532
     2009.92744        16.29163        20.63160
     2009.93018        21.19223        20.77236
     2009.93292        15.25683        21.14221
     2009.93566        16.36043        20.47428
     2009.93839        15.89503        20.97661
     2009.94113         9.27763        20.53500
     2009.94387        14.13323        20.67300
     2009.94661         8.97983        20.64816
     2009.94935         9.08944        21.08149
     2009.95208         6.23304        20.92141
     2009.95482         3.71364        20.68956
     2009.95756         8.48824        21.21398
     2009.96030        11.44484        20.80548
     2009.96303        11.38644        20.95453
     2009.96577         7.65504        21.85984
     2009.96851        18.55664        21.50379
     2009.97125        16.23924        22.11928
     2009.97399        21.97384        21.13117
     2009.97672        14.83344        20.77788
     2009.97946        10.82904        20.79168
     2009.98220        13.93164        21.97300
     2009.98767        18.41484        21.09529
     2009.99041        23.51144        20.81376
     2009.99589        11.15564        20.77788
     2010.00410        12.03844        20.77236
     2010.00684         9.09704        22.07512
     2010.00958        11.77864        21.73839
     2010.01232        12.65725        21.04837
     2010.01505        11.98685        22.19933
     2010.01779        20.59245        20.68680
     2010.02053        25.98505        20.58468
     2010.02327        21.11265        20.83861
     2010.02600        19.06325        20.83309
     2010.02874        14.54685        21.93436
     2010.03148        19.58745        20.83585
     2010.03422        19.96605        23.05219
     2010.03696        24.08365        21.66939
     2010.03969        23.29725        21.68595
     2010.04243        26.22685        20.63160
     2010.04517        17.17245        21.06493
     2010.04791        17.59006        20.85517
     2010.05065        28.07766        21.27194
     2010.05338        21.38526        22.61334
     2010.05612        18.34986        21.24710
     2010.05886        22.01846        21.05665
     2010.06160        19.08906        21.14497
     2010.06433        20.55366        22.62162
     2010.06707        22.69626        21.26366
     2010.06981        11.13786        21.82395
     2010.07255        11.14646        21.29126
     2010.07529        16.18306        21.30782
     2010.07802        18.71866        20.72268
     2010.08076        18.44227        20.88001
     2010.08350        14.42487        22.80654
     2010.08624        15.63047        22.07512
     2010.08898        24.27407        23.38340
     2010.09174         9.45179        23.42480
     2010.09445        17.05427        22.57470
     2010.09719        11.68487        21.31058
     2010.09993         3.50647        21.55899
     2010.10266         9.50307        21.12565
     2010.10540        12.66067        21.53139
     2010.10814        12.87127        21.62523
     2010.11088        12.16887        22.52501
     2010.11362        16.56247        22.30697
     2010.11635         3.93808        23.57937
     2010.11909        18.81468        21.16154
     2010.12183        10.29428        20.96005
     2010.12457         9.90088        23.06047
     2010.12731         4.89448        21.83499
     2010.13004         8.76908        21.72459
     2010.13278        11.21668        22.68786
     2010.13552         6.43328        21.37958
     2010.13826         5.51588        21.09529
     2010.14099         3.07948        21.18914
     2010.14373         4.80808        22.35389
     2010.15742        15.45908        21.00145
     2010.16564         6.22788        21.65559
     2010.16837         6.33448        21.65283
     2010.17111         2.15408        22.62162
     2010.17385         8.07268        20.76684
     2010.17659         8.36128        21.73839
     2010.17932         3.12888        21.07597
     2010.18206         3.31348        20.80548
     2010.18480         2.41608        20.65920
     2010.18754        -3.16431        22.16344
     2010.19028         0.73329        22.59954
     2010.19301         2.05189        23.59041
     2010.19575         1.75649        21.35750
     2010.19849         8.59709        23.00527
     2010.20123         1.73269        20.97385
     2010.20397         4.16829        20.97385
     2010.20670         0.10589        21.21950
     2010.20944        12.48249        21.02353
     2010.21218        11.20509        20.71992
     2010.21492         8.15469        20.86621
     2010.21765         4.87129        20.68128
     2010.22039        -3.84410        20.73372
     2010.22313        11.07150        20.67576
     2010.22587         7.78010        21.24158
     2010.22861        13.93170        21.66387
     2010.23134         5.75230        21.24158
     2010.23408        -1.82310        21.77151
     2010.23956         8.15610        21.75771
     2010.24230         5.75570        24.28319
     2010.24503         4.90730        23.60697
     2010.24777         7.39090        23.92162
     2010.25051         6.04650        24.61164
     2010.25325        -0.03090        21.44030
     2010.25598         8.12971        22.80102
     2010.25872         7.88631        25.87299
     2010.26146         4.84791        22.54710
     2010.26420         8.19151        24.22246
     2010.26694         3.64711        21.83775
     2010.26967        14.68771        22.58850
     2010.27241        11.22531        21.02077
     2010.27515        10.01591        21.93160
     2010.27789        12.47351        21.64179
     2010.28062         6.58211        20.87449
     2010.28336         2.40071        21.23054
     2010.28610         5.53231        21.12289
     2010.28884         4.39791        20.64264
     2010.29158         3.31452        20.57916
     2010.29431        12.10712        20.79996
     2010.29705        10.24372        20.57640
     2010.29979         3.61432        22.89211
     2010.30253         4.38792        21.53691
     2010.30527        12.75552        21.40718
     2010.30800        17.13712        21.39338
     2010.31074        11.71672        20.87449
     2010.31348         8.74232        20.31971
     2010.31622         7.91792        20.12927
     2010.31895        11.11152        20.82481
     2010.32169        15.72812        21.02629
     2010.32443        13.28872        21.71355
     2010.32717        10.69632        21.70251
     2010.32991         7.58092        20.82481
     2010.33264         7.90452        21.93436
     2010.33538        15.22312        27.90993
     2010.33812        11.56172        24.26939
     2010.34086         4.78132        21.68319
     2010.34360         8.78192        22.22693
     2010.34633         5.24652        23.60421
     2010.34907         3.02312        22.24625
     2010.35181         9.64672        20.49636
     2010.35455         4.67132        20.41079
     2010.35728        12.99392        21.99508
     2010.36002        14.70653        20.43839
     2010.36276        13.44213        20.14307
     2010.36550        10.33973        20.93797
     2010.36824         9.07733        20.98213
     2010.37097        10.98593        20.79444
     2010.37371         9.17353        20.86897
     2010.37645         8.67413        21.96748
     2010.37919        17.18573        24.27491
     2010.38193        12.10033        21.72735
     2010.38466         6.74393        20.65092
     2010.38740         2.62353        20.27003
     2010.39014        -0.59487        20.07682
     2010.39288         7.76173        19.94434
     2010.39561         8.11234        20.51844
     2010.39835         9.80494        21.22502
     2010.40109         8.34554        20.23967
     2010.40383         8.34814        20.51568
     2010.40657        13.99674        23.32544
     2010.40930        17.62134        22.86726
     2010.41204        11.33194        24.17002
     2010.41478        14.61054        23.23160
     2010.41752         4.84014        20.94625
     2010.42026         0.78974        21.18362
     2010.42299         7.08034        20.93245
     2010.42573         6.23094        20.22587
     2010.42847         4.59254        20.71440
     2010.43121         4.46615        21.11185
     2010.43394        10.41075        20.44667
     2010.43668        13.55835        20.34179
     2010.43942        11.54795        20.36939
     2010.44216         8.84355        20.88829
     2010.44490         6.69915        20.37491
     2010.44763         6.35075        20.79168
     2010.45037         9.64435        20.20655
     2010.45311         6.86495        21.05113
     2010.45585         8.64155        23.39444
     2010.45859         7.99515        21.44582
     2010.46132         7.77375        22.12480
     2010.46406         6.33236        20.52120
     2010.46680         7.00696        20.57640
     2010.46954        10.56356        20.67024
     2010.47227         1.91316        21.16154
     2010.47501         6.12376        21.10633
     2010.48049         7.88796        22.21589
     2010.49418         2.03196        22.62990
     2010.49692         5.03956        22.29041
     2010.49965         6.34217        22.21589
     2010.50239         4.17477        21.78255
     2010.50513         4.02437        20.72544
     2010.50787         0.65197        20.71992
     2010.51060         8.68957        20.67024
     2010.51334        11.06817        20.81376
     2010.51608         5.17577        20.98213
     2010.51882         7.11437        21.67215
     2010.52156        12.86397        20.28935
     2010.52429         5.10957        20.22311
     2010.52703        11.64817        20.51016
     2010.52977        12.87177        20.48808
     2010.53251         3.69037        22.15240
     2010.53525         5.07297        21.92884
     2010.53798         3.75157        21.02905
     2010.54072         3.87417        20.38871
     2010.54346         3.18177        20.45771
     2010.54620        -0.01763        20.41631
     2010.54893         0.23397        20.54328
     2010.55167         1.17157        20.72544
     2010.55441        11.87117        20.86897
     2010.55715         9.04077        20.41907
     2010.55989         8.06637        21.01249
     2010.56262         9.40897        21.16706
     2010.56536         2.82257        21.00421
     2010.56810         2.19318        22.17448
     2010.57084         4.14478        22.83414
     2010.57357         6.20338        21.29954
     2010.57631        10.13298        22.00060
     2010.57905         3.62458        20.77788
     2010.58179         0.01518        20.86345
     2010.58453        -2.99122        21.26090
     2010.58726        -2.87262        21.23054
     2010.59000         8.13398        22.45049
     2010.59274         2.73558        20.78064
     2010.59548         4.55318        20.60124
     2010.59822        -2.02722        19.72353
     2010.60095        -2.03562        19.95262
     2010.60369         1.86099        21.44858
     2010.60643         5.72059        20.60952
     2010.60917         4.39719        22.56366
     2010.61190         5.00579        20.89381
     2010.61464         7.16439        19.93882
     2010.61738         1.32099        20.52948
     2010.62012         1.23759        20.12927
     2010.62286        -3.59981        22.56642
     2010.62559        -1.89221        21.86812
     2010.62833         2.30539        20.19827
     2010.63107        -1.21301        20.60952
     2010.63381         0.58759        19.96366
     2010.63655        -1.94681        20.09338
     2010.63928         1.98180        19.98022
     2010.64202         0.69240        20.13203
     2010.64750         6.76860        23.23436
     2010.67214        -4.98199        19.44477
     2010.67488        -7.40939        19.68489
     2010.67761        -2.99179        19.91398
     2010.68035         1.35981        21.31058
     2010.68309        -6.29859        21.35474
     2010.68583         1.97601        19.69317
     2010.68856        -8.53539        20.13479
     2010.69130        -5.87579        19.63245
     2010.69404       -11.32619        19.94434
     2010.69678       -12.61459        19.45857
     2010.69952       -13.33199        20.24795
     2010.70225       -15.04639        20.91589
     2010.70499       -15.72479        19.77045
