# ================= DQRFIT RESULTS ================
# INPUT FILE: series/SMTH.rad
# OUTPUT: LDETRENDED
# FILTER FUNCTION: f(t)
# f(t)=+line(t)+annual(t)
# line(t)=+P 1+P 2*t
# annual(t)=+P 3*sin(2*pi*t+P 4)
# heav(t)=(t<0?0:1)
# TOTAL OBSERVATIONS MTOT= 2137
# INITIAL TIME INTERVAL= 2022.7488 - 2016.7721 =  5.9767
# TOTAL OBSERVATIONS AFTER PREFILTER M= 2132
# TIME-SPAN= 2022.7488 - 2016.7721 =  5.9767
# OBSERVATIONS: USED M=  2132 REJECTED MTOT-M=     5 %USED=   99.7660
# N=  4 PARAMETERS
# MAXSIG= 175.00000
# MAXRES=  26.51622
# SCALE FACTOR FOR LENGTHS: SCL=  10.00000
# SCALE FACTOR FOR SIGMAS: SCLSIG=   1.00000
# CHI^2=   3000.386 DOF=  2128 CHI^2/DOF=   1.40996
# RMS=      6.441 SDEV=      6.442 MEAN=    0.00694
#  P #       PARAMETER +-    SIGMA %error PARAMETER NAME
# P 1 =     -5457.85837 +-  164.122   3.01 YZERO                              
# P 2 =         2.71093 +-    0.081   3.00 SLOPE                              
# P 3 =         7.56418 +-    0.198   2.62 ANNUAL AMPLITUDE                   
# P 4 =        -2.97720 +-    0.036   1.23 ANNUAL PHASE                       
#       T            LDETRENDED       SIG_OBS
     2016.77207         6.81588         6.49160
     2016.77481         4.92646         6.52960
     2016.77754         4.12504         6.41798
     2016.78028         8.54961         6.37286
     2016.78302         3.80419         6.57709
     2016.78576        10.41477         6.49635
     2016.78850        12.39035         6.46548
     2016.79123        11.71993         6.38711
     2016.79397        14.37950         6.32774
     2016.79671        10.14508         6.29686
     2016.79945         7.00966         6.34199
     2016.80219         6.11424         6.45123
     2016.80492        -4.11118         6.46192
     2016.80766        10.80439         6.37405
     2016.81040         2.75997         6.33130
     2016.81314         5.13355         6.32655
     2016.81587         3.71413         6.40848
     2016.81861         3.30670         6.38117
     2016.82135         9.35728         6.38592
     2016.82409         7.09486         6.36455
     2016.82683         4.56844         6.36930
     2016.82956         4.14502         6.28855
     2016.83230         4.22959         6.34317
     2016.83504         3.99717         6.32655
     2016.83778         8.53075         6.46548
     2016.84052        -2.00167         6.55453
     2016.84325         6.51691         6.40373
     2016.84599         2.16848         6.41798
     2016.84873        12.48006         6.37048
     2016.85147         7.52164         6.39423
     2016.85420         6.03422         6.44529
     2016.85694         7.44280         6.47379
     2016.85968        -6.26263         6.57591
     2016.86242        -0.37405         6.40729
     2016.86516         8.81453         6.43104
     2016.86789         0.65211         6.45717
     2016.87063        -1.02532         6.46429
     2016.87337         6.91526         6.40373
     2016.87611         4.59784         6.39305
     2016.87885         3.93542         6.34555
     2016.88158        -0.80000         6.39542
     2016.88432         0.45757         6.63765
     2016.88706         7.44515         6.48210
     2016.88980         7.78473         6.46310
     2016.89253         8.68431         6.41917
     2016.89527         8.10989         6.32180
     2016.89801         3.77846         6.40611
     2016.90075        -0.31096         6.44054
     2016.90349         2.18762         6.72315
     2016.90622         4.86420         6.49635
     2016.90896         7.30178         6.28855
     2016.91170         6.48635         6.39305
     2016.91444         7.46693         6.41442
     2016.91718         4.09151         6.69702
     2016.91991        -7.90291         6.74215
     2016.92265       -12.53234         6.43935
     2016.92539         2.43524         6.33011
     2016.92813        -5.51718         6.45360
     2016.93086        -5.06260         6.40254
     2016.93360        -6.14402         6.41323
     2016.93634        -5.07845         6.43817
     2016.93908        -7.03187         6.40729
     2016.94182        -1.78729         6.32655
     2016.94455        -5.44071         6.29330
     2016.94729        -4.69413         6.34317
     2016.95003        -7.02756         6.33130
     2016.95277        -6.38898         6.27905
     2016.95551        -6.92240         6.41679
     2016.95824        -4.08582         6.32774
     2016.96098         1.27375         6.30518
     2016.96372        -9.39767         6.40848
     2016.96646        -0.09309         6.32774
     2016.96919         6.61549         6.33011
     2016.97193        -6.08393         6.28262
     2016.97467         6.19164         6.45835
     2016.97741         5.58122         6.30636
     2016.98015        -0.08420         6.31468
     2016.98288        -3.04662         6.21731
     2016.98562        -1.19004         6.19712
     2016.98836        -0.24247         6.42748
     2016.99110        17.39111         6.30755
     2016.99384         4.60969         6.27787
     2016.99657        -0.58973         6.28618
     2016.99931        -2.78715         6.28855
     2017.00205        -5.33358         6.22443
     2017.00479        -8.78400         6.27668
     2017.00752       -11.79442         6.37998
     2017.01026       -11.80284         6.28737
     2017.01300        -3.62327         6.31111
     2017.01574        -3.69869         6.30043
     2017.01848        -7.08211         6.19356
     2017.02121        -9.47453         6.19237
     2017.02395        -8.82195         6.26124
     2017.02669        -9.40338         6.33367
     2017.02943        -6.71480         6.37761
     2017.03216        -3.96722         6.29924
     2017.03490        -7.37664         6.33605
     2017.03764       -17.06506         6.28855
     2017.04038        -3.36049         6.22206
     2017.04312        -5.75291         6.33011
     2017.04585        11.08767         6.48566
     2017.04859        15.05825         6.54266
     2017.05133        21.96783         6.37998
     2017.05407        17.15040         6.53910
     2017.05681        10.92898         6.30874
     2017.05954         1.14556         6.22324
     2017.06228         1.18314         6.32536
     2017.06502        -1.05929         6.23037
     2017.06776        -3.26471         6.22324
     2017.07049         0.83887         6.23631
     2017.07323        -9.39655         6.38592
     2017.07597        -8.42697         6.26599
     2017.07871         0.06860         6.33249
     2017.08145        -0.62782         6.37523
     2017.08418       -13.05024         6.21612
     2017.08692       -11.70666         6.40729
     2017.08966       -12.46608         6.21731
     2017.09240        -8.88451         6.42392
     2017.09514        -3.07493         6.22206
     2017.09787       -11.49735         6.18643
     2017.10061        -3.62177         6.26718
     2017.10335       -10.93319         6.37998
     2017.10609        -9.24562         6.21731
     2017.10882         0.72296         6.30518
     2017.11156         0.08654         6.23749
     2017.11430       -21.92388         6.26480
     2017.11704        -8.20031         6.52247
     2017.11978       -19.14573         6.23037
     2017.12251        -5.15515         6.30518
     2017.12525         3.02143         6.28499
     2017.12799         8.74001         6.24343
     2017.13073        12.91458         6.43698
     2017.13347         3.00916         6.28974
     2017.13620         3.44974         6.27312
     2017.13894         0.76932         6.30161
     2017.14168        -3.43810         6.30636
     2017.14442        -5.91453         6.34436
     2017.14715       -10.09695         6.43460
     2017.14989        -7.23737         6.31111
     2017.15263        -0.53779         6.34436
     2017.15537        -0.60721         6.33842
     2017.15811        -0.45664         6.41442
     2017.16084        -2.15806         6.23156
     2017.16358       -17.98148         6.29568
     2017.16632        -9.70090         6.34911
     2017.16906        -8.58633         6.51179
     2017.17180        -2.29275         6.37523
     2017.17453        -2.57517         6.19712
     2017.17727        -1.03059         6.34199
     2017.18001        -1.78201         6.28262
     2017.18275        -1.62344         6.30399
     2017.18548        -8.63186         6.23393
     2017.18822        -9.44728         6.34317
     2017.19096        -9.69770         6.25174
     2017.19370        -9.49412         6.21850
     2017.19644       -12.92955         6.38948
     2017.19917        -4.22197         6.28024
     2017.20191        -6.94539         6.32418
     2017.20465        -6.55581         6.36811
     2017.20739        -0.83923         6.31824
     2017.21013         3.64034         6.32655
     2017.21286        -1.11608         6.26243
     2017.21560        -8.46650         6.24937
     2017.21834        -3.41092         6.37286
     2017.22108        -0.02935         6.24581
     2017.22381        -0.56177         6.41798
     2017.22655         0.43781         6.52366
     2017.22929        -3.71661         6.36930
     2017.23203        -4.84303         6.40492
     2017.23477        -3.88846         6.71483
     2017.23750        -4.98788         6.37523
     2017.24024        -4.67630         6.24462
     2017.24298        -7.42172         6.35267
     2017.24572        -8.76914         6.53554
     2017.24846       -28.75657         6.34436
     2017.25119        -4.83199         6.35624
     2017.25393       -12.11741         6.26480
     2017.25667        -8.33283         6.41086
     2017.25941       -11.94626         6.29686
     2017.26214        -6.58568         6.35386
     2017.26488        -1.09510         6.37048
     2017.26762         2.54048         6.37167
     2017.27036        -1.62394         6.33605
     2017.27310        -7.59537         6.29924
     2017.27583       -11.83979         6.27430
     2017.27857        -7.67421         6.27312
     2017.28131        -9.83563         6.27312
     2017.28405        -9.78205         6.29330
     2017.28679       -10.57648         6.21612
     2017.28952       -10.31790         6.26599
     2017.29226        -7.77932         6.27549
     2017.29500        -7.16674         6.31349
     2017.29774        -5.90616         6.26718
     2017.30047        -9.19259         6.40492
     2017.30321        -7.40501         6.23987
     2017.30595        -8.69043         6.33724
     2017.30869        -9.58085         6.27312
     2017.31143        -5.20228         6.23749
     2017.31416        -8.15470         6.22918
     2017.31690         0.77688         6.23156
     2017.31964        -4.17354         6.35980
     2017.32238        -9.68496         6.36217
     2017.32512       -11.18339         6.37523
     2017.32785        -4.65381         6.31111
     2017.33059        -9.51223         6.32892
     2017.33333        -9.46665         6.22799
     2017.33607       -21.52307         6.40848
     2017.33880       -13.32450         6.36930
     2017.34154        -2.37092         6.43579
     2017.34428        -2.51334         6.48566
     2017.34702       -10.45276         6.26005
     2017.34976        -1.74118         6.30874
     2017.35249        -9.45861         6.49279
     2017.35523        -8.48803         6.23987
     2017.35797        -6.99945         6.22324
     2017.36071        -4.30587         6.22799
     2017.36344        -4.41530         6.25530
     2017.36618        -6.17672         6.23393
     2017.36892        -0.78514         6.34911
     2017.37166        -3.26856         6.26955
     2017.37440        -4.69498         6.30161
     2017.37713         0.07759         6.33605
     2017.37987       -10.07983         6.40017
     2017.38261        -6.06925         6.28143
     2017.38535         2.95833         6.31943
     2017.38809        -6.83609         6.32892
     2017.39082       -10.04152         6.36336
     2017.39356         2.11106         6.30636
     2017.39630        -1.92536         6.31349
     2017.39904        -6.35078         6.24462
     2017.40177        -5.16320         6.30755
     2017.40451        -1.78363         7.15062
     2017.40725         1.49695         6.49279
     2017.40999         3.33653         6.24224
     2017.41273         1.61011         6.27668
     2017.41546        -6.09332         6.29568
     2017.41820        -1.34074         6.40492
     2017.42094         0.80684         6.35030
     2017.42368        -3.42558         6.22443
     2017.42642        -1.60400         6.19593
     2017.42915        -1.37743         6.29449
     2017.43189        -1.57985         6.41561
     2017.43463         4.01373         6.28499
     2017.43737         4.66831         6.33011
     2017.44010        -2.27511         6.20068
     2017.44284         2.17046         6.35386
     2017.44558         5.03504         6.47498
     2017.44832        -1.08838         6.30518
     2017.45106         3.15420         6.29449
     2017.45379         5.06478         6.36098
     2017.45653         8.27435         6.61628
     2017.45927        -2.23807         6.28262
     2017.46201         1.99351         6.34792
     2017.46475        -0.85791         6.34436
     2017.46748        12.59766         6.47141
     2017.47022         4.09324         6.38236
     2017.47296        -5.45218         6.32655
     2017.47570        -4.38660         6.39661
     2017.47843        -3.94202         6.42273
     2017.48117        -4.19845         6.42036
     2017.48391         5.62313         6.32299
     2017.48665         3.65771         6.28737
     2017.48939         1.91729         6.27905
     2017.49212         6.98787         6.40848
     2017.49486         0.73044         6.52960
     2017.49760         3.33502         6.51772
     2017.50034         7.19160         6.48091
     2017.50308         5.54918         6.30993
     2017.50581        -3.26425         6.26480
     2017.50855        -0.48667         6.28024
     2017.51129        -3.44809         6.33605
     2017.51403         1.79449         6.35386
     2017.51676        -0.77393         6.38117
     2017.51950         4.59264         6.52960
     2017.52224         6.97622         6.25887
     2017.52498        -0.62020         6.27905
     2017.52772        -1.16662         6.54503
     2017.53045         5.67296         6.33842
     2017.53319         0.06653         6.29568
     2017.53593         2.29611         6.28499
     2017.53867         9.96469         6.68040
     2017.54141         5.38727         6.28380
     2017.54414         4.22285         6.23987
     2017.54688         1.80642         6.38711
     2017.54962         0.98700         6.36573
     2017.55236         3.66858         6.62697
     2017.55509        11.79916         6.46904
     2017.55783         4.64373         6.38355
     2017.56057        -2.94369         6.32536
     2017.56331        -0.33011         6.40017
     2017.56605         8.69047         6.59016
     2017.56878         5.37705         6.35505
     2017.57152         4.61262         6.34317
     2017.57426        -2.37280         6.91907
     2017.57700        -4.78822         6.51891
     2017.57974        -1.28664         6.33724
     2017.58247        -1.54306         6.36811
     2017.58521        -3.08149         6.53672
     2017.58795        -2.82591         6.56403
     2017.59069        -3.29733         6.52247
     2017.59342        -3.23875         6.23987
     2017.59616         0.44283         6.34792
     2017.59890         0.64940         6.26718
     2017.60164         0.05198         6.38117
     2017.60438         0.39156         6.32061
     2017.60711         0.17014         6.34555
     2017.60985        -1.48729         6.54385
     2017.61259         3.22629         6.39186
     2017.61533         1.09287         6.38830
     2017.61807         6.22145         6.41086
     2017.62080         3.63503         6.39423
     2017.62354        -3.80640         6.51179
     2017.62628         7.26918         6.47260
     2017.62902        -4.29624         6.64715
     2017.63175         6.95834         6.41679
     2017.63449         2.12892         6.24106
     2017.63723        -1.10951         6.47854
     2017.63997         0.09307         6.54385
     2017.64271         2.99765         6.40017
     2017.64544         6.75523         6.41561
     2017.64818         2.32881         6.47023
     2017.65092        -8.69962         6.48210
     2017.65366        -1.39804         6.37167
     2017.65639         5.38954         6.37286
     2017.65913         6.99612         6.30636
     2017.66187         6.22169         6.51297
     2017.66461        18.71627         6.60915
     2017.66735        -7.63515         6.57116
     2017.67008         4.77143         6.32061
     2017.67282         5.16201         6.55097
     2017.67556         4.22258         6.38830
     2017.67830         4.35516         6.40848
     2017.68104         6.34274         6.28974
     2017.68377        11.51232         6.72315
     2017.68651        14.27590         6.97132
     2017.68925         5.83247         6.50466
     2017.69199         3.82305         6.40492
     2017.69472         5.93063         6.38117
     2017.69746         6.05821         6.58303
     2017.70020         3.02779         6.35742
     2017.70294         3.67336         6.39661
     2017.70568         3.84094         6.30161
     2017.70841         6.44752         6.40254
     2017.71115         8.45610         6.41323
     2017.71389        10.38967         6.30755
     2017.71663         9.61025         6.30874
     2017.71937        11.55083         6.29924
     2017.72210         5.69441         6.39423
     2017.72484         4.73899         6.47141
     2017.72758         8.74956         6.33724
     2017.73032        14.96214         6.37880
     2017.73305         5.04772         6.33842
     2017.73579         6.80530         6.66971
     2017.73853         8.58088         6.37405
     2017.74127         4.75645         6.67684
     2017.74401         8.19903         6.48091
     2017.74674         6.65961         6.48210
     2017.74948         2.04719         6.45004
     2017.75222        -2.20723         6.42154
     2017.75496        -0.44866         6.41561
     2017.75770        -1.38708         6.48566
     2017.76043         1.75750         6.31824
     2017.76317         7.22308         6.62103
     2017.76591        13.08865         6.54622
     2017.76865         3.07523         6.36217
     2017.77138         0.41981         6.39542
     2017.77412         2.82639         6.29093
     2017.77686         2.81997         6.33486
     2017.77960         2.58254         6.35505
     2017.78234         0.94312         6.28855
     2017.78507         2.59970         6.47141
     2017.78781        -7.11272         6.45954
     2017.79055         3.60686         6.65546
     2017.79329        11.98243         6.58541
     2017.79603        13.10101         6.59253
     2017.79876        12.94859         6.71721
     2017.80150        12.08717         6.65428
     2017.80424        13.00174         6.52366
     2017.80698         2.79032         6.42036
     2017.80971        -5.28110         6.44885
     2017.81245         0.01048         6.63172
     2017.81519        11.44206         6.52485
     2017.81793        -1.96837         6.39661
     2017.82067        -8.09179         6.57947
     2017.82340        -1.68721         6.37998
     2017.82614        -2.61363         6.33724
     2017.82888        -1.91005         6.39898
     2017.83162         4.50452         6.49635
     2017.83436         0.99810         6.45954
     2017.83709        -0.62332         6.61034
     2017.83983        -7.61174         6.39898
     2017.84257        -1.22216         6.29805
