# ================= DQRFIT RESULTS ================
# INPUT FILE: series/SNRS.rad
# OUTPUT: LDETRENDED
# FILTER FUNCTION: f(t)
# f(t)=+line(t)+annual(t)+jumps(t)
# line(t)=+P 1+P 2*t
# annual(t)=+P 3*sin(2*pi*t+P 4)
# jumps(t)=+P 5*heav(t-2011.7947  )
# heav(t)=(t<0?0:1)
# TOTAL OBSERVATIONS MTOT= 2387
# INITIAL TIME INTERVAL= 2021.0650 - 2007.7207 = 13.3443
# TOTAL OBSERVATIONS AFTER PREFILTER M= 2264
# TIME-SPAN= 2021.0650 - 2007.7207 = 13.3443
# OBSERVATIONS: USED M=  2264 REJECTED MTOT-M=   123 %USED=   94.8471
# N=  5 PARAMETERS
# MAXSIG= 175.00000
# MAXRES=  91.64885
# SCALE FACTOR FOR LENGTHS: SCL=  10.00000
# SCALE FACTOR FOR SIGMAS: SCLSIG=   1.00000
# CHI^2=  11467.251 DOF=  2259 CHI^2/DOF=   5.07625
# RMS=     16.158 SDEV=     16.155 MEAN=   -0.44691
#  P #       PARAMETER +-    SIGMA %error PARAMETER NAME
# P 1 =      3479.72267 +-  319.839   9.19 YZERO                              
# P 2 =        -1.75226 +-    0.159   9.09 SLOPE                              
# P 3 =         9.29901 +-    0.448   4.82 ANNUAL AMPLITUDE                   
# P 4 =        -1.90854 +-    0.025   1.31 ANNUAL PHASE                       
# P 5 =        46.24233 +-    1.282   2.77 OFFSET 2011.7947                   
#       T            LDETRENDED       SIG_OBS
     2007.72074        21.86217        13.01138
     2007.72348        16.06397        13.18712
     2007.72622        13.93376        13.06321
     2007.72896        21.49256        13.33357
     2007.73170        17.74836        13.28175
     2007.73443         9.88016        13.07222
     2007.73717        13.48295        13.65576
     2007.73991         7.62275        13.43947
     2007.74265         8.87555        13.45749
     2007.74538       -14.20065        14.40603
     2007.74812        11.16614        14.13341
     2007.75086         5.18094        14.41954
     2007.75634        22.47854        13.56564
     2007.75907         6.10633        13.87430
     2007.76181         0.59713        15.80067
     2007.76455         3.35693        13.49354
     2007.76729        -6.08927        14.21226
     2007.77003        -1.39948        15.08194
     2007.77276        -1.26068        14.16495
     2007.77550        14.67912        13.25021
     2007.77824        13.65792        13.61295
     2007.78098        17.83971        13.22317
     2007.78371        18.46551        13.41468
     2007.78645         7.07331        13.37187
     2007.78919         8.07311        13.29978
     2007.79193         7.36990        13.17135
     2007.79467       -22.25230        13.58141
     2007.79740        -6.16950        13.33582
     2007.80014         1.29030        13.33582
     2007.80836        13.30569        13.40116
     2007.81109         1.38349        13.46200
     2007.81383        12.39328        13.41018
     2007.81657         8.87508        13.83600
     2007.81931         8.55688        13.48678
     2007.82204         2.91568        13.52959
     2007.82478       -17.38453        13.48453
     2007.82752         6.19927        13.30879
     2007.82988        15.50741        15.53706
     2007.83300         3.81586        13.04067
     2007.83573         9.01466        13.04969
     2007.83847         2.17746        13.16234
     2007.84121         2.13526        13.46200
     2007.84395         5.41905        13.38764
     2007.84669         5.65685        13.46425
     2007.84942         8.15265        13.28851
     2007.85216       -11.83355        13.79545
     2007.85490        -3.30576        14.13341
     2007.85764       -29.70096        14.80932
     2007.86037        -6.01616        13.29076
     2007.86311       -28.04136        13.82248
     2007.86585         6.57143        13.23894
     2007.86859         7.07423        13.22542
     2007.87133       -14.62597        13.67378
     2007.87406       -10.71017        14.92873
     2007.87680        -1.05338        13.84727
     2007.87954        -4.49758        13.07898
     2007.88228       -26.94578        13.31104
     2007.88502       -24.50198        13.95767
     2007.89049       -35.57539        14.34970
     2007.89323         5.33941        13.58591
     2007.89597         2.78021        13.57014
     2007.90144         2.71580        13.30653
     2007.90418        16.05460        13.38764
     2007.90692        -4.23460        13.06546
     2007.90966        -7.54681        13.10376
     2007.91239        -5.75101        13.19614
     2007.91513       -15.02621        13.41243
     2007.91770       -39.99571        14.43982
     2007.92061       -46.34462        14.80932
     2007.92334       -39.23882        13.87430
     2007.92608         3.30398        13.40567
     2007.92882         5.27878        13.43271
     2007.93430         1.56737        13.31329
     2007.93703        -3.23183        13.57014
     2007.93977        -4.98604        13.25246
     2007.94251        -0.24624        13.32231
     2007.94525         8.59556        13.56113
     2007.94799         3.08236        13.27499
     2007.95072         4.96215        13.36511
     2007.95346        11.64695        13.60619
     2007.95620         0.38075        13.46650
     2007.95894        -2.10845        13.59493
     2007.96167       -12.62566        13.64900
     2007.96441         3.36714        13.71434
     2007.96657        -8.53209        18.31282
     2007.96989       -41.22626        13.85628
     2007.97263       -45.37947        13.77968
     2007.97536       -25.54867        13.78193
     2007.97810       -34.79387        14.29563
     2007.98084       -15.94407        13.36962
     2007.98358       -20.71028        13.53184
     2007.98632       -17.84948        13.82474
     2007.98905       -33.11868        13.93288
     2007.99179       -27.52788        13.90359
     2008.00000       -52.59249        13.92387
     2008.00274       -53.28769        13.69857
     2008.00548       -24.28890        13.22993
     2008.00822       -23.09410        13.19839
     2008.01096       -11.80530        12.89423
     2008.01369        -5.88750        12.76130
     2008.01643       -19.13571        13.07447
     2008.01917       -27.01491        13.39215
     2008.02191       -19.37611        13.45073
     2008.02465       -13.22731        13.26147
     2008.02738       -16.43752        13.05194
     2008.03012         0.41328        13.36737
     2008.03286        -6.87692        13.22993
     2008.03560        -2.00212        13.25471
     2008.03858         1.09111        15.15629
     2008.04106        -9.21555        13.67378
     2008.04380       -13.27275        13.49354
     2008.04654         9.87005        14.14242
     2008.04928        -8.23915        13.49804
     2008.05201        -5.16036        13.05870
     2008.05475        -0.35056        13.33357
     2008.05749       -11.67376        13.85403
     2008.06023         4.11104        13.59267
     2008.06297         4.50883        13.19839
     2008.06570         1.07963        13.02716
     2008.06844        -5.65757        13.04743
     2008.07118        -6.05477        13.28400
     2008.07392         0.24602        13.43496
     2008.07666        -0.15818        13.79995
     2008.07939         2.46162        14.06131
     2008.08213        -4.36259        13.35836
     2008.08487        -6.20279        13.35610
     2008.08761         0.31201        13.50255
     2008.09034         9.18181        13.59493
     2008.09308        12.75160        13.39891
     2008.09582        11.80240        13.81573
     2008.09856         2.01520        13.61070
     2008.10130        -3.68600        13.61971
     2008.10403         8.60779        13.65576
     2008.10677        32.82759        13.67829
     2008.10951        27.11339        13.46425
     2008.11225        12.26719        13.38539
     2008.11498       -16.42502        13.33808
     2008.11772        -5.25122        13.55662
     2008.12046        -5.77442        13.51832
     2008.12320       -12.35262        13.91937
     2008.12594        13.48617        13.93288
     2008.12867        21.98197        13.50931
     2008.13141        40.59077        13.43721
     2008.13963        32.68316        13.40792
     2008.14236        46.64496        13.73011
     2008.14510        41.70676        13.48903
     2008.14784        31.86255        13.94190
     2008.15058        27.26635        13.44172
     2008.15331        24.24315        13.67153
     2008.15605        36.26595        13.78418
     2008.15879        32.44274        13.61971
     2008.16153       -13.46646        13.98020
     2008.16427        -5.12066        13.61746
     2008.16700        -0.03886        13.43496
     2008.16974       -12.46807        13.47326
     2008.17248       -17.02827        13.46650
     2008.17522       -15.06647        13.82699
     2008.17796        -3.24767        13.45524
     2008.18069        -9.21988        13.55212
     2008.18343       -11.47308        13.58591
     2008.18617        -1.24028        13.63097
     2008.18891       -21.65449        13.66928
     2008.19164        -0.98569        13.44622
     2008.19438         1.45811        13.54536
     2008.19712        -4.80509        13.02040
     2008.19986         7.19870        13.28626
     2008.20260        -2.34450        13.22092
     2008.20533        23.62130        13.35385
     2008.20807         0.40210        13.78418
     2008.21081        30.96789        13.74813
     2008.21355        44.21369        13.45749
     2008.21629        49.83049        13.13981
     2008.21902        31.28129        13.23669
     2008.22176        27.61308        13.30879
     2008.22450        30.59088        13.36511
     2008.22724        32.07768        13.45298
     2008.22997        27.99248        13.49579
     2008.23271        33.24427        13.56338
     2008.23545        34.45107        13.53409
     2008.23819        37.35287        13.30653
     2008.24093        46.72067        13.10827
     2008.24366        47.49646        13.02040
     2008.24640        53.29726        13.03842
     2008.24914        54.88306        13.10376
     2008.25188        47.88986        13.41243
     2008.25735        58.72845        13.40792
     2008.26009        56.10525        13.19163
     2008.26283        55.85905        13.00012
     2008.27926        67.25083        13.79995
     2008.29295        57.73082        13.30428
     2008.32580        59.09539        14.06131
     2008.32854        65.10218        13.17360
     2008.33745        78.51880        19.44385
     2008.34018        88.84458        18.56742
     2008.34565        88.51718        18.47729
     2008.34839        94.22597        18.53362
     2008.35661        71.74137        18.35563
     2008.36206        66.79793        19.03605
     2008.36482        51.20977        18.49532
     2008.38670        -9.66390        19.00451
     2008.38944        -2.82510        18.63501
     2008.39218       -10.14030        19.51595
     2008.39492         3.51050        18.73639
     2008.39765        -0.97871        19.23432
     2008.40039         2.87509        19.01352
     2008.40313         1.29689        18.88059
     2008.40587         1.07169        19.57453
     2008.40861         4.35848        19.44385
     2008.41134         2.35128        19.69169
     2008.41408        -2.59492        18.93466
     2008.41684        -1.96508        18.39393
     2008.41958         1.03272        18.70485
     2008.42162       -14.34470        13.42369
     2008.42436        -6.92991        13.18487
     2008.42710        -6.30111        13.27274
     2008.42984        -2.34331        13.53860
     2008.43258        -0.44251        13.61070
     2008.43531        -0.78872        13.45974
     2008.43805         3.50308        13.60844
     2008.44079        -9.27012        13.32907
     2008.44353       -12.83332        13.58591
     2008.44626        -2.67953        13.29527
     2008.44900        -8.40973        13.40792
     2008.45174        -6.26693        13.72786
     2008.45448         1.64587        13.57465
     2008.45722         4.14466        13.28400
     2008.45995        -5.75554        13.20289
     2008.46269       -12.33174        13.26823
     2008.46543        -5.67694        13.32231
     2008.46817       -15.27215        13.48678
     2008.47091       -18.77135        13.46425
     2008.47364        -2.73955        13.35385
     2008.47638         2.49825        13.22768
     2008.47912       -10.99396        13.52283
     2008.48186        -2.24516        13.27950
     2008.48459         3.46464        13.73912
     2008.48733         0.90144        13.26823
     2008.49007        -4.12277        13.24796
     2008.49281         2.27303        13.18712
     2008.49555         0.40883        13.87205
     2008.49828         2.27863        13.52959
     2008.50102        16.60442        13.87430
     2008.50376         7.53722        13.84952
     2008.50650        18.66202        13.69406
     2008.50924        10.00381        13.58817
     2008.51197         8.78261        13.47326
     2008.51471         2.27341        13.18036
     2008.51745         6.05821        13.16234
     2008.52019         5.87500        13.39215
     2008.52292         7.02780        13.92387
     2008.52566        13.77860        13.58817
     2008.52840        11.97240        13.35836
     2008.53114        11.31719        13.24345
     2008.53388         7.34399        13.21867
     2008.53661         7.49379        13.19388
     2008.53935         9.86659        13.21191
     2008.54209        11.47938        13.18262
     2008.54483        11.35018        13.61295
     2008.54757         9.19498        13.37413
     2008.55030        13.88978        13.14432
     2008.55304        18.46857        13.34709
     2008.55578        12.29337        13.34484
     2008.55852        13.65917        13.25471
     2008.56125        10.80597        13.27499
     2008.56399        11.62076        13.62196
     2008.56673         6.99756        13.36511
     2008.56947         7.97536        13.03392
     2008.57221        24.35816        13.80897
     2008.57494         3.31495        13.99822
     2008.57768         9.02475        14.03202
     2008.58042        -3.12845        13.44622
     2008.58316        18.57135        13.58141
     2008.58590        21.21814        13.07898
     2008.58863        15.63694        13.77066
     2008.59137        14.57174        13.21641
     2008.59411        15.52554        13.02716
     2008.59685        21.37833        13.33357
     2008.59958        21.97613        13.77292
     2008.60232        12.27493        14.13791
     2008.60506         9.92573        13.46200
     2008.60780         9.93452        13.60394
     2008.61054         8.98532        13.31329
     2008.61327        23.23612        13.47101
     2008.61601        14.91692        13.43947
     2008.61875        18.87771        13.30428
     2008.62149        23.57851        13.67153
     2008.62423        11.28931        13.49804
     2008.62696        10.51510        13.46875
     2008.62970        18.93990        13.41468
     2008.63244        13.37270        13.72335
     2008.63518        -1.44050        13.82474
     2008.63791         8.84829        14.00723
     2008.64065        20.05209        13.42369
     2008.64326        22.68066        13.89008
     2008.64614         5.96970        13.61070
     2008.64888        15.59150        13.54085
     2008.65161       -20.94170        13.91035
     2008.65435        11.72910        13.61070
     2008.65709         5.59089        14.18748
     2008.65983        20.57769        13.41018
     2008.66256        18.19149        13.35610
     2008.66530        11.85329        13.20740
     2008.66804        11.62108        13.29752
     2008.67078        13.35588        13.18712
     2008.67352        11.75368        13.35836
     2008.67625        15.91948        14.15594
     2008.67899        12.70727        13.36286
     2008.68173        15.69207        13.26823
     2008.68447        13.08487        13.26373
     2008.68721        15.59667        13.12854
     2008.68994        15.94546        13.29076
     2008.69268         9.84126        13.40342
     2008.69542        15.14406        13.23669
     2008.69816        20.55585        13.32231
     2008.70089        20.95565        13.19388
     2008.70363        17.46745        13.05645
     2008.70637        21.82925        13.21191
     2008.70911        16.12204        13.52959
     2008.71185        13.86284        13.60168
     2008.71458        16.49264        13.01814
     2008.71732        17.44944        13.11953
     2008.72006        14.24723        13.32231
     2008.72280        12.23503        13.54085
     2008.72554       -15.50217        13.91261
     2008.72827        17.76763        13.12854
     2008.73101         9.39242        13.48678
     2008.73375        14.13322        13.84051
     2008.73649        13.79802        13.05194
     2008.73922         7.09282        13.32231
     2008.74470        12.41141        13.04067
     2008.74744        16.33321        12.93929
     2008.74994        23.58059        14.00048
     2008.75291        19.33280        13.58141
     2008.75565        16.60660        13.50480
     2008.75839         6.93940        13.30203
     2008.76113        19.47020        13.28851
     2008.76387         5.19299        13.28626
     2008.76660        -9.25021        13.74137
     2008.76934         7.77759        13.57014
     2008.77482        12.02818        13.11277
     2008.78029        14.27978        13.34709
     2008.78303        15.45158        13.35610
     2008.78577         7.06037        13.18036
     2008.78851        11.38117        13.32005
     2008.79124        24.54797        13.89909
     2008.79398         4.28077        13.50255
     2008.79672         5.02456        13.51156
     2008.79946        10.65136        13.26823
     2008.80220         6.39316        13.41018
     2008.80493        11.77695        13.43496
     2008.80767        15.05775        13.45749
     2008.81041         9.12655        13.36286
     2008.81315        13.38835        13.35385
     2008.81588        12.79714        13.36737
     2008.81862        11.54594        13.26147
     2008.82136        12.58374        13.22317
     2008.82410         4.90454        13.70533
     2008.82684        17.43733        13.53409
     2008.82957        -2.20387        13.17811
     2008.83231       -19.12207        13.42820
     2008.83505        20.29273        13.70983
     2008.83779       -17.46748        13.53184
     2008.84052         4.29632        13.48453
     2008.84326       -11.17788        13.25246
     2008.84600        18.15292        13.12629
     2008.84874       -21.87029        14.61556
     2008.85148        -1.92149        14.28211
     2008.85421       -19.02369        13.99372
     2008.85695        10.83811        13.34033
     2008.85969        11.76490        13.34484
     2008.86243         8.75570        13.66477
     2008.86517        -9.99450        13.57690
     2008.87064       -15.48091        14.65161
     2008.87338       -10.30611        13.89909
     2008.87612        12.01269        13.55212
     2008.87885        -1.69351        13.25922
     2008.88159        -1.61972        13.43045
     2008.88433         7.13808        13.38089
     2008.88707         3.68488        13.58141
     2008.88981       -10.30132        13.61070
     2008.89254        -0.71253        13.17811
     2008.89528         3.86727        13.49129
     2008.89802        13.43107        13.45749
     2008.90076         1.49087        13.46425
     2008.90350         3.62266        13.24796
     2008.90623         2.15746        13.38314
     2008.90897        11.31326        13.28626
     2008.91171         2.47905        13.65351
     2008.91445        11.63185        13.73236
     2008.91718        16.10765        13.61070
