# ================= DQRFIT RESULTS ================
# INPUT FILE: series/SPKV.rad
# OUTPUT: LDETRENDED
# FILTER FUNCTION: f(t)
# f(t)=+line(t)+annual(t)
# line(t)=+P 1+P 2*t
# annual(t)=+P 3*sin(2*pi*t+P 4)
# heav(t)=(t<0?0:1)
# TOTAL OBSERVATIONS MTOT= 1007
# INITIAL TIME INTERVAL= 2010.9536 - 2007.8741 =  3.0795
# TOTAL OBSERVATIONS AFTER PREFILTER M=  981
# TIME-SPAN= 2010.9536 - 2007.9052 =  3.0484
# OBSERVATIONS: USED M=   981 REJECTED MTOT-M=    26 %USED=   97.4181
# N=  4 PARAMETERS
# MAXSIG= 175.00000
# MAXRES=  27.04586
# SCALE FACTOR FOR LENGTHS: SCL=  10.00000
# SCALE FACTOR FOR SIGMAS: SCLSIG=   1.00000
# CHI^2=   1267.603 DOF=   977 CHI^2/DOF=   1.29744
# RMS=      7.152 SDEV=      7.155 MEAN=    0.10008
#  P #       PARAMETER +-    SIGMA %error PARAMETER NAME
# P 1 =      3015.85439 +-  540.216  17.91 YZERO                              
# P 2 =        -1.52310 +-    0.269  17.65 SLOPE                              
# P 3 =         4.72319 +-    0.313   6.63 ANNUAL AMPLITUDE                   
# P 4 =        -2.73431 +-    0.086   3.16 ANNUAL PHASE                       
#       T            LDETRENDED       SIG_OBS
     2007.90518       -16.46317        15.21548
     2007.90697        -6.48244         6.84002
     2007.90971        -9.45428         6.80585
     2007.91245         1.59189         7.77860
     2007.91518         4.99706         6.82179
     2007.91764         2.36480         7.36171
     2007.92060        15.55032        10.70255
     2007.92340        -1.10843         6.84685
     2007.92648        -7.60174        12.68337
     2007.92813        -0.58122         9.66487
     2007.93241        -2.80270        11.83477
     2007.93435         0.90725         6.84685
     2007.93709        -5.02758         6.71928
     2007.93982        -9.84241         6.62246
     2007.94256        -6.59024         6.74434
     2007.94530         4.11993         7.30134
     2008.00365       -27.42320        13.10937
     2008.00502        -1.65211         7.87200
     2008.00935        17.09949        16.66436
     2008.01095         9.07292         8.37660
     2008.01298        10.22201         9.62728
     2008.01642        -1.68574         6.57804
     2008.01916        -3.00357         6.63157
     2008.02190        -6.30840         6.34339
     2008.02464        -9.24623         6.27277
     2008.02737        -4.94006        11.98171
     2008.02974        -1.84746         7.99388
     2008.04931        -1.38564         6.91520
     2008.05148       -13.26835         8.54974
     2008.06131         3.22063        13.76433
     2008.06297        -1.38285         6.70675
     2008.09650        -8.59677         9.55894
     2008.09856        -7.37164         6.66574
     2008.13806        16.02253        17.14960
     2008.13945        -0.92536         7.35373
     2008.15331        -9.94224         6.61676
     2008.15697         2.34533        11.07844
     2008.15879        -3.01690         6.56437
     2008.16153        -7.50273         6.46641
     2008.16427         6.31544         6.61563
     2008.16703       -14.79135         6.46299
     2008.17077         9.60835        12.45328
     2008.17248        -1.17505         6.67372
     2008.17522        -8.72588         6.69650
     2008.17796        -7.81471         6.43110
     2008.18069       -12.79354         6.61221
     2008.18343         0.14463         6.62246
     2008.18583        -9.68571         8.01211
     2008.18999        -2.38238        13.04786
     2008.19164        -3.36886         6.76484
     2008.19438        -7.72269         6.43452
     2008.19792       -14.93329        19.02334
     2008.20924         9.30794        19.19192
     2008.21081         1.82433         7.00746
     2008.21303        -6.51428         9.12040
     2008.26642         3.28104        10.28566
     2008.26830         1.32390         6.67372
     2008.27104         6.63307        10.35970
     2008.27337        -6.29138         8.26953
     2008.30937         1.89845         7.98477
     2008.31211        -0.15538         7.16693
     2008.31485        -4.48421         6.66119
     2008.31759        -7.71004         6.57006
     2008.32035        -9.04282         6.55526
     2008.32306        -0.60670         6.72725
     2008.32580         6.92547         6.82065
     2008.32854         2.16864         6.56892
     2008.33128        -1.81419         6.59626
     2008.33401        -3.97602         6.49375
     2008.33675        -5.23785         6.53020
     2008.33952        -2.01863         7.05530
     2008.34223        -5.65251         6.49944
     2008.34496        -8.41834         6.76826
     2008.34770         3.67883         6.49716
     2008.35044        -3.28900         6.47552
     2008.35318         1.61017         6.69194
     2008.35592        -1.33466         6.35592
     2008.35868         1.67356         7.10997
     2008.36139        -4.45332         6.86849
     2008.36413        -0.50215         6.45160
     2008.36607        -9.26219        10.45765
     2008.38150         1.43631        12.05119
     2008.38329         5.86104         6.73750
     2008.38603         8.22321         6.43452
     2008.38877         2.12538         6.63499
     2008.39151         0.95555         6.63499
     2008.39425        -3.56928         6.40376
     2008.39701        -1.22406         6.53475
     2008.39972         9.22206         6.58715
     2008.40246        -2.71377         7.30589
     2008.40520        -2.15560         6.58145
     2008.40794        -1.42843         6.50058
     2008.41067         3.88274         6.50741
     2008.41341         2.44291         6.68852
     2008.41618        12.48813         6.73864
     2008.41889        -3.08575         6.63613
     2008.42162        -0.74858         6.57918
     2008.42413        11.01225         7.33209
     2008.42710         5.50776         6.61335
     2008.42984         6.20193         6.72725
     2008.43258        11.48510         6.79446
     2008.43534         4.07132         6.73295
     2008.43805        -4.48056         6.65663
     2008.44079        12.25561         6.68169
     2008.44265       -10.80555        11.00554
     2008.44986        -5.32657        10.96567
     2008.45174        -1.88771         6.86166
     2008.45451        -5.12149         6.75915
     2008.45722        -1.22737         6.59740
     2008.45995        -0.42620         6.50969
     2008.46269        -1.09503         6.66347
     2008.46543         0.16414         6.60082
     2008.46793        -5.73206         7.43005
     2008.47732        19.96226        11.80515
     2008.47912         1.12399         6.67030
     2008.48186         2.66516         6.69422
     2008.48459        -3.29767         6.78990
     2008.48733         2.32950         6.64638
     2008.49007        -1.95833         6.68283
     2008.49267        -5.87237         7.18971
     2008.49636         5.03425        10.56700
     2008.49828        -1.25282         6.77054
     2008.50102       -17.39565        15.62554
     2008.50376        13.25852         6.85141
     2008.50650        13.17869         6.71017
     2008.50924         7.12086         6.70789
     2008.51200         8.40908         6.84457
     2008.51471         3.38620         6.69992
     2008.51745         0.43437         6.58943
     2008.52019         2.40054         6.53361
     2008.52292         3.93171         7.00290
     2008.52566        -5.45812         9.99406
     2008.52840         6.06105         6.66119
     2008.53117         5.33327         6.83432
     2008.53388         8.01239         6.65321
     2008.53661         0.51556         6.72384
     2008.53935         3.29573         6.85824
     2008.54209        -3.28610         6.63955
     2008.54483         8.07007         6.86508
     2008.54757        12.04624         6.81496
     2008.55033         4.45946         6.67827
     2008.55304        10.17158         6.76028
     2008.55578        13.15075         6.76940
     2008.55852         9.61492         6.80129
     2008.56125         0.03909         6.68966
     2008.56399         4.43826         6.55298
     2008.56673         7.77643         6.62018
     2008.56950         6.92965         6.66233
     2008.57221         9.74677         6.78876
     2008.57494         6.27694         6.77851
     2008.57768        16.96312         6.83318
     2008.58042         7.74029         6.54728
     2008.58316         5.18246         6.54614
     2008.58590         5.87463         6.64068
     2008.58772         9.11540        14.24387
     2008.59411         6.96314         6.63043
     2008.59685         1.42731         6.64524
     2008.59958         7.61748         6.95734
     2008.60232        12.71265         7.08492
     2008.60506        13.60482         6.82635
     2008.60783         5.68903         6.76028
     2008.61054        -0.59984         6.70219
     2008.61327         5.43633         6.67827
     2008.61601         9.22250         7.15554
     2008.61875         1.65667         6.59740
     2008.62155         4.28893         6.82179
     2008.62423         7.62701         6.71700
     2008.62699        10.04422         6.81724
     2008.62970        13.61835         7.03594
     2008.63244         7.32952         6.69308
     2008.63518        21.30669         6.81724
     2008.63791        28.77386         6.96304
     2008.64065         7.20603         6.64524
     2008.64339         5.41820         6.72611
     2008.64616        10.57341         6.75801
     2008.64887        14.02454         6.80015
     2008.65160        15.80571         6.76484
     2008.65434        19.11288         6.78762
     2008.65708         9.18305         6.84799
     2008.65982         4.51022         6.71586
     2008.66256        12.79539         6.89811
     2008.66532        11.98460         6.81610
     2008.66803         9.04073         6.82521
     2008.67077         0.30590         6.73523
     2008.67351         5.61407         6.69992
     2008.67624         4.11224         7.15668
     2008.67807         3.36402        12.52731
     2008.68993         7.24709         6.74662
     2008.69267        15.36126         6.90950
     2008.69541         3.64243         6.68625
     2008.69815        11.26960         6.82863
     2008.70089        11.68177         6.86963
     2008.70365         5.45298         6.75117
     2008.70636         4.84011         6.65549
     2008.70910         0.16528         6.66916
     2008.71184         9.48645         6.96076
     2008.71457         2.52862         6.80243
     2008.71731         4.00879         6.60993
     2008.72005         6.59996         6.54159
     2008.72230        10.85439         8.44267
     2008.72650        18.13177        13.16860
     2008.72826         6.68147         6.55981
     2008.73100        10.72164         6.75915
     2008.73374        15.23581         6.82521
     2008.73648         2.21798         6.52564
     2008.73921         7.26415         6.60310
     2008.74469         3.64649         6.56892
     2008.74743         5.88766         6.54045
     2008.75017         4.49983         6.49716
     2008.75290         7.35500         6.59284
     2008.75564        14.82917         6.66347
     2008.75838        22.70834         6.69194
     2008.76115        12.48355         6.75687
     2008.76386         6.58468         7.67381
     2008.76659         7.33485         6.65777
     2008.76933         9.67002         6.80129
     2008.77207         5.65019         6.54728
     2008.77481         4.25936         6.46071
     2008.77754         0.81353         6.42312
     2008.78031         1.59274         6.46299
     2008.78302         1.24287         6.49375
     2008.78576         3.40304         6.54273
     2008.78850         2.54721         6.68169
     2008.79123         0.13638         6.75801
     2008.79397        -1.32645         7.03024
     2008.79671        10.01672         6.65094
     2008.79885         3.90297         8.94157
     2008.80316        -5.50646        13.61055
     2008.80492        12.61923         6.64524
     2008.80766         1.88140         6.42996
     2008.81040         3.42757         6.50855
     2008.81314         9.16674         6.84685
     2008.81587        11.26391         6.52678
     2008.81864         2.38612         6.59284
     2008.82135        -1.92075         6.42768
     2008.82409        -4.56758         6.61676
     2008.82683        -0.36841         6.52792
     2008.82956         5.30176         6.56095
     2008.83230        -1.79707         6.52564
     2008.83504         5.64610         6.45502
     2008.83781        13.73832         7.06327
     2008.84052         6.93444         6.54386
     2008.84325        15.68561         6.47894
     2008.84599         7.73078         6.48008
     2008.84873         1.48595         6.43110
     2008.85147        12.49112         6.55070
     2008.85420        14.79929         6.53589
     2008.85697        16.09850         6.59398
     2008.85968        13.12263         6.61221
     2008.86242        12.35680         6.52222
     2008.86516        23.86197        10.29021
     2008.86789         8.59214         6.51881
     2008.87063        -4.27769         6.56095
     2008.87337        -4.05652         6.47666
     2008.87602        -2.28948         6.87191
     2008.87914        -6.47773         7.66583
     2008.88158        -2.22001         6.48122
     2008.88432         2.29716         6.51881
     2008.88706        -4.73067         6.58943
     2008.88980         0.43750         6.82293
     2008.89253        17.43167         6.89583
     2008.89530         4.31888         6.78307
     2008.89801         0.52601         6.63727
     2008.90075        -4.51982         6.46299
     2008.90331         3.38209         6.94481
     2008.90724        27.86907        16.61766
     2008.90896         7.33369         6.58943
     2008.91170         0.54986         6.65321
     2008.91447         2.91407         6.51539
     2008.91718         5.64320         6.47210
     2008.91991         9.59537         6.55981
     2008.92265         5.38554         6.58145
     2008.92539         2.81371         6.67713
     2008.92813         6.03988         6.59284
     2008.93086        -0.59595         6.59968
     2008.93363         2.25126         6.71244
     2008.93634        17.12339         6.76256
     2008.93908         0.32456         6.58259
     2008.94182        -8.55627         6.36389
     2008.94356        -0.51862        12.61388
     2008.94816        -2.53561        12.64578
     2008.95003        -0.58776         6.57918
     2008.95280        -0.27355         6.56778
     2008.95551        -3.60142         6.56665
     2008.95824        -3.49625         6.52906
     2008.96098        -2.27608         6.49944
     2008.96372        -4.37591         6.45616
     2008.96646        -1.25674         6.71358
     2008.96919       -14.49757         6.34795
     2008.97196        -7.56936         6.33086
     2008.97467        -0.26823         6.24088
     2008.97741         4.67894         6.32289
     2008.98015         6.76711         6.22379
     2008.98288         9.71428         6.21696
     2008.98538         0.32509         7.04960
     2008.98931        13.14307        13.96708
     2008.99113        11.00683         6.72839
     2008.99384        -9.55104         6.28872
     2008.99657       -18.04387         6.23632
     2008.99931        -5.19970         6.29897
     2009.00479         2.57464         6.19418
     2009.00752         1.06781         6.13381
     2009.01029        -4.95598         6.30239
     2009.01300         3.45415         6.21696
     2009.01574        -1.33068         6.17025
     2009.01848        -2.44851         6.28530
     2009.02121        -3.40934         6.78648
     2009.02395       -13.11617         6.60196
     2009.02669       -17.43400         6.39123
     2009.02946       -11.59779         6.74434
     2009.03216       -17.80066         6.48919
     2009.03490       -18.16549         6.54728
     2009.03764       -22.14132         6.59057
     2009.04038       -12.73615         7.26489
     2009.04312       -20.83998         6.52336
     2009.04585       -12.68181         6.61904
     2009.04862       -18.63460         6.58943
     2009.05133       -16.60647         6.51197
     2009.05407       -16.38530         6.48691
     2009.05681       -10.65313         6.49375
     2009.05960        -6.66787         6.68511
     2009.06228       -11.85279         6.58031
     2009.06502       -13.17762         6.56323
     2009.06779       -15.43041         6.58601
     2009.07049       -13.16228         6.55526
     2009.07323        -6.70511         6.55526
     2009.07597        -8.28594         6.56892
     2009.07871       -10.03977         6.53020
     2009.08082       -15.16056         8.49165
     2009.08718        -9.23786         7.13048
     2009.08966       -13.83909         6.46185
     2009.09240       -10.51592         6.52222
     2009.09514        -6.49575         6.54045
     2009.09787        -5.92458         6.46755
     2009.10061         9.63459         6.53703
     2009.10335         1.27076         6.42768
     2009.10612        -3.96003         6.61563
     2009.10882         2.25310         6.57348
     2009.11156        -4.07873         6.51197
     2009.11430        -3.73256         6.69764
     2009.11704        -7.22339         6.49261
     2009.11978         0.79978         6.54842
     2009.12251        -5.05705         6.69536
     2009.12531        -6.80979         6.62929
     2009.12799        -4.76171         6.55298
     2009.13073        -3.70854         6.49944
     2009.13347        -7.27237         6.46869
     2009.13621        -9.72219         6.64980
     2009.13894        -8.00603         6.57348
     2009.14168       -11.58586         6.48463
     2009.14442       -14.47169         6.34909
     2009.14715        -5.06252         6.57120
     2009.14989         6.68365         7.15781
     2009.15263         0.30682         6.72839
     2009.15537         3.50299         6.60651
     2009.15811       -10.66484         6.55526
     2009.16632         2.88667         6.72497
     2009.16906         6.75584         6.82521
     2009.17180         5.89501         6.65663
     2009.17442        -1.70299         6.65663
     2009.17756        -3.16621         7.57015
     2009.18001        -7.49448         6.57576
     2009.18280        -5.35322         6.76256
     2009.18548       -11.40714         6.40034
     2009.18822       -12.59197         6.56665
     2009.19096       -15.31880         8.19891
     2009.19370       -11.07763         6.53134
     2009.19644        -7.11146         6.56323
     2009.19877       -11.30290         7.65103
     2009.20472        -7.90185         6.58601
     2009.20739        -1.06078         6.52450
     2009.21013       -14.02161         7.54509
     2009.21286        -8.39044         6.62360
     2009.21560        -1.23927         6.65891
     2009.21834        -1.58110         6.50514
     2009.22108         6.50007        14.38056
     2009.22381         1.61424         6.47097
     2009.22655        -7.57159         6.59398
     2009.22929         2.63058         6.57576
     2009.23151       -13.82503         8.44039
     2009.23583       -11.92346        14.62887
     2009.23750        -3.87291         6.44932
     2009.24024        11.22026         6.57006
     2009.24298         1.66943         6.64182
     2009.24572        -9.51640         6.49602
     2009.24846        -2.36823         6.54386
     2009.25119         1.52394         6.72497
     2009.25393        -2.77789         6.75459
     2009.25667         0.06228         6.65777
     2009.25941       -12.31655         6.47438
     2009.26214        -7.20438         6.67599
     2009.26488       -10.07521         6.47438
