# ================= DQRFIT RESULTS ================
# INPUT FILE: series/SPN1.rad
# OUTPUT: LDETRENDED
# FILTER FUNCTION: f(t)
# f(t)=+line(t)+annual(t)
# line(t)=+P 1+P 2*t
# annual(t)=+P 3*sin(2*pi*t+P 4)
# heav(t)=(t<0?0:1)
# TOTAL OBSERVATIONS MTOT= 2541
# INITIAL TIME INTERVAL= 2008.2651 - 2001.0825 =  7.1825
# TOTAL OBSERVATIONS AFTER PREFILTER M= 2531
# TIME-SPAN= 2008.2601 - 2001.0825 =  7.1775
# OBSERVATIONS: USED M=  2531 REJECTED MTOT-M=    10 %USED=   99.6065
# N=  4 PARAMETERS
# MAXSIG= 175.00000
# MAXRES=  29.37927
# SCALE FACTOR FOR LENGTHS: SCL=  10.00000
# SCALE FACTOR FOR SIGMAS: SCLSIG=   1.00000
# CHI^2=   2460.005 DOF=  2527 CHI^2/DOF=   0.97349
# RMS=      6.285 SDEV=      6.285 MEAN=   -0.10773
#  P #       PARAMETER +-    SIGMA %error PARAMETER NAME
# P 1 =      2169.35812 +-  115.531   5.33 YZERO                              
# P 2 =        -1.07677 +-    0.058   5.35 SLOPE                              
# P 3 =         6.26249 +-    0.166   2.65 ANNUAL AMPLITUDE                   
# P 4 =        -2.70662 +-    0.034   1.25 ANNUAL PHASE                       
#       T            LDETRENDED       SIG_OBS
     2001.08255       -51.23465        22.54211
     2001.08419        -1.88988         6.51192
     2001.08693        -2.34194         6.26921
     2001.08967        -0.20799         6.23171
     2001.09241         0.44996         6.14390
     2001.09515         2.11591         6.30177
     2001.09788        -3.97714         6.10345
     2001.10062        -4.47820         6.12022
     2001.10336        -1.51025         6.16462
     2001.10610       -14.27330         6.19915
     2001.10883        -7.80935         6.23369
     2001.11157        -4.73140         6.05806
     2001.11431         4.79754         6.25737
     2001.11705        -7.93751         6.11233
     2001.11979         1.31344         6.11430
     2001.12252        -4.09761         6.16561
     2001.12526        -6.44066         6.04622
     2001.12800       -12.12671         5.75023
     2001.13074        -6.63677         5.80055
     2001.13347         6.04318         5.94164
     2001.13621        -4.36987         5.91894
     2001.13895        -5.06792         6.19027
     2001.14169         5.42503         6.04425
     2001.14443        -8.88103         5.96630
     2001.14716        -4.45808         5.94854
     2001.14990         4.29487         6.31361
     2001.15264        -4.26018         6.24059
     2001.15538         9.39077         6.16462
     2001.15812        -6.40529         6.16067
     2001.16085        -1.60334         6.16955
     2001.16359         8.96461         6.27611
     2001.16633        -0.40744         6.61552
     2001.16907       -15.03949         6.36886
     2001.17180         1.79045         6.16758
     2001.17454       -23.44460         6.20113
     2001.17728       -13.90865         6.15179
     2001.18002        -7.69970         6.14883
     2001.18276        -9.34575         6.04918
     2001.18549        -0.24181         6.26329
     2001.18823        -4.62286         6.27611
     2001.19097         2.14209         6.21297
     2001.19371        -2.35696         6.40536
     2001.19642        -0.87604         6.12219
     2001.19918         5.06893         6.12022
     2001.20192        -1.08512         6.01860
     2001.20466         0.61283         6.28598
     2001.20740        -6.99422         6.18731
     2001.21013        -5.57327         6.08668
     2001.21287        -4.36233         6.17054
     2001.21560        -9.48039         6.90363
     2001.21835        -7.00043         6.44779
     2001.22109        -8.27148         6.15771
     2001.22382        -4.77553         6.18435
     2001.22656        -7.67859         6.30275
     2001.22930         2.46836         6.39944
     2001.23204        -4.99569         6.37478
     2001.23478        -3.93774         6.49120
     2001.23751        -4.37679         6.53067
     2001.24025        -3.32885         6.41720
     2001.24299        -6.19090         6.29091
     2001.24573         2.45605         8.80688
     2001.24846         3.19500         6.33926
     2001.25120        17.83495         6.37971
     2001.25394        -2.20311         6.45470
     2001.25668        -1.36716         6.34913
     2001.25942        -5.11021         6.78819
     2001.26215         3.69574         6.21198
     2001.26489         6.09869         6.49416
     2001.26763         4.32463         6.28697
     2001.27037        -5.30642         6.41227
     2001.27309         3.02252         6.46456
     2001.27584        13.62948         6.56718
     2001.27852         0.34837         6.58790
     2001.28126        -5.90269         6.35801
     2001.28406        -8.74168         6.57112
     2001.28679        -6.08174         6.57112
     2001.28953        -3.33378         6.72405
     2001.29227        -1.37983         6.71517
     2001.29493       -11.58097         7.05162
     2001.29775         3.52106         6.64710
     2001.30048         3.31401         6.38662
     2001.30323        -7.82804         7.05557
     2001.30596        -3.09309         6.84245
     2001.30870        -5.68414         6.30473
     2001.31144        -5.46120         6.33137
     2001.31417        -3.98425         7.04768
     2001.31693        -3.99328         6.26822
     2001.31965         5.51165         6.32051
     2001.32239         6.12160         6.54251
     2001.32512       -12.04646         6.53560
     2001.32786        -7.48351         6.45272
     2001.33066        -5.25950         6.16857
     2001.33334        -7.50861         6.12910
     2001.33613       -10.59360         6.42608
     2001.33881       -10.26972         6.37872
     2001.34155        -6.27177         6.53067
     2001.34429        -9.65382         6.26329
     2001.34703        -8.00387         6.41918
     2001.34982        -3.30686         6.41227
     2001.35250        -3.62898         6.34617
     2001.35524        -0.38803         6.15278
     2001.35798        -5.02408         6.21889
     2001.36072         1.72187         6.89080
     2001.36351         1.08287         6.26131
     2001.36625        -6.43617         6.33038
     2001.36899         3.09678         6.30867
     2001.37167        -8.85934         6.30275
     2001.37446       -10.08233         6.37478
     2001.37720        -2.36038         5.98702
     2001.37988        -5.61350         6.14785
     2001.38262        -5.05455         6.15377
     2001.38536         0.64140         6.47048
     2001.38815        -2.67160         6.65203
     2001.39083         0.73830         6.27611
     2001.39364         6.39032         6.13601
     2001.39631         5.73719         6.13107
     2001.39905         4.50314         6.10049
     2001.40178         3.46008         6.19323
     2001.40452         5.12804         7.01314
     2001.40726        -1.69302         6.70333
     2001.41000        -4.50207         6.16857
     2001.41279         0.19394         6.02353
     2001.41553         2.63289         5.99689
     2001.41787        -3.30759         7.26474
     2001.42095        -2.98228         6.12219
     2001.42369         3.54067         6.26427
     2001.42643         0.71162         6.22086
     2001.42922        -1.94637         6.13897
     2001.43196        -1.55842         6.08569
     2001.43464        -1.35854         6.36590
     2001.43738         1.56641         6.14390
     2001.44011         2.23436         6.10147
     2001.44285         3.36131         5.94657
     2001.44559        -6.34474         6.05609
     2001.44838        -2.56273         5.99788
     2001.45112         4.35421         6.92336
     2001.45380         0.85510         6.00380
     2001.45654         2.19105         6.06596
     2001.45928        -0.61100         6.48134
     2001.46208         0.49101         6.17449
     2001.46481         0.42195         6.38958
     2001.46749        -0.24316         6.33926
     2001.47024        -7.50921         6.34419
     2001.47297        -4.50526         6.80595
     2001.47571        -2.76131         6.21987
     2001.47844         4.87963         6.06497
     2001.48118        -3.26242         6.07089
     2001.48392        -0.67647         5.97716
     2001.48666        -0.03552         6.13403
     2001.48940         5.36043         6.16659
     2001.49213        -2.87463         6.03932
     2001.49487         2.36132         5.96334
     2001.49762         7.69128         6.13502
     2001.50035         4.76922         6.02254
     2001.50308        -0.87583         6.89376
     2001.50582         1.45011         6.02057
     2001.50856         8.21506         6.13699
     2001.51130        12.71201         6.11627
     2001.51404         2.57996         6.04622
     2001.51677         9.41991         6.08766
     2001.51951        -1.51115         5.96433
     2001.52225         2.28580         6.35209
     2001.52499         2.19375         6.05510
     2001.52773        -2.21730         6.16659
     2001.53046         8.31465         6.31262
     2001.53320        -0.76041         6.41326
     2001.53594        11.11054         6.51587
     2001.53868         1.56449         6.08766
     2001.54141         4.72144         6.05510
     2001.54415         4.89039         6.06497
     2001.54689         2.07033         6.01761
     2001.54963         6.26028         6.25638
     2001.55237         0.20223         6.04326
     2001.55510         5.13518         6.11035
     2001.55784         6.30713         6.22777
     2001.56058        17.35207         6.07089
     2001.56332        22.93402         6.44779
     2001.56606        -1.40003         6.91448
     2001.56879         7.10392         6.59283
     2001.57153        12.13187         6.33531
     2001.57427         1.86081         6.52968
     2001.57701        11.92376         6.39648
     2001.57974        10.98471         6.33926
     2001.58248         8.90466         6.22283
     2001.58523         8.82961         6.28598
     2001.58796        25.01055         6.76747
     2001.59070        22.00950         6.31755
     2001.59343        10.77345         6.22875
     2001.59617         9.80040         6.11035
     2001.59891        11.33535         6.46062
     2001.60165         0.91229         6.45174
     2001.60439        12.56024         6.47739
     2001.60712        11.11019         6.19126
     2001.60986         6.55814         6.18534
     2001.61260         7.80309         6.18435
     2001.61534        12.22603         6.18929
     2001.61807         9.70098         6.48134
     2001.62076         8.22287         6.21790
     2001.62355         6.25988         6.09062
     2001.62629         3.15883         7.51930
     2001.62903        -0.39323         6.56619
     2001.63176         6.12872         6.53264
     2001.63450         9.15967         6.42115
     2001.63724         5.12662         6.63427
     2001.63998         6.07157         6.16955
     2001.64272         1.82152         6.19817
     2001.64545         2.80846         6.21494
     2001.64819         2.77941         6.51094
     2001.65093         2.31136         6.22086
     2001.65367         0.59531         6.23763
     2001.65640         8.96326         6.40931
     2001.65914         3.65720         6.54350
     2001.66188         6.53715         6.48232
     2001.66462        18.37910         6.85627
     2001.66736        19.84405         6.70136
     2001.67009        15.62100         6.58099
     2001.67283         6.10094         6.42806
     2001.67557         0.49889         7.14141
     2001.67831        -2.73316         7.08122
     2001.68105        12.62479         6.10542
     2001.68378         4.80374         6.10049
     2001.68652         1.76668         6.14883
     2001.68926         3.23763         6.25638
     2001.69200         2.82958         6.06102
     2001.69474        -0.35847         6.19619
     2001.69747         8.51548         6.62243
     2001.70021        14.33342         7.22034
     2001.70295         6.53837         6.11035
     2001.70569         2.56932         6.17153
     2001.70842         6.27627         6.21889
     2001.71116        11.72822         6.19915
     2001.71390        11.55216         6.19718
     2001.71664         2.91211         6.25737
     2001.71938         5.87106         6.77437
     2001.72211         5.65501         6.58099
     2001.72485         4.45696         6.22579
     2001.72759         7.23790         6.06694
     2001.73033         7.71585         6.20705
     2001.73306        15.89980         6.97269
     2001.73581         1.93475         7.10885
     2001.73854        -9.69930         8.88483
     2001.74128        14.77964         6.67965
     2001.74396         4.37053         8.48622
     2001.74676        -1.28445         8.82563
     2001.74950        10.48350         9.43144
     2001.75223         5.02644         9.79946
     2001.75497         6.57639         8.10142
     2001.75771         6.60334         7.73538
     2001.76045         9.71729         8.96475
     2001.76318        15.11723         6.41326
     2001.76592        12.22418         6.52179
     2001.76871        23.07819         6.98354
     2001.77139        10.82707         7.24303
     2001.77413         8.97902         5.93078
     2001.77687         9.12997         5.93374
     2001.77961        16.55992         6.11923
     2001.78235         8.97486         6.15377
     2001.78509         7.34582         6.24849
     2001.78702        13.85090        11.48565
     2001.79056         9.81771         6.24059
     2001.79330         6.52566         6.76845
     2001.79603         5.18760         6.03636
     2001.79877        15.08355         6.50896
     2001.80151        13.93950         6.10542
     2001.80425        15.91145         6.66781
     2001.80699        12.60140         6.72899
     2001.80972        17.97134         5.98998
     2001.81246         6.11029         5.93473
     2001.81520         3.32824         6.23566
     2001.81794         7.78519         6.06596
     2001.82065        10.38511         6.26427
     2001.82349        10.86117         7.21146
     2001.82615         9.57403         6.05017
     2001.82889         8.56998         5.93769
     2001.83163        12.45193         6.31262
     2001.83436        17.80988         8.19713
     2001.83710        14.76483         6.17449
     2001.83869       -39.04247        30.40674
     2001.84258         1.61072         6.25539
     2001.84532        12.56567         6.59480
     2001.84805        32.48762         8.11918
     2001.85079        -2.64543         6.02550
     2001.85353         2.76651         6.32051
     2001.85627        -1.28454         6.24355
     2001.85901         3.26442         5.88342
     2001.86174         4.07336         5.92980
     2001.86448         6.22731         5.92980
     2001.86722         6.09625         6.06990
     2001.86996        12.83320         6.11825
     2001.87269        10.01415         6.04918
     2001.87543         7.19409         6.57606
     2001.87817         6.11005         5.93868
     2001.88091         0.33499         5.86961
     2001.88365         3.37394         6.16166
     2001.88638        12.08989         6.43496
     2001.88912        -3.78416         6.10739
     2001.89186        10.27179         5.96729
     2001.89460         8.96273         6.07878
     2001.89734         6.74768         7.64460
     2001.90007         9.68663         8.06295
     2001.90281        -7.13942         6.88093
     2001.90555        -5.51747         6.07977
     2001.90829         0.17147         6.33433
     2001.91102        10.72242         5.97814
     2001.91376         8.01737         6.19817
     2001.91650       -13.26168         6.10049
     2001.91924         6.87227         6.27907
     2001.92198        13.12321         6.13107
     2001.92471        -3.25984         6.15673
     2001.92745        11.51511         5.96236
     2001.93019         4.98406         6.10246
     2001.93293        -7.35799         6.13995
     2001.93567       -10.82005         5.87553
     2001.93840         1.15490         6.71813
     2001.94114         7.66285         6.43891
     2001.94388         3.51180         6.27019
     2001.94662        -3.58925         6.02550
     2001.94935         9.95069         5.89329
     2001.95209        11.91664         5.90414
     2001.95483         7.77459         5.87454
     2001.95757         0.80554         5.97617
     2001.96031         6.28149         6.09753
     2001.96304        -7.87757         5.97617
     2001.96578        -6.28062         5.87454
     2001.96852        -2.69867         6.14193
     2001.97126        -7.54772         5.76897
     2001.97400        -6.98777         6.18929
     2001.97673       -10.08883         5.98012
     2001.97947       -16.65988         6.17251
     2001.98221       -12.88493         5.82126
     2001.98495       -16.82898         5.92486
     2001.98768        -4.24603         5.91796
     2001.99042        -7.78809         5.99788
     2001.99316       -11.62114         5.81534
     2001.99590        -4.46719         5.90020
     2001.99864        -2.31124         6.13305
     2002.00411         5.71266         6.00084
     2002.00685        10.99860         6.04622
     2002.00959        -4.85745         6.15969
     2002.01233         1.69550         6.12713
     2002.01506         9.08145         6.16561
     2002.01780        -3.29660         6.10641
     2002.02053         0.16234         6.28006
     2002.02329        -2.06469         6.27217
     2002.02601        -3.86876         7.30914
     2002.02875        -0.97381         6.80891
     2002.03149        -5.66886         6.71123
     2002.03423        -2.06492         6.05905
     2002.03697       -10.34797         6.35011
     2002.03970        -4.13202         6.45864
     2002.04244        -9.27807         6.39944
     2002.04518        -4.82912         6.08963
     2002.04792       -12.10518         6.11726
     2002.05065         8.70077         5.93868
     2002.05339         3.91372         6.09457
     2002.05613         2.35567         5.98801
     2002.05887        -2.31138         6.03537
     2002.06161        -4.74244         5.88441
     2002.06435        -9.48948         5.89329
     2002.06708        -2.06554         5.95348
     2002.06982        -0.14259         5.96630
     2002.07256        -4.41864         6.02452
     2002.07530        -6.94970         6.09062
     2002.07803       -14.43575         6.17843
     2002.08077       -13.65680         5.97124
     2002.08351       -17.48085         5.93670
     2002.08625        -7.88490         6.12614
     2002.08898        -5.40996         6.94112
     2002.09172       -20.52101         5.90020
     2002.09446        -8.46406         5.97814
     2002.09719       -17.07312         6.43595
     2002.09994         2.48984         6.27611
     2002.10267         4.59378         6.48232
     2002.10541         2.25373         6.40635
     2002.10815       -10.26732         6.21889
     2002.11089       -18.89137         6.24651
     2002.11363       -15.91142         6.33433
     2002.11636       -14.75348         6.50304
     2002.11910        -6.34253         9.06637
     2002.12184        -5.04658         6.43595
     2002.12458       -11.75363         6.38563
     2002.12731        -0.55968         6.30670
     2002.13005        -1.34174         6.28894
     2002.13279        -3.14079         6.21691
     2002.13553        -0.50384         6.30769
     2002.13827        -9.12989         6.36195
     2002.14100       -12.96194         6.30374
     2002.14374       -13.38400         6.40832
     2002.14648       -10.50205         6.22777
     2002.14922        -8.05610         6.36491
     2002.15196       -17.83515         6.19817
     2002.15469       -20.34620         6.40339
