# ================= DQRFIT RESULTS ================
# INPUT FILE: series/SPRA.rad
# OUTPUT: LDETRENDED
# FILTER FUNCTION: f(t)
# f(t)=+line(t)+annual(t)
# line(t)=+P 1+P 2*t
# annual(t)=+P 3*sin(2*pi*t+P 4)
# heav(t)=(t<0?0:1)
# TOTAL OBSERVATIONS MTOT= 3753
# INITIAL TIME INTERVAL= 2022.7488 - 2011.8718 = 10.8770
# TOTAL OBSERVATIONS AFTER PREFILTER M= 3735
# TIME-SPAN= 2022.7488 - 2011.8718 = 10.8770
# OBSERVATIONS: USED M=  3735 REJECTED MTOT-M=    18 %USED=   99.5204
# N=  4 PARAMETERS
# MAXSIG= 175.00000
# MAXRES=  20.77979
# SCALE FACTOR FOR LENGTHS: SCL=  10.00000
# SCALE FACTOR FOR SIGMAS: SCLSIG=   1.00000
# CHI^2=   3106.500 DOF=  3731 CHI^2/DOF=   0.83262
# RMS=      5.233 SDEV=      5.234 MEAN=    0.01978
#  P #       PARAMETER +-    SIGMA %error PARAMETER NAME
# P 1 =      3325.41760 +-   55.906   1.68 YZERO                              
# P 2 =        -1.65000 +-    0.028   1.68 SLOPE                              
# P 3 =         4.58494 +-    0.119   2.60 ANNUAL AMPLITUDE                   
# P 4 =        -3.05147 +-    0.037   1.20 ANNUAL PHASE                       
#       T            LDETRENDED       SIG_OBS
     2011.87177         9.73373         6.42294
     2011.87405        -3.31351         5.11080
     2011.87953        -6.19947         5.20022
     2011.88227         0.40205         5.11718
     2011.88501         1.42956         5.23763
     2011.88774        -4.63592         5.12631
     2011.89048         3.49360         5.20752
     2011.89322         5.90112         5.28143
     2011.89869         2.36215         5.27596
     2011.90143        -4.30633         5.31884
     2011.90417        -4.26681         5.19201
     2011.90691        -1.41530         5.25132
     2011.90965        -2.61378         5.14547
     2011.91238         0.62974         5.36355
     2011.91786         1.94677         5.38363
     2011.92060       -12.86671         5.18836
     2011.92607        -8.18367         5.37815
     2011.92881        -8.29316         5.51685
     2011.93155         1.96636         5.23763
     2011.93702        -3.57660         5.22303
     2011.93976        -1.64009         5.19748
     2011.94250        -0.21557         5.24493
     2011.94524         0.95695         5.25953
     2011.94798         4.79947         5.18106
     2011.95071         0.55098         5.16920
     2012.03285        -5.49949         5.12813
     2012.03559         1.91102         5.16190
     2012.03833        -2.69746         5.04966
     2012.04106         2.36106         5.52689
     2012.04380         3.49858         5.21300
     2012.04654         2.21009         5.31428
     2012.05201         2.76613         5.22303
     2012.05475        16.13765         5.13726
     2012.05749         4.33416         5.43655
     2012.06023         3.38468         5.43108
     2012.06297        -3.17180         5.00404
     2012.06570        -2.26328         5.05970
     2012.07118        -5.90725         4.99947
     2012.07392        -6.02273         5.02685
     2012.07666        -0.91421         4.98579
     2012.07939         1.86330         5.11262
     2012.08213         3.88082         4.92556
     2012.08487         4.74334         4.97758
     2012.09034        -0.80463         5.00860
     2012.09308         0.73789         4.96115
     2012.09582         0.71441         5.13087
     2012.09856         0.24193         4.94199
     2012.10130        -2.64356         5.13087
     2012.10403        -2.17604         5.03962
     2012.10951        -1.52400         5.13452
     2012.11225        -1.91949         5.06882
     2012.11498        -0.94497         5.00495
     2012.11772         5.34255         5.08251
     2012.12046         5.75607         5.09346
     2012.12320         3.45458         5.04236
     2012.12867        -3.94438         5.13087
     2012.13141         0.17914         5.10441
     2012.13415        -1.46735         5.05331
     2012.13689        -2.07383         5.11536
     2012.13963         1.76369         5.19657
     2012.14236        -1.04779         5.29329
     2012.14784        -3.55876         5.02320
     2012.15058        -3.76824         4.98488
     2012.15331        -6.77572         4.99400
     2012.15600        -4.30030         5.16281
     2012.15828        -1.56254         6.57624
     2012.16159         2.30192         5.16828
     2012.16700        -4.70914         5.09802
     2012.16974       -10.55662         4.99765
     2012.17248        -8.89110         4.94655
     2012.17522         3.47141         5.32797
     2012.17796         4.55193         4.99035
     2012.18069        -5.33755         5.03415
     2012.18617        -7.55352         4.99491
     2012.18891         0.76300         5.00039
     2012.19164         9.95952         6.40378
     2012.19438         5.20704         5.00769
     2012.19712         6.00855         5.06335
     2012.19986        -2.41293         5.03506
     2012.20533         5.92011         5.39458
     2012.20807         3.79562         5.03689
     2012.21081         2.82414         4.99309
     2012.21343        -4.26253         5.23307
     2012.21629        -0.88782         5.01955
     2012.21902        -6.42831         5.32432
     2012.22450        -8.57627         4.98123
     2012.22724        -6.47275         5.14182
     2012.22997        -1.90024         5.29877
     2012.23271        -3.38172         5.10167
     2012.23545         7.68280         5.36355
     2012.23819         7.85932         5.30607
     2012.24366         7.06335         5.04145
     2012.24640         2.18687         5.07247
     2012.24914         2.51339         5.06974
     2012.25188        -5.43410         5.01134
     2012.25462       -11.67958         5.08981
     2012.25735        -4.43606         4.96480
     2012.26283        -4.26603         5.01499
     2012.26557        -9.22051         4.99309
     2012.26819       -10.43218         8.36835
     2012.27110        -9.06838         5.31337
     2012.27384         0.37714         5.07430
     2012.27658        -2.60935         5.15095
     2012.28199        -4.28440         5.07521
     2012.28473        -0.78389         4.98670
     2012.28747       -11.67537         5.05057
     2012.29021        -4.50785         4.99309
     2012.29295        -7.15033         5.01225
     2012.29568        -8.28782         5.08434
     2012.30116        -9.31778         5.03415
     2012.30390       -11.59127         5.02594
     2012.30663        -8.55675         5.02229
     2012.30937        -9.93423         5.11992
     2012.31211        -8.77671         5.41192
     2012.31485         1.27580         5.17467
     2012.32032        -1.51416         5.04327
     2012.32306        -7.98364         4.96480
     2012.32580        -9.79513         5.00951
     2012.32854        -9.87161         5.38454
     2012.33128        -5.60609         5.17467
     2012.33350       -12.78742         6.43024
     2012.36145        -9.97930         5.75775
     2012.36413        -9.36188         4.97210
     2012.43372        -8.04206        12.93531
     2012.43531       -12.12543         5.09985
     2012.43805        -6.89091         4.97028
     2012.44079        -8.09839         4.93104
     2012.44353       -10.49487         4.98123
     2012.44626        -9.21736         5.00404
     2012.44900       -12.71284         5.07886
     2012.45448        -3.65781         6.06525
     2012.45722        -3.23229         5.00039
     2012.45995        -2.11977         5.20935
     2012.46269         0.59575         5.22212
     2012.46543        -3.44774         5.05331
     2012.46817        -4.40122         5.08069
     2012.47364        -0.46718         5.03415
     2012.47638        -6.49667         5.02867
     2012.47912        -1.39015         5.08160
     2012.49384         6.26013        10.00625
     2012.49555         0.04396         5.01955
     2012.49828        -5.70053         5.02776
     2012.50102        -1.73001         4.97484
     2012.50376         2.59951         5.11080
     2012.50650         0.69003         4.92100
     2012.51197        -5.31194         5.08981
     2012.51471         0.19358         5.09437
     2012.51745        -0.41290         4.97210
     2012.52019        -5.77239         5.10806
     2012.52292        -8.05987         5.99225
     2012.52566        -0.96335         4.96206
     2012.53114        -0.14032         4.98853
     2012.53388        -7.06980         5.10897
     2012.53633        -2.82775         6.09901
     2012.53947         5.31142         5.67471
     2012.54209         5.51975         5.29786
     2012.54483         2.20227         5.07156
     2012.55030         1.08431         5.12905
     2012.55304        -1.60718         4.97028
     2012.55584         0.24743         4.99309
     2012.55852         3.10286         4.97940
     2012.56125         3.83638         4.92921
     2012.56399         2.58689         4.90823
     2012.56947         1.53193         4.91461
     2012.57221        -1.24255         5.00951
     2012.57494         0.22396         4.97940
     2012.57768        -4.34252         4.92009
     2012.58042        -1.05700         4.93834
     2012.58316        -1.34348         4.95020
     2012.58863         2.20755         4.96936
     2012.59137        -1.35593         6.50050
     2012.59411         1.68959         4.93925
     2012.59685        -1.79690         5.35260
     2012.59964        -6.84229         5.11992
     2012.60232         2.49814         5.42834
     2012.60780         5.25117         4.93013
     2012.61054         7.45969         4.90731
     2012.61327         1.95721         4.89454
     2012.61601         6.77272         4.94108
     2012.61875         6.36324         4.98488
     2012.62149         0.37776         5.02046
     2012.62696        -0.01921         6.09171
     2012.62970         1.54131         4.96480
     2012.63244         0.02383         5.01772
     2012.63518         9.17635         5.00951
     2012.63752         6.34721         5.77508
     2012.64054         6.00419         5.14638
     2012.64379         9.63256         6.03696
     2012.64613         6.19842         4.97758
     2012.64887         6.43593         4.92283
     2012.65160         9.53645         4.97575
     2012.65434         5.43397         5.36812
     2012.65708        -0.51551         8.65487
     2012.65982         8.59800         7.69311
     2012.66529         9.73404         4.97575
     2012.66803         5.97256         5.08981
     2012.67077         6.06007         4.97666
     2012.67351         2.72559         4.96206
     2012.67624         6.52111         5.27687
     2012.67898         9.34063         4.91370
     2012.68446         6.97366         4.96754
     2012.68720         5.26418         4.91735
     2012.68993         4.98170         5.10076
     2012.69267         9.52721         6.90382
     2012.69541         8.28573         5.13270
     2012.69815         5.13325         5.03871
     2012.70362         4.41428         5.01864
     2012.70636        14.98780         5.00130
     2012.70910         3.87532         4.97484
     2012.71184         6.29784         4.91279
     2012.71457         9.06735         4.93834
     2012.71731        11.09987         5.51959
     2012.72279        11.27191         4.88177
     2012.72553         9.48542         4.95933
     2012.72826         7.84094         5.13361
     2012.73100         7.32346         5.05605
     2012.73374         9.95698         5.06244
     2012.73648         4.13149         4.91461
     2012.74195         8.65753         5.09711
     2012.74469        11.19005         4.95476
     2012.74743        11.68456         5.00677
     2012.75017         8.20408         5.00404
     2012.75290        15.33060         4.94746
     2012.75564         1.63811         4.98031
     2012.76112         7.96415         4.87812
     2012.76386         3.69667         4.91279
     2012.76659         6.59218         4.98488
     2012.76933         7.54770         5.00312
     2012.77207         9.35622         5.03962
     2012.77481         7.09974         4.98853
     2012.79397         3.53936         5.14091
     2012.79671         4.04788         5.54696
     2012.79945        10.10539         5.43108
     2012.80219        12.72791         5.48400
     2012.80492         9.12943         5.04784
     2012.80766         7.08995         5.16828
     2012.81040         3.02646         5.02320
     2012.81314         0.45598         5.02229
     2012.81587        -0.85950         5.07612
     2012.81861        -6.09398         5.20570
     2012.82135         2.28353         5.05514
     2012.82409         7.17105         5.17558
     2012.82683        -2.53043         5.09802
     2012.82956         7.04409         5.12540
     2012.83230         3.69660         5.10623
     2012.83504         6.31212         5.21938
     2012.83778         3.60064         5.02411
     2012.84052         7.14916         5.10259
     2012.84257         3.68354         7.15293
     2012.85968         2.78478         5.04784
     2012.86242         0.93430         5.05514
     2012.86516         3.75681         5.01864
     2012.86789         1.26733         5.18288
     2012.87063        -1.78415         5.02046
     2012.87337        -3.61563         5.11445
     2012.87611         4.53988         5.00860
     2012.87885        20.58240         5.03871
     2012.88158         9.40492         4.98761
     2012.88432        13.97644         5.06700
     2012.88706         4.77495         5.16281
     2012.88980        13.49647         5.12357
     2012.89253         3.51699         5.01499
     2012.89527         0.54750         4.96754
     2012.89801         1.67302         5.03232
     2012.89978        19.95994        10.01446
     2012.90349         2.04806         5.06244
     2012.90622         3.26957         4.97484
     2012.90896         4.04709         5.05514
     2012.91170         9.07261         5.16646
     2012.91444         9.87213         5.07612
     2012.91718        10.12964         5.04236
     2012.91991        13.93416         5.05331
     2012.92265         4.76568         5.23489
     2012.92539         5.96320         5.09529
     2012.92813         2.28871         5.00039
     2012.93086        -3.67177         5.11627
     2012.93360         8.43675         5.06882
     2012.93634         6.47827         4.99765
     2012.93908        -4.27322         4.98944
     2012.94182         0.80030         5.00495
     2012.94455         8.77382         5.36994
     2012.94729         6.85134         5.03050
     2012.95003         7.15285         5.07795
     2012.95277         9.66437         4.97210
     2012.95551         7.86089         4.99309
     2012.95824        11.86341         4.98123
     2012.96098        12.07092         5.09529
     2012.96372         7.94344         5.06426
     2012.96646         9.45096         5.05696
     2012.96919        11.00248         5.11810
     2012.97193         8.68199         5.08981
     2012.97467         8.51351         5.00039
     2012.97741         9.80403         4.93286
     2012.98015         5.01455         4.92739
     2012.98288         3.60306         4.95111
     2012.98562        -4.50642         4.97484
     2012.98836        -1.72490         5.36720
     2012.99110        -1.64038         4.94838
     2012.99384         2.45913         4.97849
     2012.99657        -1.29435         4.94564
     2012.99931        -2.58483         4.97119
     2013.00205        -0.14631         5.02411
     2013.00479        -3.24780         4.93104
     2013.00752        -4.98128         4.94655
     2013.01026        -4.33976         5.28417
     2013.01300        -0.96924         4.99765
     2013.01574         0.62027         5.01681
     2013.01848        -8.27921         5.04510
     2013.02121         2.48331         4.99309
     2013.02395        -2.10517         5.07247
     2013.02669         4.38934         5.18106
     2013.02943         5.70386         5.04692
     2013.03216         0.15238         5.31793
     2013.03490        -6.73710         4.97758
     2013.03764        -5.53959         5.02229
     2013.04038        -9.59407         5.03415
     2013.04312        -8.21955         5.15003
     2013.04585        -7.80904         5.32432
     2013.04859        -6.29052         5.14730
     2013.05133        -4.29100         5.00404
     2013.05407        -6.17848         5.04327
     2013.05681         0.39503         5.01134
     2013.05954        -1.77545         5.08251
     2013.06228         0.52207         5.28782
     2013.06502        -1.44141         5.12448
     2013.06776        -2.13690         5.11901
     2013.07049         2.48262         5.09164
     2013.07323         3.73414         5.04784
     2013.07597       -11.40134         5.08069
     2013.07871        -6.22283         4.98670
     2013.08145         1.43169         5.11262
     2013.08418        -3.49579         5.05331
     2013.08692        -4.19327         5.07886
     2013.08966        -6.51376         5.08160
     2013.09240        -4.38524         5.06061
     2013.09514        -2.27772         5.07795
     2013.09787         1.87480         5.22121
     2013.10061        -0.50169         5.36447
     2013.10335         0.40883         5.12905
     2013.10609        -2.04365         5.04510
     2013.10882        -1.21513         4.98123
     2013.11156        -3.63962         5.12540
     2013.11430        -2.45210         5.06882
     2013.11704        -6.43558         5.11992
     2013.11978        -8.42106         5.22577
     2013.12251       -11.03255         5.06974
     2013.12525        -9.33603         5.50316
     2013.12799        -2.32651         5.06791
     2013.13073        -1.02999         5.10988
     2013.13347         0.70852         5.06244
     2013.13620         3.96104         5.07521
     2013.13894         2.06056         5.05696
     2013.14168         3.53408         5.12905
     2013.14442        -3.17541         5.26044
     2013.14715         1.43411         5.31519
     2013.14989        -4.31637         5.05514
     2013.15263        -6.37885         5.12266
     2013.15537       -11.44834         5.13908
     2013.15811        -7.35782         5.07156
     2013.16084        -8.62230         5.08707
     2013.16358       -11.17478         5.10532
     2013.16632        -7.86827         5.08434
     2013.16906        -6.11975         5.15733
     2013.17180        -1.59423         5.15003
     2013.17453         1.38029         5.02959
     2013.17727        -1.17520         5.22303
     2013.18029        -6.21821         5.90192
     2013.18275        -1.16016         5.10715
     2013.18548        -4.31564         5.09164
     2013.18822       -14.60913         5.10532
     2013.19096        -4.52961         5.06700
     2013.19370        -4.93409         5.10441
     2013.19644        -4.50558         5.13543
     2013.19917        -3.24906         5.17832
     2013.20191         0.56946         5.20478
     2013.20465        -1.00002         5.08890
     2013.20739         0.64749         5.03050
     2013.21013         1.08301         5.02502
     2013.21286        -3.28947         5.11536
     2013.21560        -1.14095         5.14912
     2013.21834        -5.93344         5.06335
     2013.22108         3.53308         5.02046
     2013.22381        -3.17340         4.94199
     2013.22655        -7.71588         5.00586
     2013.22929       -10.03437         5.01955
     2013.23203        -2.83085         5.09437
     2013.23477        -1.01833         5.05787
     2013.23750        -2.02081         5.13270
     2013.24024        -7.33030         5.12996
     2013.24298        -5.43978         5.11262
     2013.24572        -2.02626         5.13726
     2013.24846        -0.84674         5.16555
