# ================= DQRFIT RESULTS ================
# INPUT FILE: series/SQIM.rad
# OUTPUT: LDETRENDED
# FILTER FUNCTION: f(t)
# f(t)=+line(t)+annual(t)
# line(t)=+P 1+P 2*t
# annual(t)=+P 3*sin(2*pi*t+P 4)
# heav(t)=(t<0?0:1)
# TOTAL OBSERVATIONS MTOT= 1695
# INITIAL TIME INTERVAL= 2014.7242 - 2007.3758 =  7.3484
# TOTAL OBSERVATIONS AFTER PREFILTER M= 1691
# TIME-SPAN= 2014.7242 - 2007.3758 =  7.3484
# OBSERVATIONS: USED M=  1691 REJECTED MTOT-M=     4 %USED=   99.7640
# N=  4 PARAMETERS
# MAXSIG= 175.00000
# MAXRES=  24.96496
# SCALE FACTOR FOR LENGTHS: SCL=  10.00000
# SCALE FACTOR FOR SIGMAS: SCLSIG=   1.00000
# CHI^2=   1533.858 DOF=  1687 CHI^2/DOF=   0.90922
# RMS=      5.909 SDEV=      5.911 MEAN=    0.02057
#  P #       PARAMETER +-    SIGMA %error PARAMETER NAME
# P 1 =      2504.65556 +-  195.273   7.80 YZERO                              
# P 2 =        -1.24323 +-    0.097   7.81 SLOPE                              
# P 3 =         5.65688 +-    0.200   3.54 ANNUAL AMPLITUDE                   
# P 4 =        -2.92877 +-    0.049   1.67 ANNUAL PHASE                       
#       T            LDETRENDED       SIG_OBS
     2007.37577        -4.52101         5.79843
     2007.37850        -4.76960         5.58102
     2007.38124         2.64080         5.70784
     2007.38398        -0.19280         5.66684
     2007.38672        -1.89339         5.64491
     2007.38945        -0.89699         5.67161
     2007.39219        -3.15158         5.73359
     2007.39493        -0.22118         5.63537
     2007.39767         1.09722         5.63633
     2007.40041         6.07663         5.68972
     2007.40314        -4.18197         5.60677
     2007.40588        -2.83157         5.60963
     2007.40856        -8.43823         5.89855
     2007.41136        -1.92276         5.62870
     2007.41410         3.95865         5.66016
     2007.41683        -1.41095         5.64586
     2007.41957         2.75945         5.67447
     2007.42231        -0.98614         5.80129
     2007.42505        12.62726         5.88615
     2007.42778         7.11967         5.62774
     2007.43052         4.33307         5.68019
     2007.43326        10.75347         5.75266
     2007.43600        -3.06312         5.86231
     2007.43874        -0.45872         5.71642
     2007.44147        -3.15832         5.76410
     2007.44421         2.37309         5.80224
     2007.44695        -4.56351         5.63156
     2007.44969        -7.30810         5.71070
     2007.45243        -3.68470         5.78889
     2007.45516        -1.81030         5.75742
     2007.45790         3.05411         5.65826
     2007.46064         3.86651         5.70975
     2007.46338         2.03591         5.68305
     2007.46611        -6.31668         5.66398
     2007.46885         4.99272         5.75170
     2007.47159         5.12213         5.71165
     2007.47433         0.70153         5.68591
     2007.47707        -2.77607         5.88520
     2007.47980        -6.05766         5.63537
     2007.48254        -7.49126         5.70307
     2007.48528        -3.00786         5.71738
     2007.48802        -0.00745         5.82036
     2007.49076        11.07195         5.82036
     2007.49349        -0.91964         5.66398
     2007.49623        -1.52324         5.61630
     2007.49897        -2.81784         5.67733
     2007.50171        -3.63543         5.75647
     2007.50444        -9.55603         5.68686
     2007.50616        -9.01490        11.47385
     2007.58110         4.44928         5.93859
     2007.58384         4.06568         5.72214
     2007.58658        -1.46491         5.73549
     2007.58932         4.72649         5.73645
     2007.59206         3.73789         5.66779
     2007.59479         9.83130         5.81178
     2007.59753        10.09070         5.79270
     2007.60027         6.57810         5.59342
     2007.60301         9.04951         5.73168
     2007.60574         3.66391         5.69640
     2007.60848         5.41732         5.72596
     2007.61122        13.21372         5.64872
     2007.61396         3.41112         5.59437
     2007.61670        -0.04547         6.13788
     2007.61943        12.77993         6.12263
     2007.62217        11.99833         6.00153
     2007.62491         7.32374         5.92620
     2007.62765         8.24514         6.01392
     2007.63039        13.23855         5.97388
     2007.63312         5.01395         5.81368
     2007.63586         5.90535         5.81654
     2007.63860        -2.37924         5.79747
     2007.64134         6.25016         5.69831
     2007.64407        13.89556         5.97006
     2007.64681         7.71797         5.99199
     2007.64955        19.08637         6.04062
     2007.65229         6.95878         6.04444
     2007.65503         2.89618         5.92143
     2007.65776        10.97658         5.89664
     2007.66050         8.39899         6.04444
     2007.66324         6.33739         6.06446
     2007.66598        13.56580         6.01869
     2007.66872        10.83520         6.00344
     2007.67145        -0.42640         5.89283
     2007.67419        10.40001         5.98627
     2007.67693        15.91341         5.97578
     2007.67967        16.62481         6.09116
     2007.68240        13.02422         5.96148
     2007.68514         4.81362         6.00630
     2007.68788        13.62703         6.13693
     2007.69062         8.66643         5.93764
     2007.69336        10.43183         5.87852
     2007.69609         9.69624         5.99390
     2007.69883        10.81764         5.90427
     2007.70157        11.95004         5.84038
     2007.70431        10.92345         6.00248
     2007.70705         4.86285         6.11881
     2007.70978        25.71226         6.00153
     2007.71252         3.76966         5.88520
     2007.71526        11.45606         5.67733
     2007.71800        15.73847         5.78412
     2007.72073        12.99487         5.76601
     2007.72347        11.39127         6.12644
     2007.72617         4.26163         5.69068
     2007.72895         4.75808         5.75552
     2007.73169        16.88949         5.84706
     2007.73442        14.32489         5.79652
     2007.73716         3.80629         5.85087
     2007.73990        11.31870         5.86517
     2007.74264        12.56010         5.74026
     2007.74538        14.17050         5.76219
     2007.74811        10.34491         5.82799
     2007.75085        30.48731         6.37054
     2007.75359        13.47872         5.93478
     2007.75633        10.44612         5.72882
     2007.75906         8.14352         5.73645
     2007.76180        12.81993         5.74980
     2007.76454        10.45433         5.93859
     2007.76728        13.05874         6.13598
     2007.77002        11.10214         6.36101
     2007.77275        10.39954         5.99009
     2007.77549         6.25695         5.71165
     2007.77823        12.50235         5.81082
     2007.78097         9.69875         5.75361
     2007.78371        13.18316         5.88329
     2007.78644         7.19856         5.75361
     2007.78918         1.94197         5.86994
     2007.79192         9.53137         6.01106
     2007.79466        12.84677         5.94813
     2007.79739        22.76018         5.96720
     2007.80013        14.38058         5.72977
     2007.80287         7.50098         5.64109
     2007.80561         5.11939         5.77649
     2007.80835         6.53579         5.85468
     2007.81108        10.25620         5.97292
     2007.81382         8.08260         5.83943
     2007.81656         1.68100         5.97006
     2007.81930         4.82941         5.76219
     2007.82203        -0.12419         5.88138
     2007.82477         4.05921         5.98532
     2007.82751         1.36062         5.82703
     2007.83025         4.67302         5.87662
     2007.83299         4.47143         5.65063
     2007.83572         4.26383         5.76219
     2007.83846         4.65723         5.76791
     2007.84120         9.08264         5.69544
     2007.84394        -0.19796         5.66016
     2007.84668         6.09545         5.68782
     2007.84919         3.00257         6.06255
     2007.85215         3.36825         5.89092
     2007.85489         2.99066         6.22656
     2007.85763         1.26306         5.92620
     2007.86036        11.82446         5.70689
     2007.86310        18.19587         6.20844
     2007.86584         5.68727         5.74217
     2007.86858         2.41668         5.75552
     2007.87132         4.41508         5.83371
     2007.87405        14.35048         5.72310
     2007.87679         9.02089         5.66588
     2007.87953         8.14029         5.69640
     2007.88227        -5.38331         5.66493
     2007.88501         8.91710         5.75456
     2007.88774        -2.20450         5.71356
     2007.89048         1.22591         5.63728
     2007.89322        -0.78869         5.90617
     2007.89596         4.77771         5.86994
     2007.89869         1.27412         5.77649
     2007.90132         0.11638         5.95862
     2007.90948         2.49752         6.18270
     2007.91238         6.37714         5.86231
     2007.91512        10.48554         5.82894
     2007.91786        10.21094         5.81845
     2007.92060        17.96035         6.19033
     2007.92334        10.40575         6.04158
     2007.92607        -0.82284         5.78508
     2007.92881         0.57256         5.88901
     2007.93155        -1.62404         5.80891
     2007.93429        -3.07463         5.80701
     2007.93702        -8.58923         5.78031
     2007.93976         0.99117         7.09618
     2007.94142         9.95023        11.83619
     2007.95448        -4.89753        12.47601
     2007.95619         3.29860         5.94718
     2007.95887         9.80393         6.06446
     2007.96263         9.36161        11.73511
     2007.96440        12.00581         7.94006
     2007.96714        -1.51979         6.18175
     2007.96988       -12.05838         5.86517
     2007.97262         5.79002         5.97102
     2007.97535        -3.31958         5.95576
     2007.97809        -5.27017         5.92238
     2007.98083        -3.55777         5.92715
     2007.98357         1.07363         5.77077
     2007.98631         1.53404         5.98818
     2007.98904         2.02444         6.07590
     2007.99178        -0.38015         5.91762
     2007.99452         4.25625         6.36482
     2007.99726        -2.83035         5.70689
     2008.00000       -13.12994         5.89092
     2008.00273        -3.91754         6.14456
     2008.00547         8.30387         5.87185
     2008.00821         6.74727         5.73073
     2008.01095         5.39467         5.72977
     2008.01368         4.30808         5.56862
     2008.01642        -3.07952         5.62202
     2008.01910        -0.87619         5.86994
     2008.02190        -1.24971         5.73931
     2008.02464        -2.99431         5.62298
     2008.02737        -3.53190         5.60677
     2008.03011        -7.09150         5.74026
     2008.03285        -6.92910         5.78508
     2008.03559       -16.70269         5.93669
     2008.03833        -8.26529         5.72119
     2008.04101       -13.55296         5.96434
     2008.04385       -13.65042         5.88043
     2008.04654       -14.80908         5.77268
     2008.04928        -5.72667         5.76410
     2008.05201        -5.67127         5.65349
     2008.05475        -9.60587         5.73359
     2008.05749       -10.10246         5.67065
     2008.06023        -7.48406         5.66684
     2008.06297        -1.52766         5.65254
     2008.06570        -2.20825         5.68019
     2008.06844        -1.30285         5.67733
     2008.07118         1.97056         5.72882
     2008.07392         8.94496         5.80415
     2008.07666         6.78236         5.96529
     2008.07939         1.09677         5.95004
     2008.08213         9.62817         5.78794
     2008.08487        -6.86943         5.69354
     2008.08761        -5.92702         5.67542
     2008.09034        -0.51762         5.60200
     2008.09308        -6.36921         5.72977
     2008.09582        -0.19081         6.02727
     2008.09856        -7.53641         6.14742
     2008.10130         2.65900         5.96720
     2008.10403        -0.95060         5.61916
     2008.10677         4.90181         5.67542
     2008.10951         1.70921         5.78031
     2008.11225        -8.50339         6.20082
     2008.11498       -11.58498         5.91952
     2008.11772        -1.09058         5.70403
     2008.12046        -6.09418         5.63156
     2008.12320       -12.31077         5.95671
     2008.12594        -1.02237         5.68591
     2008.12867        -8.84296         5.69163
     2008.13141        -4.43856         5.65158
     2008.13415         2.40584         5.71833
     2008.13689         3.01025         5.67923
     2008.13963         2.04765         5.76505
     2008.14236        -1.91895         5.84801
     2008.14510        -4.41654         5.75075
     2008.14784         0.60686         5.77268
     2008.15058        -2.95873         5.61249
     2008.15331        -6.64233         5.71928
     2008.15605        -7.33293         5.62679
     2008.15879        -6.84152         5.68782
     2008.16410       -13.60493         7.51383
     2008.16706        -3.43624         7.55006
     2008.16980       -10.96384         5.97483
     2008.17191       -16.95421         8.24805
     2008.17539        -6.21989         6.21989
     2008.17796       -11.81770         5.62393
     2008.18069        -9.74529         5.66684
     2008.18343        -1.77689         5.63442
     2008.18617        -1.48448         5.70879
     2008.18891        -8.42608         5.90331
     2008.19164        -6.19968         5.85850
     2008.19438       -10.28127         5.59532
     2008.19712        -1.24487         5.56958
     2008.19986         0.81053         5.66970
     2008.20260        -4.17406         5.66779
     2008.20533        -8.85666         5.69354
     2008.20807         3.02275         5.79557
     2008.21081        -8.15885         5.79175
     2008.21355        -2.86045         5.69640
     2008.21629        -0.84404         5.63919
     2008.21902        -8.85264         5.79938
     2008.22176       -12.89924         5.69449
     2008.22450         6.50317         5.81368
     2008.22724        -1.36943         5.72310
     2008.22997        -7.46902         5.91476
     2008.23271        -4.69962         5.85182
     2008.23545        -5.23922         6.31429
     2008.23819        -4.16981         5.83752
     2008.24093         6.94859         5.63251
     2008.24366        -0.65701         5.66875
     2008.24640        -1.94160         5.66016
     2008.24914        -9.32420         5.63537
     2008.25188        -1.00879         5.87948
     2008.25462         1.07461         5.54288
     2008.25735         1.56001         5.69735
     2008.26009         1.33542         5.71452
     2008.26283        -0.49918         5.72119
     2008.26557        -2.48277         5.72214
     2008.26830        15.24963         5.66398
     2008.27104         9.69803         5.65158
     2008.27378        -3.43056         5.59723
     2008.27652        -6.58116         5.73740
     2008.27920        -9.26883         5.81940
     2008.28199        -4.75835         6.11118
     2008.28473         3.47605         5.73645
     2008.28747         0.47246         5.74121
     2008.29021         0.43286         5.77268
     2008.29295         0.32126         5.65730
     2008.29568        -8.08133         5.54765
     2008.29842        -0.94693         5.91666
     2008.30116        -0.40653         5.66493
     2008.30390         2.83588         6.03872
     2008.30663        -0.80972         5.64205
     2008.30937        -5.79031         5.67065
     2008.31211        -6.49591         5.65921
     2008.31485        -6.03951         5.63346
     2008.31759        -5.13110         5.65826
     2008.32032        -1.51170         5.78508
     2008.32306         2.89770         5.83085
     2008.32580         2.66211         5.91190
     2008.32854        -0.96349         5.61058
     2008.33128        -1.35408         5.58483
     2008.33401        -0.21268         5.54765
     2008.33675        -2.72228         5.57530
     2008.33949        -2.59087         5.55718
     2008.34223        -3.80647         5.50855
     2008.34496        -3.31706         5.47423
     2008.34770        -5.10966         5.50283
     2008.35044        -5.44426         5.60391
     2008.35318        -5.33185         5.59532
     2008.35592        -6.89845         5.62393
     2008.35865        -1.69605         5.54288
     2008.36139         0.02336         5.53334
     2008.36413         3.44576         5.48662
     2008.36687        -2.72283         5.56195
     2008.36961       -10.66443         5.50188
     2008.37234       -10.16903         5.54383
     2008.37508         3.40838         5.68877
     2008.37782        -2.82322         5.98913
     2008.38056        -7.53582         5.58483
     2008.38335       -13.67634         6.13025
     2008.38603         0.44999         5.59532
     2008.38877        -2.94360         5.68400
     2008.39151        -2.51720         5.63633
     2008.39425        -7.84980         5.89473
     2008.39698        -7.16339         5.67065
     2008.39972         3.33401         5.70593
     2008.40246        -1.32559         5.60677
     2008.40520         3.94382         5.63442
     2008.40794        -0.70678         5.54669
     2008.41067        -1.37137         5.55814
     2008.41341        -4.16397         5.58770
     2008.41615         1.86643         5.62107
     2008.41889         0.70884         5.57339
     2008.42162         9.85524         5.73740
     2008.42436         4.32964         6.21798
     2008.42710         4.53605         5.60486
     2008.42984         2.41545         5.69163
     2008.43258        -1.20514         5.83180
     2008.43531         1.18826         5.77649
     2008.43805         0.04766         5.64300
     2008.44079        12.89107         5.86899
     2008.44353        -9.20453         5.60391
     2008.44626        -6.73112         5.70593
     2008.44900        -7.25572         5.57339
     2008.45174         0.66368         5.73263
     2008.45454         0.45616         5.72310
     2008.45722        -4.39051         5.59437
     2008.45995        -7.44811         5.59437
     2008.46269       -10.06370         5.61630
     2008.46543        -1.12530         5.64777
     2008.46817         2.12011         5.64967
     2008.47091         4.60651         5.70879
     2008.47364        -2.30309         5.71928
     2008.47638        -2.86768         5.71070
     2008.47912        -4.91428         5.77363
     2008.48186         1.94512         5.72977
     2008.48459        -6.40947         5.91666
     2008.48733         1.34493         5.54574
     2008.49007       -10.04666         5.66398
     2008.49281        -2.41926         5.64300
     2008.49555        -0.00686         5.77363
     2008.49828        -4.32545         5.89473
     2008.50102        -3.26105         5.74694
     2008.50376         3.01935         5.85373
     2008.50650         0.78176         5.81464
     2008.50924        -3.21384         5.75266
     2008.51197         4.36157         5.71356
     2008.51471        -1.94103         5.64681
     2008.51745        -1.10263         5.67828
     2008.52019        -3.47022         5.74217
     2008.52292         1.88918         5.88615
     2008.52566         4.26959         5.72119
     2008.52840         0.13599         5.52190
     2008.53108         1.79332         5.91380
     2008.53388        -6.54020         5.71070
