# ================= DQRFIT RESULTS ================
# INPUT FILE: series/SUHS.rad
# OUTPUT: LDETRENDED
# FILTER FUNCTION: f(t)
# f(t)=+line(t)+annual(t)
# line(t)=+P 1+P 2*t
# annual(t)=+P 3*sin(2*pi*t+P 4)
# heav(t)=(t<0?0:1)
# TOTAL OBSERVATIONS MTOT= 2380
# INITIAL TIME INTERVAL= 2016.5910 - 2009.6491 =  6.9419
# TOTAL OBSERVATIONS AFTER PREFILTER M= 2380
# TIME-SPAN= 2016.5910 - 2009.6491 =  6.9419
# OBSERVATIONS: USED M=  2380 REJECTED MTOT-M=     0 %USED=  100.0000
# N=  4 PARAMETERS
# MAXSIG= 175.00000
# MAXRES=  18.50028
# SCALE FACTOR FOR LENGTHS: SCL=  10.00000
# SCALE FACTOR FOR SIGMAS: SCLSIG=   1.00000
# CHI^2=   1861.599 DOF=  2376 CHI^2/DOF=   0.78350
# RMS=      5.010 SDEV=      5.011 MEAN=    0.01639
#  P #       PARAMETER +-    SIGMA %error PARAMETER NAME
# P 1 =       157.98946 +-  100.687  63.73 YZERO                              
# P 2 =        -0.07733 +-    0.050  64.68 SLOPE                              
# P 3 =         3.20034 +-    0.143   4.46 ANNUAL AMPLITUDE                   
# P 4 =         2.70592 +-    0.057   2.11 ANNUAL PHASE                       
#       T            LDETRENDED       SIG_OBS
     2009.64910        -4.55903         9.57739
     2009.65092         4.50411         5.07194
     2009.65366        -4.99268         5.05601
     2009.65639        -7.18347         5.03477
     2009.65913        -7.91526         4.93651
     2009.66187        -1.38305         4.95776
     2009.66461        -4.18184         4.94891
     2009.67008        -3.16441         4.97104
     2009.67282         0.20980         5.06221
     2009.67556         1.72001         4.96927
     2009.67830         8.92822         5.13922
     2009.68104         0.22843         5.09584
     2009.68377       -12.06035         4.97723
     2009.68651        -0.48014         4.98254
     2009.68925         2.91307         4.96838
     2009.69199        -2.15872         4.95510
     2009.69472         1.09449         5.10558
     2009.69746        -6.39030         5.07725
     2009.70020         9.58192         5.08434
     2009.70294         3.85113         4.95245
     2009.70568        -0.78766         4.90288
     2009.70841       -14.16245         5.15161
     2009.71115         2.99476         5.21976
     2009.71389         3.06798         5.26756
     2009.71663         2.43419         5.03919
     2009.71937         1.00540         4.92235
     2009.72210        -6.04539         4.97104
     2009.72484        -2.91418         5.07725
     2009.72758        -3.21297         5.14010
     2009.73032         2.28525         5.17993
     2009.73305         0.93946         4.95776
     2009.73579         2.42067         5.09761
     2009.73853         2.20688         4.98077
     2009.74127         3.80309         5.10558
     2009.74401         6.70230         5.23747
     2009.74674        -2.69348         4.96484
     2009.74948        -6.38127         4.93209
     2009.75222        -7.20206         4.92855
     2009.75496        -6.73885         5.09938
     2009.75770         0.81736         5.18967
     2009.76043        -5.21943         4.95864
     2009.76317        -0.49521         4.95864
     2009.76591         0.93700         5.01529
     2009.76865        -7.34379         5.01441
     2009.77138        -2.38058         4.94891
     2009.77412        -3.93237         4.98520
     2009.77686        -2.29416         4.95422
     2009.77960         0.82906         4.95156
     2009.78234        12.07727         5.04716
     2009.78507        11.02348         5.10469
     2009.78781         3.94769         5.23216
     2009.79055        -5.09810         5.14099
     2009.79329        -7.72189         5.36227
     2009.79603       -10.61467         5.07460
     2009.79882         4.22154         5.14630
     2009.80150        -4.02525         5.07460
     2009.80424        -6.31804         5.28438
     2009.80698         3.92117         5.20560
     2009.80971        -1.15461         5.21180
     2009.81245         5.01360         5.18524
     2009.81519         7.34581         5.17462
     2009.81793         4.12302         5.17462
     2009.82067        -4.02777         5.25694
     2009.82340        -0.96856         5.02415
     2009.82614         0.36066         5.00733
     2009.82888         2.43787         5.00998
     2009.83162         9.42008         5.23747
     2009.83436        -3.23671         5.03654
     2009.83709         1.46550         5.22862
     2009.83983        -3.07229         5.18259
     2009.84257         4.83593         5.08699
     2009.84531         2.67214         5.33129
     2009.84804         3.99235         5.30297
     2009.85078         7.18656         5.18967
     2009.85352         4.68677         5.12505
     2009.85626         1.57398         5.16666
     2009.85900        -8.04980         5.24366
     2009.86173        -3.48359         5.15603
     2009.86447         6.16662         5.44371
     2009.86721         3.18283         5.22419
     2009.86995        -2.33196         5.10292
     2009.87269         2.79625         5.12771
     2009.87548         2.22447         5.38263
     2009.87816        14.96968         5.44636
     2009.88090         3.71489         5.47646
     2009.88364         5.79310         5.17728
     2009.88632         7.64831         5.32687
     2009.88911         8.46852         5.25783
     2009.89185         5.46974         5.09319
     2009.89459         0.83795         5.05955
     2009.89733        -6.67684         5.02060
     2009.90006        -6.34663         5.06309
     2009.90280        -4.06942         5.06752
     2009.90554         2.49979         5.03477
     2009.90828        -5.99699         4.96838
     2009.91102        -4.33378         5.07106
     2009.91375        -1.30257         4.91881
     2009.91649        -3.28636         4.93740
     2009.91929        -2.32814         5.06398
     2009.92197        -3.46593         4.93297
     2009.92470        -6.09772         4.91881
     2009.92744        -5.90251         4.94006
     2009.93018        -1.93930         4.93209
     2009.93292        -0.01509         4.95422
     2009.93566         0.22612         5.06221
     2009.93839         0.23634         5.08788
     2009.94113        -1.12145         4.94891
     2009.94387        -2.95324         5.05601
     2009.94661        -2.24303         5.04804
     2009.94935        -1.95682         4.92147
     2009.95208        -3.46961         4.97281
     2009.95482        -2.55339         4.98608
     2009.95756        -6.35518         5.17285
     2009.96030        -6.49797         4.94360
     2009.96303        -3.97376         5.08345
     2009.96577        -8.39555         5.11709
     2009.96851       -12.12334         5.29146
     2009.97125         3.02488         5.16754
     2009.97399        -3.25891         4.97192
     2009.97672        -5.75570         4.83561
     2009.97946        -7.11149         4.85597
     2009.98220        -5.81128         4.88429
     2009.98494        -4.58007         5.21711
     2009.98767         1.46715         4.89757
     2009.99041        -3.36864         4.84977
     2009.99321         2.36057         5.17816
     2009.99589         1.78478         4.91704
     2009.99863        -6.55901         4.96484
     2010.00410        -6.96258         4.90730
     2010.00684        -6.84837         5.30474
     2010.00958        -6.36516         4.91527
     2010.01232       -12.13595         5.12063
     2010.01505        -5.02874         5.00202
     2010.01779        -3.42752         5.01087
     2010.02053        -3.98431         4.98962
     2010.02327        -7.94810         5.00202
     2010.02600         2.87111         4.97104
     2010.02874         2.89632         4.95864
     2010.03148         6.02053         5.15515
     2010.03422        -4.57925         5.00467
     2010.03696        -3.22904         5.16223
     2010.03969        -0.83883         5.15426
     2010.04243         1.62438         4.90022
     2010.04517         4.41359         4.92324
     2010.04791        12.57680         5.00998
     2010.05065        10.32702         5.02857
     2010.05338        10.04823         5.11443
     2010.05612        13.04644         5.17728
     2010.05886         7.80765         4.88341
     2010.06160        -5.31014         4.89580
     2010.06433        -1.27993         4.93563
     2010.06707        -2.69771         4.92943
     2010.06981        -3.96450         4.98874
     2010.07255        -5.04029         5.00821
     2010.07529        -0.68008         4.97989
     2010.07797        -0.02087         5.46849
     2010.08076         1.79334         4.82941
     2010.08350         3.30556         4.84977
     2010.08629         7.27277         4.96395
     2010.08898         6.76398         5.05601
     2010.09171         8.31519         4.89580
     2010.09451         7.88741         5.03831
     2010.09719         9.44961         4.98254
     2010.09993        -1.31917         4.86836
     2010.10266         6.71604         5.21534
     2010.10540         3.82625         4.97281
     2010.10814         4.83746         4.92855
     2010.11088         0.95467         5.04096
     2010.11362         3.48388         4.92058
     2010.11635         5.47710         4.94979
     2010.11909         0.68931         4.88518
     2010.12183         0.66752         4.99139
     2010.12457        10.06073         4.87632
     2010.12731         4.60194         5.36936
     2010.13010        -5.29184         4.98343
     2010.13278        -4.76463         4.94006
     2010.13552        -1.23742         4.94183
     2010.13826         1.32979         4.88429
     2010.14099         0.68000         4.80905
     2010.14373        -3.98479         5.00556
     2010.14647        -2.16757         5.05424
     2010.14921         0.49264         4.94714
     2010.15195        -2.74815         4.89934
     2010.15468         5.35706         4.83649
     2010.15748         0.01628         4.99405
     2010.16016        -1.29252         4.86216
     2010.16290        -0.93030         4.91350
     2010.16564         2.06291         4.89757
     2010.16837         5.45012         4.83738
     2010.17111         1.51633         4.80020
     2010.17385        -1.21346         4.95687
     2010.17659        -1.14125         4.86039
     2010.17932         0.93097         4.85685
     2010.18206         1.36918         4.83030
     2010.18480         1.94339         4.79312
     2010.18754        -2.29940         4.80640
     2010.19028        -0.27419         4.84711
     2010.19301        10.72102         4.92412
     2010.19575         2.19724         5.65880
     2010.19849        -0.69755         5.16134
     2010.20123        -4.95734         4.84711
     2010.20397         1.03487         5.04096
     2010.20670        -4.14792         4.99316
     2010.20944        -2.75771         4.87367
     2010.21218         0.46951         4.84888
     2010.21492        -3.19628         4.91704
     2010.21765        -1.62207         4.93829
     2010.22039         2.50114         5.12328
     2010.22313        -9.51965         4.85065
     2010.22587        -5.31143         4.96218
     2010.22861        -2.63722         4.98431
     2010.23134        -1.82201         4.95333
     2010.23408        -9.62380         4.97723
     2010.23956         0.80262         5.15692
     2010.24230         0.78584         5.58268
     2010.24503         4.06105         5.45876
     2010.24777         0.19726         5.01706
     2010.25051         3.32647         5.18967
     2010.25325         3.29068         5.13125
     2010.25598         6.66789         5.08257
     2010.25872         4.68311         5.00733
     2010.26146         0.43032         5.08611
     2010.26420        -1.44247         5.16931
     2010.26699         0.93975         5.27907
     2010.26967         1.86695         5.10292
     2010.27241        -1.06284         5.00290
     2010.27515        -0.10762         5.07283
     2010.27789         0.47559         4.98874
     2010.28062         4.51080         4.90022
     2010.28336         2.21701         5.01529
     2010.28610         1.57122         5.03565
     2010.28884         2.46843         5.06840
     2010.29158        -3.67235         4.98608
     2010.29431         1.23886         5.06398
     2010.29705        -0.18593         4.95156
     2010.29985         3.82829         5.04096
     2010.30253         4.18849         5.15426
     2010.30527         6.36870         5.02946
     2010.30800         6.81092         4.92058
     2010.31074         9.37313         6.30939
     2010.31348         1.38034         5.29589
     2010.31622         8.95355         4.90376
     2010.31895        10.32876         5.12594
     2010.32169         7.21598         4.94183
     2010.32443         2.10219         5.00910
     2010.32723         2.67140         4.97369
     2010.32991         1.72561         4.88695
     2010.33264         4.56482         4.90819
     2010.33538         7.32203         5.23304
     2010.33812         0.24425         4.86482
     2010.34086        -5.14854         4.88695
     2010.34360        -4.84233         4.80551
     2010.34639        -0.39612         5.04893
     2010.34913         1.17410         4.95864
     2010.35187        -0.62369         4.95687
     2010.35455         1.40152         4.83295
     2010.35728        -3.66727         5.80662
     2010.36002         4.68594         5.13745
     2010.36276         1.35915         4.84888
     2010.36550        -0.59964         5.09230
     2010.36824         1.22057         5.01441
     2010.37103        -2.31521         4.93297
     2010.37371         4.72600         4.93563
     2010.37645         9.85621         4.87101
     2010.37919         4.24242         5.19144
     2010.38193         2.65163         5.21622
     2010.38466         0.49984         4.96041
     2010.38746         4.58106         4.93563
     2010.39014        -0.61773         4.90996
     2010.39288        -4.77052         4.92766
     2010.39561        -2.32231         4.91262
     2010.39835         1.55290         4.83826
     2010.40109        -3.21089         5.30297
     2010.40383        -2.61967         4.80109
     2010.40657         1.48054         4.81790
     2010.40930        -0.79825         4.88960
     2010.41204         1.10796         4.85951
     2010.41478         6.17617         4.79843
     2010.41752         7.46038         4.81967
     2010.42026         2.92260         4.81879
     2010.42299         2.36981         5.09230
     2010.42573        -6.15498         4.82410
     2010.42847         2.74723         5.00556
     2010.43121        -8.03156         4.81082
     2010.43394       -10.21834         4.86482
     2010.43668        -8.34813         4.83207
     2010.43942         3.19108         4.82676
     2010.44216        -1.48471         4.82410
     2010.44490        -6.46150         5.10823
     2010.44769        -6.96728         4.87013
     2010.45037        -4.65807         4.81967
     2010.45311        -4.80286         4.83649
     2010.45585        -4.03165         4.80109
     2010.45859        -0.15144         4.90288
     2010.46132        -4.57223         4.88606
     2010.46406         0.72998         4.77011
     2010.46680        -4.64980         4.79135
     2010.46954         1.95541         4.85065
     2010.47227        -6.05438         4.80640
     2010.47501        -4.71317         4.82144
     2010.47775        -2.16096         4.96130
     2010.48049        -3.33375         4.94094
     2010.48323        -2.26653         4.85331
     2010.48596        -2.34632         4.80197
     2010.48870         0.80089         4.79932
     2010.49144         0.35210         4.79489
     2010.49418         0.02231         4.77719
     2010.49692        -1.92548         4.84180
     2010.49965         0.43374         4.77365
     2010.50239        -1.93005         4.76125
     2010.50513        -0.34184         4.78869
     2010.50787        -3.05063         4.79135
     2010.51060        -0.64242         4.98697
     2010.51334        -0.38921         4.85154
     2010.51608         0.00501         4.89403
     2010.51882        -0.69778         4.81613
     2010.52156         2.61843         4.84269
     2010.52429         4.46964         4.90642
     2010.52703         0.87585         4.85597
     2010.52977        -6.09893         5.53488
     2010.53251        -7.22372         4.79135
     2010.53525        -4.10651         4.82853
     2010.53798        -2.94230         4.96927
     2010.54072         0.89191         4.85065
     2010.54346        -5.25288         4.88960
     2010.54620         1.06834         5.55524
     2010.54893        -2.35945         4.80994
     2010.58453        -2.64570         4.84977
     2010.58726        -5.04649         4.95333
     2010.59000         1.98172         4.88783
     2010.59274         2.69893         4.83384
     2010.59548        -5.27885         4.88872
     2010.59822         4.11636         4.92678
     2010.60095         5.19657         5.44459
     2010.60369         4.27678         4.80728
     2010.60643         9.55799         4.94802
     2010.60917        -0.88180         4.82321
     2010.61190        -1.60058         4.86836
     2010.61464        -1.13337         4.90730
     2010.61738         3.94284         5.27730
     2010.62012         0.08105         4.98166
     2010.62286         2.50626         4.87367
     2010.62559         4.72648         5.01175
     2010.62833         4.69269         4.95687
     2010.63107        -1.53510         5.00998
     2010.63381        10.70811         4.97546
     2010.63655         5.77332         5.16046
     2010.63928         5.19653         4.85065
     2010.64202        -3.40825         4.87013
     2010.64476         0.20896         4.90376
     2010.64750         0.89117         4.86039
     2010.65023         6.23838         5.04185
     2010.65297         0.43059         5.06309
     2010.65571         3.22380         4.86924
     2010.65845         8.84402         4.81082
     2010.66119         7.62323         4.84888
     2010.66392         6.15444         4.90199
     2010.66666         4.51465         4.78338
     2010.66940         2.62286         4.83295
     2010.67214         4.98307         5.18347
     2010.67488        14.36229         4.86747
     2010.67761         5.39050         4.80817
     2010.68035         4.61971         4.86836
     2010.68309         9.72392         4.88429
     2010.68583        13.06913         4.86570
     2010.68856        -0.00766         4.80463
     2010.69130         3.00756         4.91793
     2010.69404         0.93977         4.90111
     2010.69678        -3.63302         4.82144
     2010.69952         5.45719         4.84357
     2010.70225        -0.73260         4.87632
     2010.70499         4.73961         4.91173
     2010.70773        10.36983         4.95245
     2010.71047         8.11104         4.82321
     2010.71321         6.49725         4.91350
     2010.71594         8.75646         5.00910
     2010.71868         7.74567         4.78692
     2010.72142         5.66988         4.97192
     2010.72416         6.13610         4.94183
     2010.72689         3.92231         5.11089
     2010.72963        -5.49748         4.86305
     2010.73237         3.99973         4.90111
     2010.73511         9.61594         4.93651
     2010.73785         8.83916         4.93474
     2010.74058         7.35437         4.90465
     2010.74332         5.35658         4.81879
     2010.74606         7.50579         4.88695
     2010.74880         7.43100         5.13922
     2010.75154         7.97121         4.85951
     2010.75427         5.30943         4.91881
     2010.75701         3.08464         5.02680
     2010.75975        -1.42615         4.85154
