# ================= DQRFIT RESULTS ================
# INPUT FILE: series/SUMM.rad
# OUTPUT: LDETRENDED
# FILTER FUNCTION: f(t)
# f(t)=+line(t)+annual(t)
# line(t)=+P 1+P 2*t
# annual(t)=+P 3*sin(2*pi*t+P 4)
# heav(t)=(t<0?0:1)
# TOTAL OBSERVATIONS MTOT= 1158
# INITIAL TIME INTERVAL= 2009.4942 - 2006.3162 =  3.1780
# TOTAL OBSERVATIONS AFTER PREFILTER M= 1148
# TIME-SPAN= 2009.4942 - 2006.3162 =  3.1780
# OBSERVATIONS: USED M=  1148 REJECTED MTOT-M=    10 %USED=   99.1364
# N=  4 PARAMETERS
# MAXSIG= 175.00000
# MAXRES=  27.32695
# SCALE FACTOR FOR LENGTHS: SCL=  10.00000
# SCALE FACTOR FOR SIGMAS: SCLSIG=   1.00000
# CHI^2=   1443.928 DOF=  1144 CHI^2/DOF=   1.26217
# RMS=      8.911 SDEV=      8.915 MEAN=   -0.03657
#  P #       PARAMETER +-    SIGMA %error PARAMETER NAME
# P 1 =   1385009.85581 +-  586.042   0.04 YZERO                              
# P 2 =      -687.69672 +-    0.292   0.04 SLOPE                              
# P 3 =         2.88674 +-    0.373  12.93 ANNUAL AMPLITUDE                   
# P 4 =        -1.63348 +-    0.012   0.72 ANNUAL PHASE                       
#       T            LDETRENDED       SIG_OBS
     2006.31622        17.16267         8.57541
     2006.32169        14.03829         8.71135
     2006.32443        22.24011         8.32600
     2006.32717        17.54292         8.24848
     2006.32991        20.14573         8.36982
     2006.33264        13.78454         8.43498
     2006.33538        19.65835         8.49902
     2006.33812        15.45716         8.88661
     2006.34086        12.13997         8.53834
     2006.34360        10.15378         9.43823
     2006.34633        11.01159         9.33038
     2006.34907         3.62440         8.75629
     2006.35181         6.89821         9.23713
     2006.35455        15.55902         8.40352
     2006.35728        16.70883         9.55058
     2006.36002        14.13565         9.68989
     2006.36276        20.60346         9.22815
     2006.36550        12.75327         9.05626
     2006.36824        15.60108         8.61586
     2006.37097        15.30089         8.50126
     2006.37371        19.53770         9.06974
     2006.37645        21.90951         8.87538
     2006.37919        16.21632         9.43711
     2006.38193        14.96813         9.00121
     2006.38466        17.35894         9.29892
     2006.38740        16.06675         9.02929
     2006.39014        19.22256         8.69450
     2006.39288        23.43338         8.99671
     2006.39561        14.96019         8.86976
     2006.39835        16.12800         8.85291
     2006.40109        18.38781         8.59451
     2006.40383        18.04962         9.00795
     2006.40657        12.57843         8.77988
     2006.40930        12.45824         8.77876
     2006.41204        17.18306         8.98435
     2006.41478        22.08587         9.61686
     2006.41752        17.32668         9.43374
     2006.42026        15.15349         9.02480
     2006.42299        18.99430         8.83943
     2006.42573        19.79811         8.95739
     2006.42847        20.55392         9.37644
     2006.43121        19.05874        11.34026
     2006.43394        18.61155         9.87526
     2006.43668        19.78236         9.44947
     2006.43942        23.10017         9.15175
     2006.44216        29.95598         9.11692
     2006.44490        21.93979         8.56867
     2006.44763        24.11260         8.67091
     2006.45037        16.44141         9.04951
     2006.45311        23.61222        10.07412
     2006.45585        26.49403         9.34611
     2006.45859        19.49684         9.40565
     2006.46132        21.27765         9.29892
     2006.46406        20.80247         8.93492
     2006.46680        21.61528         8.88212
     2006.46954        21.22309         8.90234
     2006.47227        22.76790         8.92369
     2006.47501        21.69871         8.79449
     2006.47775        19.81952         8.82370
     2006.48049        15.95933         9.12366
     2006.48323        16.84414         9.03716
     2006.48596        20.74495         8.93492
     2006.48870        15.39376         9.83706
     2006.49144        20.03457         9.70674
     2006.49419        23.26719         9.33487
     2006.49692        20.69619         8.82819
     2006.49965        20.13201         8.72820
     2006.50239        13.61382         8.49115
     2006.50513        16.70963         8.89897
     2006.50787        21.49344         9.13827
     2006.51060        21.35725         8.94503
     2006.51334        14.09306         9.77864
     2006.51608        11.86687         8.66529
     2006.51882        18.65368         8.49677
     2006.52156        16.82049         8.68214
     2006.52429        19.32430         9.33150
     2006.52703         8.12112         8.98323
     2006.52977        11.95093         8.65518
     2006.53251         7.93574         8.83493
     2006.53525        13.74955         8.90346
     2006.53798        17.10836         8.72596
     2006.54072         7.97917         8.82482
     2006.54346         9.61499         8.44172
     2006.54620         8.74180         8.31140
     2006.54893        10.92461         8.33162
     2006.55167        14.84442         8.41588
     2006.55441        14.49023         8.42824
     2006.55715        18.36104         8.44284
     2006.55989        21.01285         8.64844
     2006.56262        15.90666         8.53497
     2006.56536        16.65447         8.39453
     2006.56810        16.31129         8.69338
     2006.57084        17.67910         9.31465
     2006.57357        11.95091         8.67203
     2006.57631         6.98972         8.43610
     2006.57905         7.20153         8.97874
     2006.58179         6.83834         9.02030
     2006.58453         5.99815         9.21916
     2006.58726        10.75196         8.83044
     2006.59000        14.86677         8.93942
     2006.59274        13.97558         8.77876
     2006.59548        17.17039         8.57654
     2006.59822        13.42920        10.74258
     2006.60095         9.07301        10.82347
     2006.60369         8.97283         9.49328
     2006.60643         6.93764         8.40240
     2006.60917         9.65945         8.81583
     2006.61190         4.02826         8.88886
     2006.61464         8.80707         8.36420
     2006.61738         7.19288         8.56642
     2006.62012         6.82569         8.59563
     2006.62286         8.57550         8.40914
     2006.62559         7.96231         8.45071
     2006.62833        17.80212         8.92032
     2006.63107        13.39893         8.96750
     2006.63381        11.94074         9.77527
     2006.63655        16.06955         9.74382
     2006.63928        11.54837         9.20568
     2006.64202        10.50818         8.68439
     2006.65297        11.36942         9.35847
     2006.65571         4.14523         9.61012
     2006.65845        -0.66095         9.55620
     2006.66119         7.37986         9.26634
     2006.66392         5.46267         9.36746
     2006.66666         9.34348         9.32926
     2006.66940         6.10129         9.63484
     2006.67214         3.28210         9.24837
     2006.67488         7.98091        11.44250
     2006.67761        -2.10027        10.36622
     2006.68035         7.72554        11.22904
     2006.68309        10.03435         9.96289
     2006.68583         8.58616         9.12142
     2006.68856         6.04597         8.76528
     2006.69130         6.67278         9.04951
     2006.69404         8.17859         9.02592
     2006.69678         8.97540         8.71809
     2006.69952         4.39821         9.01244
     2006.70225         9.45302         9.17759
     2006.70499         7.44283         8.71585
     2006.70773         3.70965         8.60462
     2006.71047         4.29246         8.88099
     2006.71321        -1.23173        10.09771
     2006.71594         1.55108         9.19669
     2006.71868        10.98489         8.57991
     2006.72142         9.78070         8.74056
     2006.72416         6.28751         8.87088
     2006.72689         1.38232         9.01806
     2006.72963         2.32813         9.71573
     2006.73237         0.92194         9.25062
     2006.73511         3.71175         9.08884
     2006.73785         0.37656         8.58328
     2006.74058         3.02837         8.63608
     2006.74332         1.84019         8.57878
     2006.74606         3.28400         9.41015
     2006.74880        -1.75719         9.86290
     2006.75154         7.81962         9.10793
     2006.75427         3.42043         9.13827
     2006.75701         3.20524         8.82482
     2006.75975         5.04205         8.78438
     2006.76249        -2.12114         8.60013
     2006.76522         1.81167         9.08434
     2006.76796         4.28948         8.99671
     2006.77070         4.02729         8.56979
     2006.77344        -2.72289         8.58665
     2006.77618        -2.08408         8.59339
     2006.77891        -0.26627         8.74843
     2006.78165         6.22454         9.05176
     2006.78439        -1.24665        10.22578
     2006.78713        -1.84084         9.39330
     2006.78987        -5.36002         9.76404
     2006.79534       -12.54240         8.60799
     2006.79808        -8.49959         8.54058
     2006.80082        -8.34178         9.82920
     2006.80355        -6.09297         9.89548
     2006.80629        -5.53216        10.06513
     2006.80903        -2.73235         8.79898
     2006.81177        -6.59153         8.80460
     2006.81451        -1.44172         9.19332
     2006.81724        -5.05091         9.15063
     2006.81998        -2.49710         8.86190
     2006.82272        -3.86329         9.34499
     2006.82545        -5.02902         9.91908
     2006.82820        -5.19067         9.33712
     2006.83093        -9.37786         9.24724
     2006.83367        -4.50305         9.03828
     2006.83641        -5.97824         9.12029
     2006.83915         1.96657         8.82482
     2006.84188        -4.88662         9.30454
     2006.84462         2.90419         9.26971
     2006.84736        -0.09699         8.66866
     2006.85010        -5.22418         8.82932
     2006.85284         5.54563         8.90571
     2006.85557         0.53144         9.37307
     2006.85831         0.82925        12.42778
     2006.86105        -0.72594        11.08299
     2006.86379        -2.35013         9.75056
     2006.86653        -8.65032         8.92144
     2006.86926       -11.38751         8.97761
     2006.87200       -13.40970         8.84280
     2006.87474       -10.99989         8.86302
     2006.87748        -2.09608         9.90672
     2006.88021        -3.38827         9.07872
     2006.88295        -0.35345         9.35510
     2006.88569        -9.66664         8.71922
     2006.88843        -4.98083         8.45520
     2006.89117        -6.28502         8.55182
     2006.89390       -11.56221        10.50103
     2006.89664       -17.45640        11.52451
     2006.89938        -8.01159         9.43823
     2006.90212       -12.56878        10.13815
     2006.90485       -11.00696         9.16074
     2006.90759       -13.09615         9.49104
     2006.91033       -15.17134         9.34049
     2006.91307       -11.10853         9.76629
     2006.91581        -7.17472         8.63608
     2006.91854        -9.56191         8.54283
     2006.92128       -12.39010         8.66304
     2006.92402        -6.05428         8.58103
     2006.92676       -10.14247         8.75966
     2006.92950         0.28034        10.48081
     2006.93223        -7.47585        11.41104
     2006.93497        -5.12304        11.14702
     2006.93771        -6.95123         9.12816
     2006.94045        -2.73442         9.66180
     2006.94318         1.51539         9.52474
     2006.94592         3.41020        10.25724
     2006.94866        -2.30199         9.08996
     2006.95138         0.02702        10.16062
     2006.95414         0.76790        10.10557
     2006.95687         2.89345         9.09221
     2006.95961        -7.58374         8.56755
     2006.96235         3.64107         9.00795
     2006.96509         2.45588        11.03131
     2006.96780        -1.23366        10.90660
     2006.97057         3.03077        10.43138
     2006.97330        -8.48669        10.43924
     2006.97604        -6.74588         9.41689
     2006.97878        -4.61907         9.79100
     2006.98151        -8.33526         9.43037
     2006.98425        -7.53045         8.68214
     2006.98699         1.93737         8.56642
     2006.98973        -2.19182         8.68102
     2006.99247        -1.59501         8.76865
     2006.99520         3.39380         8.78438
     2006.99794         5.86361         8.75180
     2007.00342         1.93123        10.21680
     2007.00616        11.27304        11.21219
     2007.00889         3.89585        10.28308
     2007.01163         9.76666         9.79550
     2007.01437         1.77947         8.71135
     2007.01711        -0.21671         8.64170
     2007.01984         4.40010         8.74618
     2007.02258         5.43791         8.92256
     2007.02532         5.94772         9.20006
     2007.02806         6.21453         9.18882
     2007.03080         3.37234         8.62934
     2007.03353        -1.87685         8.41139
     2007.03627         0.78197         8.49677
     2007.03901         2.08278         9.56631
     2007.04175        -2.12241         9.61686
     2007.04449        -8.65760        10.14489
     2007.04722        -4.65779         9.37981
     2007.04996        -8.12298         9.84156
     2007.05270        -4.78917         9.24500
     2007.05544       -13.24835         9.34049
     2007.05817       -13.01254         8.48441
     2007.06091        -8.70873         8.32263
     2007.06365        -8.44392         8.31477
     2007.06639        -7.95811         8.79898
     2007.06913        -8.41730         8.45745
     2007.07186        -5.76249         8.44509
     2007.07460         0.49732         8.49565
     2007.07734         4.72913         9.61799
     2007.08008        11.49094        10.37071
     2007.08281         2.77522        10.16175
     2007.08555         0.29756         9.40678
     2007.08829        -9.82463         8.91020
     2007.09103        -5.11481         8.52823
     2007.09377        -8.79400         8.41476
     2007.09650        -9.68019         8.77651
     2007.09924        -8.66438         9.21916
     2007.10198       -12.01857         9.89099
     2007.10472         1.87924         9.42925
     2007.10746        -5.38295         9.08771
     2007.11019       -11.31714         8.68326
     2007.11293        -8.86733         8.68439
     2007.11567        -6.33352         8.97986
     2007.11841         7.60329         9.76404
     2007.12115        -2.13790        10.29881
     2007.12388        -8.28309         9.70225
     2007.12662        -3.42027         8.77764
     2007.12936        -0.60346         9.58428
     2007.13210        -4.92865         8.79449
     2007.13483        -7.79584         8.48104
     2007.13757       -12.29503         8.40352
     2007.14031        -6.61622         8.42936
     2007.14305       -10.73741         8.44172
     2007.14579        -4.79160         8.67989
     2007.14852        -1.29679         8.59451
     2007.15126        -4.72897         8.72820
     2007.15400        -5.53116         8.52149
     2007.15674         4.42665         8.99446
     2007.15948         8.79546        11.06501
     2007.16221        10.83427        10.37745
     2007.16495         8.01308         8.69450
     2007.16769        -1.19610         8.72483
     2007.17043         2.59671         8.80685
     2007.17316         3.10952        10.07861
     2007.17590        -0.10767         9.52249
     2007.17864        -4.04286        10.21118
     2007.18138         0.24395         9.01132
     2007.18412        -0.29324         9.06187
     2007.18685        -3.97643         9.71685
     2007.18959        -1.72262         9.38768
     2007.19233        -1.34881         9.35510
     2007.19507         2.34601         9.98873
     2007.19780        -2.48018        10.11344
     2007.20054        -2.37637         9.53148
     2007.20328         0.97044         9.51912
     2007.20602         1.90825         8.76191
     2007.20876         3.84006         8.62372
     2007.21149        -6.18513         8.51250
     2007.21423        -4.51032         8.69450
     2007.21697         3.95149         8.67540
     2007.21971        -1.03670         8.64057
     2007.22245         3.99311         8.67091
     2007.22518         0.23892         8.72483
     2007.22792        -0.16927         9.01019
     2007.23066        -4.28345         8.70910
     2007.23340        -8.62764         9.04390
     2007.23613        -1.89983         9.09333
     2007.23887        -2.13002         8.45071
     2007.24161        -5.52221         8.60013
     2007.24435         1.68260         8.49789
     2007.24709         0.46141         9.67753
     2007.24982        -4.17578        10.86279
     2007.25256         1.99503         8.95964
     2007.25530        -3.98316         9.03940
     2007.25804        -6.36835         8.84954
     2007.26078        -6.90754         8.96076
     2007.26351        -6.08872         8.53497
     2007.26625        -2.34091         8.47655
     2007.26899         0.82790         8.39566
     2007.27173         3.53071         9.03940
     2007.27446         3.05852         8.40577
     2007.27720         5.44533         8.92369
     2007.27994         1.16014         8.38555
     2007.28268         1.89996         8.47205
     2007.28542        -0.37723         8.84055
     2007.28815        -2.35642         8.46531
     2007.29089        -6.23061         8.91133
     2007.29363        -7.88580         8.75854
     2007.29637        -2.39699         8.70573
     2007.30458        -8.55655         9.07423
     2007.30732       -11.75174         8.83269
     2007.31006       -12.23393         8.63720
     2007.31279        -4.86012         8.53834
     2007.31553        -5.81831         9.03716
     2007.31827        -3.21750         9.24500
     2007.32101        -8.69369        10.00334
     2007.32375       -14.40388         9.74943
     2007.32648        -7.12207         9.24275
     2007.32922        -1.15326         8.95851
     2007.33196        -5.42845         8.84617
     2007.33470        -8.23463         9.11018
     2007.33744        -4.76882         8.66080
     2007.34017        -3.41001         8.43947
     2007.34291        -5.71420         8.47093
     2007.34565        -7.14839         8.75292
     2007.34839        -7.44858         9.64046
     2007.35112        -1.69877         8.84617
     2007.35386        -1.17396         9.01019
     2007.35660        -5.14515         8.92818
     2007.35934        -6.60034         8.51250
     2007.36208        -6.64153         8.43947
     2007.36481        -3.60072         8.86414
     2007.36755         8.46809         9.01019
     2007.37029        -5.30109         8.56530
     2007.37303         4.72872         9.05176
     2007.37577         3.43953         9.63147
     2007.37850         5.63834         9.08322
     2007.38124        -4.53385         9.33150
     2007.38398        -2.72604         8.56418
     2007.38672        -2.01323         8.94953
     2007.38945        -0.52242         9.08884
     2007.39219        -3.39361        10.01457
     2007.39493        -7.01380         9.64832
     2007.39767        -6.93498        10.36846
     2007.40041        -0.97017         9.57193
     2007.40314        -3.84936         8.51924
     2007.40588        -7.00555         8.38105
     2007.40862        -4.55074         8.53609
