# ================= DQRFIT RESULTS ================
# INPUT FILE: series/SUSA.rad
# OUTPUT: LDETRENDED
# FILTER FUNCTION: f(t)
# f(t)=+line(t)
# line(t)=+P 1+P 2*t
# heav(t)=(t<0?0:1)
# TOTAL OBSERVATIONS MTOT=  488
# INITIAL TIME INTERVAL= 2019.5045 - 2005.9767 = 13.5277
# TOTAL OBSERVATIONS AFTER PREFILTER M=  488
# TIME-SPAN=    0.0000 -    0.0000 =  0.0000
# OBSERVATIONS: USED M=   488 REJECTED MTOT-M=     0 %USED=  100.0000
# N=  2 PARAMETERS
# MAXSIG= 175.00000
# MAXRES=  24.50288
# SCALE FACTOR FOR LENGTHS: SCL=  10.00000
# SCALE FACTOR FOR SIGMAS: SCLSIG=   1.00000
# CHI^2=    884.364 DOF=   486 CHI^2/DOF=   1.81968
# RMS=      7.677 SDEV=      7.685 MEAN=    0.01198
#  P #       PARAMETER +-    SIGMA %error PARAMETER NAME
# P 1 =      -380.36296 +-  164.325  43.20 YZERO                              
# P 2 =         0.19054 +-    0.082  42.87 SLOPE                              
#       T            LDETRENDED       SIG_OBS
     2005.97673        -0.34932         7.93725
     2005.97947        -5.87684         7.82394
     2005.98221        -0.59636         7.98177
     2005.98495        -2.12188         7.91432
     2005.98768        -1.04441         7.89004
     2005.99042         0.49707         8.08429
     2005.99316        -0.47745         7.81854
     2005.99590         1.94603         7.89004
     2005.99864       -23.57849         8.29338
     2006.00411       -12.43554         8.01144
     2006.00685        -3.39906         7.91567
     2006.00959       -18.57158         8.14634
     2006.01233       -13.43210         7.86306
     2006.01506       -10.15562         7.84013
     2006.01780         5.96286         8.07889
     2006.02054        -3.95067         8.07215
     2006.02328        -4.67719         7.94535
     2006.02601        -1.55371         7.97098
     2006.02875         3.86877         7.90757
     2006.03149         0.40025         7.91837
     2006.03423         5.41573         7.92646
     2006.03697        12.38120         8.01279
     2006.03970         0.16068         7.81180
     2006.04244        -4.06984         7.81045
     2006.04518         7.51664         8.66164
     2006.04792         6.35612         8.97999
     2006.05339        -5.44193         9.07442
     2006.05887         0.10803         8.59959
     2006.06161        -4.47349         7.63374
     2006.06434         3.61099         7.83338
     2006.06708        -4.91353         7.46107
     2006.06982        -5.38606         7.53257
     2006.07256        -6.96258         7.42195
     2006.07530        -2.49810         7.57438
     2006.07803       -11.93262         7.61350
     2006.08077       -10.33614         7.68095
     2006.08351        -9.42966         7.52447
     2006.08625       -10.09019         9.68415
     2006.08898         0.37129         9.45887
     2006.09172        -2.63623         7.61485
     2006.09446        -1.16475         7.63913
     2006.09720        -7.95027         7.55820
     2006.09994       -13.90679         7.62295
     2006.10267        -8.34332         7.56224
     2006.10541       -12.95684         7.60001
     2006.10815        -5.34536         7.74435
     2006.11089        -7.96188         7.86036
     2006.11363       -11.87740         7.65262
     2006.11636       -12.78292         7.62295
     2006.11910        -8.36045         7.61485
     2006.12184        -6.91997         7.71467
     2006.12458        -2.48149         7.66207
     2006.12731        -9.69601         7.62025
     2006.13005        -8.36953         7.61350
     2006.13279        -0.66505         7.57978
     2006.13553        -0.70958         7.63913
     2006.13827         3.25890         7.69444
     2006.14100        -1.71362         7.64588
     2006.14374        -1.88614         7.60541
     2006.14648        -1.98366         7.56224
     2006.14922        -2.05318         7.58922
     2006.15196        -7.93571         7.66207
     2006.15469        -1.13023         7.68904
     2006.15743        -9.53275         7.73626
     2006.16017         3.22373         7.86306
     2006.16291        -0.91479         7.83068
     2006.16564        -2.99531         7.62160
     2006.16838        -7.97084         7.94804
     2006.17112        -0.50036         7.63374
     2006.17386         4.14112         7.67960
     2006.17660         3.38260         7.71602
     2006.17933         3.56608         7.57573
     2006.18207         0.11556         7.60946
     2006.18469         6.17306         8.01819
     2006.76523        -1.94256         8.15174
     2006.76797         0.62292         8.14229
     2006.77071        -2.54060         7.96558
     2006.77345        -1.10013         8.02898
     2006.77619         2.32335         7.96153
     2006.77892         3.48583         7.90892
     2006.78166         4.56431         7.83473
     2006.78440         2.61679         7.91162
     2006.78714         4.26127         8.12745
     2006.78987        11.00574         8.08294
     2006.79261         5.74622         7.95209
     2006.79535        -2.45030         8.01684
     2006.79809         0.22518         7.93455
     2006.80083         2.30266         8.00740
     2006.80356         2.66714         7.82934
     2006.80630         2.49961         7.81989
     2006.80904         2.02609         7.78617
     2006.81178         6.39657         7.84283
     2006.81452         2.49005         7.98986
     2006.81725         2.70653         8.00335
     2006.81999        -1.40799         7.80236
     2006.82273        -0.64952         7.80371
     2006.82547         4.45096         7.73356
     2006.82820         2.85844         7.66341
     2006.83094        10.02692         7.75649
     2006.83368         6.84340         7.76189
     2006.83642         0.81088         7.90488
     2006.83916        -7.46565         7.81045
     2006.84189         2.04283         7.97098
     2006.84463        -1.30569         7.90488
     2006.84737        -5.33821         7.83743
     2006.85011        -3.23973         8.02089
     2006.85285        10.68475         8.26640
     2006.85558        11.95922         8.12880
     2006.85832         2.88370         8.05056
     2006.86106         3.15118         8.10587
     2006.86380        -0.28334         8.13420
     2006.86653        -5.07886         8.29877
     2006.86927         0.43162         7.74975
     2006.87201         2.83009         7.65397
     2006.87475         2.16757         7.76593
     2006.87749         4.04805         7.69984
     2006.88022        -4.75347         7.69444
     2006.88296        -1.97799         7.68095
     2006.88570         1.30749         7.74435
     2006.88844         8.47696         7.83068
     2006.89086         7.79350         8.60498
     2007.48529         0.74224         7.66746
     2007.48803        -5.70528         7.69984
     2007.49076        -0.34080         7.89543
     2007.49350         4.91667         7.71467
     2007.49624         6.81915         7.76054
     2007.49898         4.82963         7.64992
     2007.50172        -2.72889         7.65127
     2007.50445         0.31359         7.66881
     2007.50719         0.48107         7.68904
     2007.50993        -0.91646         7.73761
     2007.51267        -5.20498         7.67151
     2007.51541        -0.41950         7.61485
     2007.51814         1.91998         7.63778
     2007.52088         6.75546         7.77133
     2007.52362        11.73594         7.84552
     2007.52636         4.11341         7.68904
     2007.52909         0.72489         7.81045
     2007.53183         7.55237         7.68365
     2007.53457         0.46685         7.78752
     2007.53731        16.84433         7.84687
     2007.54005         3.01381         7.84013
     2007.54278         1.90228         7.79022
     2007.54552        12.60776         7.79291
     2007.54826         6.78224         7.67151
     2007.55100        -1.75728         7.71872
     2007.55374         6.23720         7.80775
     2007.55647         1.05368         7.77403
     2007.55921        10.45515         8.03842
     2007.56195         7.89963         7.93455
     2007.56469         6.26411         7.72816
     2007.56742         5.47159         7.79426
     2007.57016         5.74707         7.70658
     2007.57290         5.54555         7.67555
     2007.57564         0.61102         7.70658
     2007.57838         1.62950         7.70793
     2007.58111         6.81298         7.71602
     2007.58385         4.41046         7.68635
     2007.58659         2.90994         7.69309
     2007.58933         3.30242         7.64453
     2007.59206         5.74089         7.75110
     2007.59480        10.63637         7.94400
     2007.59754         5.73085         7.80371
     2007.60028         4.82733         7.70928
     2007.60302         9.26181         7.67016
     2007.60575         7.97029         7.60406
     2007.60849         2.67176         7.68095
     2007.61123         3.50724         7.63643
     2007.61397         3.33272         7.65937
     2007.61671         5.27720         8.12206
     2008.54210        -1.94113         8.52405
     2009.56332        -9.03871         7.90892
     2009.56606       -16.15723         7.95749
     2009.56879       -11.02675         7.82529
     2009.57153        -5.50228         7.72547
     2009.57427        -8.58680         7.93995
     2009.57701        -2.31732         7.94535
     2009.57974         0.14716         7.74840
     2009.58248       -10.12336         7.80236
     2009.58522        -4.14588         8.12611
     2009.58796        -6.07541         7.93455
     2009.59070        -2.45993         7.86171
     2009.59343       -10.09945         8.01414
     2009.59617        -3.80397         7.75784
     2009.59891         1.84251         7.69444
     2009.60165        -4.42901         7.82934
     2009.60439        -6.66054         7.81045
     2009.60712        -3.17506         7.73626
     2009.60986        -7.82858         7.72142
     2009.61260        -8.82010         7.73086
     2009.61534        -5.18462         7.75514
     2009.61807        -8.87414         8.00065
     2009.62081        -6.40367         7.71063
     2009.62355        -8.09219         7.70118
     2009.62629        -2.25771         7.61620
     2009.62903        -2.24723         7.65532
     2009.63176        -4.12575         7.69039
     2009.63450        -6.53127         7.72007
     2009.63724        -7.67680         7.85362
     2009.63998        -7.44532         7.74570
     2009.64272        -6.01584         7.87385
     2009.64545         0.29564         7.74840
     2009.64819         3.07012         7.94804
     2009.65093        -9.18641         7.81045
     2009.65367        -7.82093         7.77268
     2009.65640       -14.14345         7.53391
     2009.65914        -1.86597         7.72816
     2009.66188        -4.80649         7.66341
     2009.66462        -8.65001         7.67555
     2011.85764        -1.97387         7.68500
     2011.86037         7.55360         7.55280
     2011.86311         3.05508         7.60676
     2011.86585         5.59356         7.55550
     2011.86859         7.77804         7.57438
     2011.87133         4.75052         7.59462
     2011.87406        -1.29600         7.57438
     2011.87680         2.39747         7.66341
     2011.87954         8.68695         7.70118
     2011.88228         8.31243         7.58383
     2011.88502        -1.99909         7.55145
     2011.88775        -4.79361         7.66341
     2011.89048        -2.60313         7.63104
     2011.91787         5.52765         7.75514
     2011.92061        -6.70487         8.58205
     2011.92334        -0.11439         8.49842
     2011.92608        -2.88392         8.06540
     2011.92882        -0.48444         8.06540
     2011.93156         5.33204         7.70118
     2011.93430         4.07752         8.08833
     2011.93703         2.20900         7.73356
     2011.93977         5.53448         7.72547
     2011.94251         7.48295         7.77808
     2011.94525         6.66043         7.73356
     2011.94799         8.97791         7.78482
     2011.95072         7.30339         7.71467
     2011.95346         3.14787         7.82259
     2011.95620         4.80435         7.77538
     2011.95894        -1.87818         7.54875
     2012.03287         3.36974         7.49210
     2012.03560         1.34022         7.59462
     2012.03833         5.86370         7.58517
     2012.04107        13.27217         7.46916
     2012.04381         5.65565         7.45837
     2012.04655        14.55813         7.55550
     2012.04929        14.92761         7.51638
     2012.05202        10.12809         7.47591
     2012.05476         6.64857         8.17332
     2012.05750         5.94304         7.67555
     2012.06024        -4.14048         7.66881
     2012.06298        -2.09200         7.56629
     2012.06571         0.36348         7.77942
     2012.06845        -1.11304         7.73626
     2012.07119         2.88744         8.03033
     2012.07393         0.13191         8.08159
     2012.07666         2.34439         7.84417
     2012.07940         8.58387         8.13285
     2012.08214         4.14035         7.76728
     2012.08488         4.54283         7.56224
     2012.08762         6.35831         7.52447
     2012.09035         1.88278         7.48805
     2012.09309         3.41226         7.50559
     2012.09583         4.24574         7.56224
     2012.09857         4.64322         7.47051
     2012.10131         3.15970         7.66746
     2012.10404        -2.25382         7.67555
     2012.10678        -1.08435         7.80910
     2013.38536       -11.08197         7.64318
     2013.38810        -9.45549         7.59866
     2013.39083        -9.79901         7.49884
     2013.39357        -9.92753         7.49749
     2013.39631        -8.71305         7.47591
     2013.39905       -11.80558         7.52852
     2013.40178       -15.35510         7.68230
     2013.40452        -7.86962         7.56629
     2013.40726        -6.01914         7.65937
     2013.41000        -6.77666         7.56764
     2013.41274        -6.55118         7.53391
     2013.41547       -13.02771         7.64048
     2013.41821       -11.94523         7.59327
     2013.42095        -5.01275         7.57573
     2013.42369       -11.44527         7.55280
     2013.42643        -9.88679         7.55280
     2013.42916       -10.61431         7.63104
     2013.43190       -10.43984         7.64588
     2013.43464        -6.13836         7.62564
     2013.43738       -10.75088         7.63104
     2013.44011        -8.35340         7.72951
     2013.44285        -7.66992         7.57034
     2013.44559       -10.56944         7.74705
     2013.44833       -10.44297         7.66881
     2013.45107       -11.15749         7.52987
     2013.45380       -10.66401         7.57708
     2013.45654       -10.41853         7.54471
     2013.45928       -12.42205         7.50694
     2013.46202        -2.33457         7.66881
     2013.46475        -9.98910         7.62564
     2013.46749       -11.22362         7.59327
     2013.47023        -8.55614         7.56899
     2013.47297        -9.05866         7.40711
     2013.47571        -8.43218         7.53796
     2013.47844        -8.59170         7.51098
     2013.48118        -5.98723         7.52177
     2013.48392        -8.07775         7.59732
     2013.48666        -4.25227         7.44893
     2013.48940       -10.28579         7.48535
     2013.49213       -12.74731         7.59462
     2013.49487        -9.20183         7.52042
     2013.49761        -6.49636         7.47591
     2013.50035        -8.55988         7.50963
     2013.51130        -5.79596         7.54875
     2013.51404       -11.09449         7.52177
     2013.51677        -7.56601         7.52042
     2013.51951        -7.34653         7.45433
     2014.04792        12.12679         7.41521
     2014.05065        12.21327         7.40037
     2014.05339        10.55874         7.49075
     2014.05613         9.70222         7.50828
     2014.05887         6.59870         7.43814
     2014.06161        14.41218         7.45567
     2014.06434        15.61366         7.67286
     2014.06708        13.61314         7.69039
     2014.06982        12.79261         7.56899
     2014.07256        13.60809         7.47726
     2014.07530        10.06957         7.47996
     2014.07803        13.75205         7.45163
     2014.08077        17.27253         7.47861
     2014.08351        16.89401         7.56224
     2014.08625        13.38848         7.56764
     2014.08898        12.92896         7.78077
     2014.09172        15.17544         7.73356
     2014.09446        11.99692         7.81450
     2014.09720         9.22340         8.09643
     2014.09994        24.50288         7.57843
     2014.10267        23.48935         7.56494
     2014.10541        22.34583         7.48805
     2014.10815        10.45331         7.50828
     2014.11636        15.56275         8.53079
     2014.11910        12.85422         7.58383
     2014.12458        20.86218         8.49167
     2014.13005        13.68414         7.50154
     2014.13279         8.89962         7.75245
     2014.13553        17.81809         7.76189
     2014.13827        12.22357         7.45298
     2014.14100        14.56505         7.44758
     2014.14374        13.38353         7.89678
     2014.14648        13.02201         7.78752
     2014.14922        13.23149         7.75649
     2014.15196        11.69396         7.56764
     2015.72622         4.67200         7.59057
     2015.72896         0.16748         7.57438
     2015.73170         7.39396         7.66746
     2015.73443         4.81244         7.56899
     2015.73717         5.94791         7.50424
     2015.73991         4.89039         7.80371
     2015.74265         2.92487         7.87790
     2015.74538         7.17235         8.04787
     2015.74812        -5.26417         7.96288
     2015.75086        -2.40569         7.63913
     2015.75360         0.64778         7.73356
     2015.75634         0.04426         7.64723
     2015.75907         7.81374         7.58922
     2015.76181         1.65922         7.54336
     2015.76455         4.09570         7.58248
     2015.76729         1.55918         7.56359
     2015.77003         1.06265         7.56629
     2015.77276         4.65013         7.59192
     2015.77550         7.37461         7.60001
     2015.77824         7.90009         7.56899
     2015.78098         4.96357         7.56224
     2015.78371         7.31705         7.58383
     2015.78645         8.24952         7.58787
     2015.78919         2.07600         7.58652
     2015.79193         7.80548         7.61755
     2015.79467         1.17096         7.68904
     2015.79740         5.44344         7.58248
     2015.80014         7.31192         7.79022
     2015.80288         1.41639         7.56899
     2015.80562         2.54587         7.60946
     2015.80836         1.93235         7.58383
     2015.81109        -2.78217         7.55145
     2015.81383         2.80731         7.57438
     2015.81657        -2.11621         7.55280
     2015.81931         0.75226         7.72951
     2015.82204        -3.06126         7.65937
     2015.82478         1.80722         7.59057
     2015.82752         4.19070         7.55550
     2015.83026         6.74418         7.67421
     2015.83300         7.06666         7.66476
     2015.83573         7.64513         7.76863
     2015.83847       -24.95539         7.81585
     2015.84121       -13.89991         7.77808
     2015.84395        -2.08443         7.69174
     2015.84669        -0.11995         7.69984
     2015.84942         0.88653         7.67286
     2015.85216         4.74500         7.90353
     2015.85490        13.95148         7.73086
