# ================= DQRFIT RESULTS ================
# INPUT FILE: series/SVIC.rad
# OUTPUT: LDETRENDED
# FILTER FUNCTION: f(t)
# f(t)=+line(t)+annual(t)
# line(t)=+P 1+P 2*t
# annual(t)=+P 3*sin(2*pi*t+P 4)
# heav(t)=(t<0?0:1)
# TOTAL OBSERVATIONS MTOT= 3352
# INITIAL TIME INTERVAL= 2022.7488 - 2011.6441 = 11.1047
# TOTAL OBSERVATIONS AFTER PREFILTER M= 3343
# TIME-SPAN= 2022.7488 - 2011.6441 = 11.1047
# OBSERVATIONS: USED M=  3343 REJECTED MTOT-M=     9 %USED=   99.7315
# N=  4 PARAMETERS
# MAXSIG= 175.00000
# MAXRES=  65.63878
# SCALE FACTOR FOR LENGTHS: SCL=  10.00000
# SCALE FACTOR FOR SIGMAS: SCLSIG=   1.00000
# CHI^2=   5624.244 DOF=  3339 CHI^2/DOF=   1.68441
# RMS=      7.728 SDEV=      7.727 MEAN=    0.17666
#  P #       PARAMETER +-    SIGMA %error PARAMETER NAME
# P 1 =      1855.50143 +-   77.419   4.17 YZERO                              
# P 2 =        -0.92043 +-    0.038   4.17 SLOPE                              
# P 3 =         4.98635 +-    0.175   3.51 ANNUAL AMPLITUDE                   
# P 4 =         2.73731 +-    0.046   1.67 ANNUAL PHASE                       
#       T            LDETRENDED       SIG_OBS
     2011.64407         1.72468         7.10183
     2011.64681        10.42320         7.00449
     2011.70705         5.24064         7.25108
     2011.70978         0.07016         7.06808
     2011.71252        -3.47932         7.02266
     2011.71526        -4.03280         7.22772
     2011.71800         0.85772         7.24199
     2011.72073         3.87824         6.97464
     2011.72347         3.58076         6.98372
     2011.72621         3.38528         6.92791
     2011.72895         8.14280         6.93310
     2011.73169         9.70532         7.19138
     2011.73442         4.06584         7.19267
     2011.73716         2.57636         7.22123
     2011.73990        -0.05912         6.98502
     2011.74264         6.19840         7.00708
     2011.74538         7.18292         7.06029
     2011.74811         9.96044         7.13297
     2011.75085         9.83796         7.16802
     2011.75359         7.64648         7.09144
     2011.75633        15.24800         7.02266
     2011.75906        21.25152         7.08495
     2011.76180         5.85904         7.08625
     2011.76454         1.16956         7.14985
     2011.86840         2.12516         7.74556
     2011.87132         1.16384         7.04083
     2011.87405        -0.55364         7.07327
     2011.87679        10.02388         7.09663
     2011.87953         3.57240         7.12000
     2011.88227         6.02992         7.07068
     2011.88501         7.90944         7.05640
     2011.88774        -2.92004         7.10312
     2011.89048         9.95848         7.06419
     2011.89322         7.88300         7.10961
     2011.89596        -0.81548         7.06808
     2011.89869         3.89904         7.16282
     2011.90143        -3.31244         7.04861
     2011.90417         0.06008         7.17450
     2011.90691         4.61860         7.03044
     2011.90958         3.08307         7.23550
     2011.91238         1.30564         7.30689
     2011.91512        -2.22184         7.19916
     2011.91786         0.36068         7.32895
     2011.92060        -5.86580         7.17061
     2011.92334        -6.06528         7.18229
     2011.92607        -3.94676         7.21344
     2011.92881        -2.12924         7.27574
     2011.93155         1.91628         7.23291
     2011.93429         0.82380         7.19267
     2011.93702         0.04932         7.05640
     2011.93976         5.88484         7.03823
     2011.94250         7.06936         7.16802
     2011.94524         4.23388         7.12778
     2011.94798         8.03240         7.05121
     2011.95071         3.12092         7.00189
     2011.95345        -1.70156         7.11091
     2011.95619         3.28396         7.25886
     2011.95893         2.12748         7.15504
     2011.96167         6.98600         7.19008
     2011.96440         2.75952         7.08885
     2011.96714        -0.63996         7.05900
     2011.96988         6.36356         7.10831
     2011.97262         0.12008         7.05251
     2011.97535        -0.27440         7.16672
     2011.97809        -3.92588         7.08495
     2011.98083         3.45364         6.93181
     2011.98631         5.70768         7.06419
     2011.98904        24.34520         7.23680
     2011.99178        18.07072         7.14595
     2011.99452        25.31224         7.09144
     2011.99726        10.47376         7.01487
     2012.00273         5.16880         7.06808
     2012.00547         4.71732         7.12129
     2012.00821         4.79784         7.08495
     2012.01095         9.28236         7.06419
     2012.01368         5.47788         6.97074
     2012.01642         7.22040         6.98891
     2012.01916         4.09992         6.99540
     2012.02190         8.30544         6.99670
     2012.02464         5.46396         6.98761
     2012.02737         1.79648         6.96815
     2012.03011         2.87000         6.93700
     2012.03285         0.94152         7.03823
     2012.03559         2.28904         7.03434
     2012.03833         5.63356         6.99281
     2012.04106         4.46508         6.97723
     2012.04380         6.95560         6.99281
     2012.04654        17.44812         7.08625
     2012.04928        22.71364         7.07717
     2012.05201        10.27916         7.07197
     2012.05475        28.42368         7.07197
     2012.05749        14.94820         7.03563
     2012.06023        11.45572         7.18229
     2012.06297         2.28924         7.08366
     2012.06570         9.53076         7.16412
     2012.06844         6.22628         7.17061
     2012.07118        -2.44120         7.02136
     2012.07392        -1.91668         6.98113
     2012.07666        -0.29016         7.08366
     2012.07939        12.70436         7.02006
     2012.08213         3.44088         7.07197
     2012.08487         4.85740         7.08106
     2012.08761        -0.49508         7.11740
     2012.09034        -3.09056         7.08366
     2012.09308         0.09496         7.04083
     2012.09582         0.31148         7.05510
     2012.09856         2.32200         7.06678
     2012.10130        -1.17548         7.21344
     2012.10403        -2.21196         7.17061
     2012.10677         0.78556         7.24589
     2012.10951         1.76808         7.26795
     2012.11225         1.79360         7.11610
     2012.11498         1.83312         7.20565
     2012.11772         0.20064         7.18489
     2012.12046         3.06116         7.15504
     2012.12320         2.18268         7.13816
     2012.12594        -4.57080         7.01746
     2012.12867        -2.36628         7.02785
     2012.13141         0.66224         7.07846
     2012.13415         2.62776         7.01746
     2012.13689        -6.83072         7.08106
     2012.13963        10.15280         7.16672
     2012.14236        10.69232         7.30559
     2012.14510         0.13484         7.12389
     2012.14784        -3.47264         7.06938
     2012.15058        -5.81012         7.09663
     2012.15331        -2.67360         7.07587
     2012.15605        -1.97808         7.15244
     2012.15879        -0.15756         7.19787
     2012.16153        -0.46704         7.07976
     2012.16427        -0.78252         7.16672
     2012.16700        -3.53800         7.17321
     2012.16974        -4.77048         7.08366
     2012.17248        -2.96196         7.06159
     2012.17522        -1.80244         7.15504
     2012.17796        -2.48192         7.21474
     2012.18069        -2.16040         7.07327
     2012.18343        -6.65788         7.12908
     2012.18617        -4.99036         7.09793
     2012.18891        -4.51484         7.16023
     2012.19164         3.32568         7.20176
     2012.19438         7.45920         7.12908
     2012.19712         1.20772         7.11221
     2012.19986        -4.17776         7.19397
     2012.20260         8.86876         7.15114
     2012.20533        10.22328         7.09663
     2012.20807         3.99580         6.91104
     2012.21081        -1.65868         6.86951
     2012.21355        -2.16116         6.88119
     2012.21629        -0.29164         6.90066
     2012.21902         7.28988         6.91234
     2012.22176        -1.61060         7.12778
     2012.22450        -7.42308         7.03693
     2012.22724        -2.66756         7.10312
     2012.22997        -0.78504         7.14465
     2012.23271        -0.21852         7.19267
     2012.23545         1.24700         6.94089
     2012.23819         5.06552         7.06289
     2012.24093         1.67004         6.90715
     2012.24366        15.10956         6.89028
     2012.24640         1.86308         7.16153
     2012.24914        -1.42740         7.16153
     2012.25188        -5.63288         7.04991
     2012.25462        -9.90636         7.09663
     2012.25735        -3.17884         7.06289
     2012.26009        -4.91732         7.12129
     2012.26283        -3.73380         7.04732
     2012.26557        -5.38928         7.07717
     2012.26830        -5.09076         7.07457
     2012.27104        -7.56224         7.33544
     2012.27378        -3.50972         7.09274
     2012.27652         3.92780         7.11091
     2012.27926         2.67432         7.25757
     2012.28199         0.96184         7.10961
     2012.28473        -0.29564         7.04472
     2012.28747        -4.76512         7.21474
     2012.29021         5.15740         7.09793
     2012.29295         1.68192         7.11221
     2012.30116        -3.57652         7.03693
     2012.30390       -16.43000         6.85913
     2012.30663        -7.74248         6.87081
     2012.30937       -11.90596         6.92402
     2012.31211        10.20256         7.30299
     2012.31485        -3.14992         7.20306
     2012.31759         4.72660         7.02006
     2012.32032        -1.98488         7.09014
     2012.32306        -4.88036         6.98502
     2012.32580        -8.06884         6.87989
     2012.32854        -5.81532         7.07197
     2012.33128        -1.06280         7.15374
     2012.33401        -3.89728         7.20046
     2012.33675        -0.68676         6.92272
     2012.33893        -6.43275         9.19006
     2012.34223       -14.45472         6.85913
     2012.34496       -12.69320         6.90715
     2012.34770        -5.22168         7.02395
     2012.35044        -3.46316         6.92142
     2012.35318        -3.55664         7.03953
     2012.35592        -4.29012         6.85523
     2012.35865        -8.98260         6.87860
     2012.36139        -6.82308         6.87340
     2012.36413        -7.21456         6.85653
     2012.36687        -8.58904         6.88379
     2012.36961        -5.91552         6.81370
     2012.37234        -0.96100         7.05900
     2012.37508        -1.81048         6.94868
     2012.37782        -5.30596         7.05510
     2012.38056        -7.52144         6.92662
     2012.38329        -5.94092         6.99670
     2012.38603        -5.85040         7.03174
     2012.38877         0.17812         7.33674
     2012.39151         1.04164         7.18359
     2012.39425        -0.99884         7.00968
     2012.39698        -7.78232         7.19138
     2012.39972        -5.64180         6.93700
     2012.40246        -3.87128         6.83447
     2012.40434       -13.34154        11.91814
     2012.40794        -6.51724         6.97334
     2012.41067        -7.80472         7.04212
     2012.41341        -7.51920         7.00319
     2012.41615        -5.16968         7.03044
     2012.41762         3.36968        28.30217
     2012.42162        -6.33464         6.98372
     2012.42436        11.89788         7.08755
     2012.42710        -4.39860         7.03434
     2012.42984        -3.07508         6.96425
     2012.43258       -10.07256         6.95387
     2012.43531        -7.57104         6.90715
     2012.43805        -8.16752         6.94219
     2012.44079       -13.87600         6.93959
     2012.44353       -13.13648         6.96036
     2012.44626        -7.55196         6.96685
     2012.44900       -11.35844         7.01227
     2012.45174        -7.19492         6.96425
     2012.45448         2.52760         7.00189
     2012.45722        -5.97188         7.01227
     2012.45995        -0.14936         7.10831
     2012.46269        -7.90784         6.96296
     2012.46543        -6.02332         6.97204
     2012.46817        -2.46280         6.96296
     2012.47091        -6.40128         6.97334
     2012.47364        -3.54976         7.03304
     2012.47638        -1.40724         7.04212
     2012.47912       -12.21272         6.99410
     2012.48186        -3.62420         6.95387
     2012.48459         3.12632         6.98242
     2012.49007        -0.90664         7.04212
     2012.49281         0.93688         6.95387
     2012.49555        -7.93760         6.95776
     2012.49828        -3.72708         7.03174
     2012.50102        -0.33956         6.98242
     2012.50376        -3.10304         7.01227
     2012.50650        -4.31052         6.92402
     2012.50924        -6.28600         7.07457
     2012.51197        -4.79948         7.08495
     2012.51471         0.60904         6.99540
     2012.51745         5.00856         7.08755
     2012.52019        -4.76292         7.19916
     2012.52292        -1.53440         6.97723
     2012.52566        -0.26788         6.92532
     2012.52840        -0.18836         7.04732
     2012.53114        -0.10984         7.06938
     2012.53388        -2.29632         7.12000
     2012.53661        -1.55780         7.02915
     2012.53935         2.42072         6.94089
     2012.54209         4.01124         6.95517
     2012.54483         8.46576         7.08625
     2012.54647       -11.41772        16.86035
     2012.55030        -2.21720         6.93959
     2012.55304        -4.01568         6.90455
     2012.55578        -1.30616         6.98632
     2012.55852        -4.99064         6.90715
     2012.56125        -2.16512         6.93830
     2012.56399        -1.82460         7.04342
     2012.56673        -0.19108         6.99151
     2012.56947         4.82244         6.97334
     2012.57221        -0.19304         7.02266
     2012.57484         0.67539         7.13168
     2012.57768        -3.05000         7.05510
     2012.58042         1.25052         6.96425
     2012.58316       -10.95296         6.99670
     2012.58590        -2.85044         7.02525
     2012.58863         1.04608         6.96036
     2012.59137         0.11760         6.96425
     2012.59389         4.48793         7.47431
     2012.59685        -3.33636         7.27444
     2012.59958         0.03216         7.09014
     2012.60232         0.57468         7.21733
     2012.60506         4.18020         6.99151
     2012.60780         1.49972         6.98502
     2012.61054         4.77024         6.97204
     2012.61327         5.47176         6.94998
     2012.61601         4.75928         6.96166
     2012.61875         5.94580         6.95647
     2012.62149         6.64432         6.92532
     2012.62423         6.71584         6.98372
     2012.62696         6.15036         7.08885
     2012.62970        -6.72412         7.12648
     2012.63244        -0.06160         6.99151
     2012.63518         5.88592         7.07068
     2012.63791         2.90944         7.03044
     2012.64065         3.79796         6.97074
     2012.64339         5.83148         6.95257
     2012.64613        10.57600         6.99021
     2012.64827         8.36098         9.16281
     2012.65160        13.22604         7.14855
     2012.65434        12.08856         7.56126
     2012.65708         9.61708         7.20565
     2012.65982         5.76260         7.20306
     2012.66256         4.66812         7.00319
     2012.66529         7.73264         6.99281
     2012.66803        -0.30784         7.07976
     2012.67077         4.18368         6.99151
     2012.67351         3.99520         7.02525
     2012.67624         7.48172         7.02006
     2012.67898         6.39724         6.92662
     2012.68172         4.77876         7.02395
     2012.68446         2.53128         6.98372
     2012.68720         6.82880         6.94479
     2012.68993         9.73032         6.98891
     2012.69267         1.56184         7.06289
     2012.69541         4.11536         6.95776
     2012.69815        -0.85012         7.12908
     2012.70089         2.15140         6.94219
     2012.70362        -0.62208         6.97853
     2012.70636         5.13844         7.00059
     2012.70910         0.33096         6.96555
     2012.71184         4.01448         6.94349
     2012.71457         4.40400         6.96296
     2012.71731         7.54352         6.94219
     2012.72005         6.32904         6.92013
     2012.72279         4.39256         7.01357
     2012.72553        10.05008         6.91883
     2012.72826        10.50960         7.17450
     2012.73100         3.76112         7.18229
     2012.73486         9.78167        17.64425
     2012.73648         3.84616         7.00449
     2012.73921         5.99968         7.09404
     2012.74195         4.83420         7.22642
     2012.74469         3.79972         7.04602
     2012.74743        11.06724         7.07717
     2012.75017        -0.50424         7.12129
     2012.75290         5.53928         7.24718
     2012.75564         2.49080         6.97334
     2012.75838         2.99632         7.09274
     2012.76112         4.86684         6.99670
     2012.76386         4.93636         7.05770
     2012.76659         5.97288         7.04861
     2012.76933         7.41240         6.99281
     2012.77207         8.19292         7.05121
     2012.77481         5.06144         6.88379
     2012.77754         3.11596         6.97464
     2012.78028         8.79648         7.02785
     2012.78302        14.46900         7.15633
     2012.78576         3.53252         7.05900
     2012.78850        23.14604         7.04212
     2012.79123        18.69356         7.22512
     2012.79397         3.69908         6.97723
     2012.79671         3.60160         7.30818
     2012.79945         3.28012         7.18099
     2012.80219        20.56364         7.04342
     2012.80492         3.66016         7.00059
     2012.80766         4.88968         7.00319
     2012.81040         5.57520         7.05251
     2012.81314        -1.99628         7.13946
     2012.81587        -4.72176         7.12648
     2012.81861        -2.00524         7.22382
     2012.82135        -7.42272         7.09534
     2012.82409        10.54480         7.39903
     2012.82683         3.69432         7.11221
     2012.82956        -2.47516         7.08885
     2012.83230         7.06436         7.13038
     2012.83504         7.95788         7.19138
     2012.83778         3.04340         7.08366
     2012.84052        11.07992         7.04991
     2012.84325         1.26744         7.18748
     2012.84599        -3.32204         7.25108
     2012.84873         1.09648         7.16282
     2013.42644        -5.51377         7.32376
     2013.42915         2.15772         7.24978
     2013.43189        -6.74876         7.27314
     2013.43463        -5.21624         7.07717
     2013.43737        -1.93572         7.16153
     2013.44410        -4.50452        27.76097
     2013.44558        -6.84416         7.37437
     2013.44832        -8.09164         7.10831
     2013.45106       -10.58412         7.06289
     2013.45379        -3.97460         7.13168
     2013.45653        -5.64808         7.31986
     2013.45927        -5.16856         7.19657
     2013.46201        -3.52904         7.14206
     2013.46475         5.30848         7.16412
