# ================= DQRFIT RESULTS ================
# INPUT FILE: series/SWNB.rad
# OUTPUT: LDETRENDED
# FILTER FUNCTION: f(t)
# f(t)=+line(t)+annual(t)
# line(t)=+P 1+P 2*t
# annual(t)=+P 3*sin(2*pi*t+P 4)
# heav(t)=(t<0?0:1)
# TOTAL OBSERVATIONS MTOT= 4004
# INITIAL TIME INTERVAL= 2022.7488 - 2011.6468 = 11.1020
# TOTAL OBSERVATIONS AFTER PREFILTER M= 3997
# TIME-SPAN= 2022.7488 - 2011.6468 = 11.1020
# OBSERVATIONS: USED M=  3997 REJECTED MTOT-M=     7 %USED=   99.8252
# N=  4 PARAMETERS
# MAXSIG= 175.00000
# MAXRES=  35.31072
# SCALE FACTOR FOR LENGTHS: SCL=  10.00000
# SCALE FACTOR FOR SIGMAS: SCLSIG=   1.00000
# CHI^2=   5931.202 DOF=  3993 CHI^2/DOF=   1.48540
# RMS=      6.600 SDEV=      6.601 MEAN=    0.05793
#  P #       PARAMETER +-    SIGMA %error PARAMETER NAME
# P 1 =      1287.92572 +-   65.700   5.10 YZERO                              
# P 2 =        -0.63847 +-    0.033   5.10 SLOPE                              
# P 3 =         5.36645 +-    0.146   2.73 ANNUAL AMPLITUDE                   
# P 4 =         2.90738 +-    0.037   1.29 ANNUAL PHASE                       
#       T            LDETRENDED       SIG_OBS
     2011.64681         6.53737         6.57161
     2011.64955        -0.48088         6.73248
     2011.65229        -4.36614         6.68495
     2011.65503         1.24361         6.59233
     2011.65776        -0.47464         6.51798
     2011.66050         5.08411         6.69105
     2011.66324        10.02786         6.62889
     2011.66598        -0.78840         6.65692
     2011.66872         0.03535         6.73980
     2011.67145        -1.61690         6.56308
     2011.67419         1.76885         6.56429
     2011.67693         8.12660         6.69470
     2011.67967         2.21934         6.62401
     2011.68240        -1.65091         6.62523
     2011.68514        -2.97616         6.62523
     2011.68788         5.18659         6.81658
     2011.69062         5.81434         6.62036
     2011.69336         0.58608         6.54845
     2011.69609         0.42483         6.63376
     2011.69883         4.73758         6.66423
     2011.70153         0.35130         6.67642
     2011.70431         4.45308         6.63742
     2011.70705         2.79182         6.69105
     2011.70978        -8.59043         6.60573
     2011.71252        -2.75368         6.57283
     2011.71526        -8.08393         6.78367
     2011.71800         2.09882         6.72030
     2011.72073         4.40656         6.55576
     2011.72347         3.19031         6.54358
     2011.72621         3.47806         6.51554
     2011.72895         8.52481         6.56186
     2011.73169         5.78456         6.68617
     2011.73442         2.02430         6.68861
     2011.73716         4.58205         6.65692
     2011.73990         6.92680         6.50457
     2011.74264         5.75755         6.48264
     2011.74538         3.36430         6.66180
     2011.74811        11.94804         6.64108
     2011.75085         4.88479         6.61792
     2011.75359         9.59454         6.54479
     2011.75633        17.46529         6.55454
     2011.75906        23.60304         6.62645
     2011.76180         7.11379         6.54114
     2011.76454        -5.82147         6.65205
     2011.76728         4.92428         6.57770
     2011.77002         0.17203         6.65448
     2011.77275        11.89178         6.92383
     2011.77549        10.65953         6.65814
     2011.77823        -3.23073         6.65326
     2011.78097         1.11902         6.67398
     2011.78371         6.17277         6.63986
     2011.78644         4.96352         6.60573
     2011.78918        17.83827         6.79342
     2011.79192        -0.04999         6.74345
     2011.79466        -3.72824         6.64473
     2011.79739         6.08951         6.68739
     2011.80013         7.29126         6.54723
     2011.80287        -1.78499         6.59476
     2011.80535        -7.28941         7.35406
     2011.80835        -1.88950         6.67764
     2011.81108         3.24825         6.80683
     2011.81347        -0.57322         7.73309
     2011.81656        -0.64425         6.55942
     2011.81930        -0.24251         6.57161
     2011.82203        -0.25776         6.58501
     2011.82477         7.94499         6.72030
     2011.82751         2.51974         6.63255
     2011.83025        10.54749         6.58379
     2011.83299        -2.19077         6.56917
     2011.83572        -3.67702         6.67886
     2011.83846        -1.14227         6.65692
     2011.84120         5.74748         6.59476
     2011.84394         5.59923         6.55333
     2011.84668         5.08497         6.70567
     2011.84941        -0.36828         6.57526
     2011.85215        -5.51753         6.58136
     2011.85489        -4.03578         6.71055
     2011.85763        -0.70403         6.72152
     2011.85909        25.20890        26.73250
     2011.86584        10.48921         6.64717
     2011.86858        -0.06104         6.66180
     2011.87132         8.17771         6.58379
     2011.87405         1.62745         6.61548
     2011.87679         9.29320         6.61914
     2011.87953         4.45895         6.68008
     2011.88227         5.10770         6.64961
     2011.88501         8.46045         6.61548
     2011.88774         6.84019         6.60086
     2011.89048        15.83494         6.65326
     2011.89322         7.74869         6.66301
     2011.89596         7.33244         6.59720
     2011.89869        -0.16681         6.68739
     2011.90143        -1.26507         6.59598
     2011.90417         2.12468         6.67886
     2011.90691         3.62143         6.56429
     2011.90965         2.48618         6.61548
     2011.91238         2.35193         6.78855
     2011.91512         4.70067         6.66301
     2011.91786         6.24542         6.78733
     2011.92060        -3.35283         6.70323
     2011.92334        -4.97508         6.70080
     2011.92607        -4.56233         6.73614
     2011.92881        -0.28859         6.79708
     2011.93155         3.94816         6.72883
     2011.93429         0.39891         6.72517
     2011.93702         2.97066         6.63986
     2011.93976         5.16241         6.57404
     2011.94250         5.76916         6.60695
     2011.94524         4.98190         6.58623
     2011.94798         6.73065         6.55333
     2011.95071         4.11540         6.55211
     2011.95345         5.48815         6.65083
     2011.95619         3.40190         6.68252
     2011.95893         1.18564         6.66180
     2011.96167         8.65139         6.69714
     2011.96440         5.92114         6.56673
     2011.96714         1.29089         6.52529
     2011.96988         6.26864         6.50823
     2011.97262         0.35738         6.60330
     2011.97535         1.32513         6.60208
     2011.97809        -1.00512         6.60330
     2011.98083         3.59063         6.50457
     2011.98631         7.20212         6.53139
     2011.98904        19.64887         6.68252
     2011.99178        22.79762         6.58136
     2011.99452        16.13837         6.52773
     2011.99726         7.58612         6.55942
     2012.00273         5.45661         6.54845
     2012.00547         1.82336         6.57039
     2012.00821         6.21411         6.51920
     2012.01095         6.59186         6.57648
     2012.01368         7.70860         6.56551
     2012.01642         9.19835         6.57039
     2012.01916         5.84810         6.55576
     2012.02190         7.44485         6.53017
     2012.02464         9.24460         6.55942
     2012.02737         4.10034         6.54601
     2012.03011         4.19409         6.58745
     2012.03285         2.11484         6.58136
     2012.03559         9.62759         6.65692
     2012.03833         5.58734         6.53748
     2012.04106         7.66808         6.57039
     2012.04380         3.10783         6.54967
     2012.04654        13.55858         6.62523
     2012.05201        23.56608         6.65083
     2012.05749         8.76857         6.54479
     2012.06023         9.85732         6.71420
     2012.06297         7.25807         6.64595
     2012.06570         6.49382         6.64473
     2012.06844        10.65756         6.70567
     2012.07118        -2.67569         6.57526
     2012.07392        -1.38394         6.58379
     2012.07666         5.63581         6.64230
     2012.07939         6.70056         6.59720
     2012.08213         5.12230         6.57404
     2012.08486         5.74405         6.63498
     2012.08761        -1.28520         6.63255
     2012.09034        -1.34145         6.63011
     2012.09308         0.94430         6.58014
     2012.09582        -0.48696         6.57526
     2012.09856         2.14779         6.62645
     2012.10130        -1.95946         6.76905
     2012.10403         9.63029         6.67398
     2012.10677         1.80504         6.73127
     2012.10951         2.27879         6.72639
     2012.11225         3.70853         6.68983
     2012.11498         0.79828         6.67642
     2012.11772         1.69103         6.69470
     2012.12046         6.81178         6.69836
     2012.12320         1.76553         6.68983
     2012.12594         0.13927         6.55942
     2012.12867        -1.48698         6.61914
     2012.13141        -3.04323         6.64839
     2012.13415         2.71652         6.59964
     2012.13689         4.62427         6.63133
     2012.13963         3.39401         6.68861
     2012.14236         0.87676         6.77758
     2012.14510         5.18951         6.73614
     2012.14784        -3.72574         6.63498
     2012.15058         8.69001         6.59964
     2012.15331         4.81675         6.60817
     2012.15605         2.02350         6.68252
     2012.15879         1.65725         6.75808
     2012.16153         1.67600         6.62523
     2012.16427         0.28775         6.71055
     2012.16700        -1.17251         6.71420
     2012.16974        -5.22376         6.59354
     2012.17248        -5.36201         6.57892
     2012.17522        -1.49626         6.65326
     2012.17796         4.08849         6.69592
     2012.18069        -0.73077         6.62401
     2012.18343        -5.26002         6.65448
     2012.18617        -5.67227         6.61792
     2012.18891        -0.46952         6.68495
     2012.19164         4.01723         6.66545
     2012.19438         7.77097         6.67398
     2012.19712         6.29372         6.65570
     2012.19986         1.98347         6.71420
     2012.20260         7.38222         6.65326
     2012.20533         9.40297         6.66667
     2012.20807        14.68071         6.56186
     2012.21081         1.20346         6.44851
     2012.21355        -1.79579         6.43389
     2012.21629         1.11196         6.44607
     2012.21902         1.55271         6.44486
     2012.22176        -5.50155         6.63133
     2012.22450       -10.14980         6.57526
     2012.22724        -2.75505         6.63255
     2012.22997        -3.03530         6.66058
     2012.23271         0.95345         6.66789
     2012.23545         0.50719         6.51067
     2012.23819         4.20694         6.65814
     2012.24093         1.00369         6.43998
     2012.24366         6.99544         6.41682
     2012.24640        -1.52881         6.69470
     2012.24914         2.01493         6.68252
     2012.25188        -3.21732         6.56795
     2012.25462        -6.16057         6.61792
     2012.25735        -2.12582         6.58867
     2012.26009        -6.32807         6.63376
     2012.26252       -12.57652         7.63072
     2012.26557        -5.71158         6.60208
     2012.26830        -3.42283         6.55089
     2012.27104        -8.21308         6.81170
     2012.27378        -4.03333         6.59964
     2012.27652         3.70341         6.57404
     2012.27926         5.49916         6.81658
     2012.28199        -0.35509         6.57526
     2012.28473        -0.64134         6.64108
     2012.28747        -4.27459         6.63376
     2012.29021        -1.59284         6.57892
     2012.29295        -4.90510         6.59598
     2012.30116       -11.60585         6.66423
     2012.30390       -11.83310         6.39001
     2012.30663       -10.28736         6.41317
     2012.30937        -3.18361         6.39976
     2012.31211         7.32214         6.85071
     2012.31485        -2.39211         6.69714
     2012.31759         4.47564         6.55211
     2012.32032        -6.15662         6.62158
     2012.32306        -8.18887         6.45826
     2012.32580        -9.23912         6.45704
     2012.32854        -1.49537         6.52895
     2012.33128        -3.44562         6.62036
     2012.33401        -0.61288         6.63133
     2012.33675         6.87687         6.49361
     2012.33949        -5.38838         6.48386
     2012.34223       -10.16663         6.43145
     2012.34496        -7.99988         6.47411
     2012.34770        -8.02414         6.59476
     2012.35044        -6.76039         6.47654
     2012.35318        -9.82064         6.39489
     2012.35592        -3.72489         6.46070
     2012.35865       -12.87714         6.46801
     2012.36139        -6.75240         6.47289
     2012.36413        -6.04065         6.46923
     2012.36687        -8.10490         6.37051
     2012.36961        -7.76315         6.39489
     2012.37234        -5.87840         6.41926
     2012.37508        -0.52366         6.48142
     2012.37782        -7.32191         6.58379
     2012.38056        -9.14416         6.46314
     2012.38329        -8.96441         6.55576
     2012.38603        -5.93466         6.60939
     2012.38877        -7.63792         6.68617
     2012.39151        -6.12817         6.59964
     2012.39425        -0.50642         6.54114
     2012.39698        -8.14667         6.60939
     2012.39972        -6.73492         6.49970
     2012.40246         0.52882         6.37539
     2012.40520        -9.19143         6.38879
     2012.40794        -7.73568         6.43754
     2012.41067        -6.38293         6.51311
     2012.41341        -9.92818         6.51554
     2012.41615        -3.81044         6.61670
     2012.41889         0.77131         6.64351
     2012.42162        -5.45394         6.52773
     2012.42436         4.51581         6.52773
     2012.42710        -4.87744         6.47776
     2012.42984        -6.24970         6.46070
     2012.43258        -2.49795         6.50823
     2012.43531        -3.47720         6.50214
     2012.43805        -6.17145         6.51920
     2012.44079       -12.85470         6.53017
     2012.44353        -8.33696         6.51676
     2012.44626        -4.93621         6.55942
     2012.44900        -7.69746         6.55698
     2012.45174        -4.92271         6.52651
     2012.45448        -4.21796         6.55576
     2012.45722        -4.57822         6.57770
     2012.45995        -2.24147         6.65814
     2012.46269        -2.73272         6.54358
     2012.46543        -7.86097         6.50092
     2012.46817        -4.33922         6.56186
     2012.47091        -8.36247         6.56673
     2012.47364        -1.68773         6.59720
     2012.47638         5.98702         6.59964
     2012.47912        -2.30423         6.53504
     2012.48186        -2.36948         6.51432
     2012.48459         4.97027         6.52408
     2012.48635       -23.32761        13.59294
     2012.49007        -1.06424         6.54845
     2012.49281         1.26251         6.52408
     2012.49555        -3.46274         6.57526
     2012.49828        -1.57299         6.52042
     2012.50102        -1.28725         6.56186
     2012.50376        -3.13550         6.54601
     2012.50650        -4.64175         6.52042
     2012.50924        -5.81500         6.61183
     2012.51197        -5.39625         6.62889
     2012.51471        -3.23851         6.63864
     2012.51745        -1.34176         6.67764
     2012.52019        -4.11901         6.77880
     2012.52292        -4.95526         6.54479
     2012.52566        -0.30851         6.48751
     2012.52840        -4.39777         6.52042
     2012.53114        -5.84202         6.58501
     2012.53388        -8.84527         6.63986
     2012.53661        -5.84052         6.53504
     2012.53935        -0.86077         6.49726
     2012.54209         2.28397         6.61914
     2012.54483         1.87772         6.62645
     2012.54757        -5.42153         6.56429
     2012.55030        -0.13678         6.53626
     2012.55304        -0.61803         6.47776
     2012.55578        -7.56929         6.58623
     2012.55852        -6.91454         6.47898
     2012.56125        -3.97379         6.48386
     2012.56399         0.67696         6.54967
     2012.56673        -1.50529         6.55820
     2012.56947        -0.27555         6.56064
     2012.57221        -0.27580         6.52529
     2012.57494        -1.57805         6.53870
     2012.57768        -6.89730         6.51798
     2012.58042         2.88945         6.52773
     2012.58316        -8.49481         6.46070
     2012.58590        -0.28906         6.56917
     2012.58863        -2.04831         6.55333
     2012.59137         0.33044         6.51311
     2012.59411         3.11719         6.54236
     2012.59685         7.52893         6.76417
     2012.59958         3.06568         6.55333
     2012.60232        -2.14657         6.95186
     2012.60506        -0.07682         6.53870
     2012.60780         0.44693         6.51554
     2012.61054         6.32267         6.49970
     2012.61327         5.76442         6.50336
     2012.61601         6.75417         6.54358
     2012.61875         4.84992         6.50701
     2012.62149         7.25067         6.50457
     2012.62423         5.44541         6.53504
     2012.62696         6.59516         6.58867
     2012.62970        -8.34109         6.68983
     2012.63244         4.83766         6.68739
     2012.63518         6.22741         6.58745
     2012.63791         4.00716         6.53383
     2012.64065         5.30690         6.52895
     2012.64339         3.99265         6.53504
     2012.64613         3.24540         6.55089
     2012.64887         6.18515         6.54845
     2012.65160        11.33490         6.57648
     2012.65434         3.24164         6.72883
     2012.65708         5.47839         6.72395
     2012.65982         5.64514         6.73005
     2012.66256        11.31789         6.52164
     2012.66529        13.51464         6.65326
     2012.66803         4.46638         6.60208
     2012.67077         6.73513         6.54236
     2012.67351         5.33188         6.56429
     2012.67624         6.32863         6.55820
     2012.67898         8.69638         6.46923
     2012.68172         5.79712         6.53504
     2012.68446        10.37887         6.56308
     2012.68720         8.09662         6.47654
     2012.68993         9.77937         6.51920
     2012.69267         5.75712         6.62401
     2012.69541         3.47786         6.47289
     2012.69815         3.84161         6.62401
     2012.70089         3.74736         6.47532
     2012.70362        -0.17389         6.54358
     2012.70636         3.74286         6.61183
     2012.70910        -0.56140         6.48507
     2012.71184         4.21935         6.50336
     2012.71457         6.60010         6.50945
     2012.71731         9.04285         6.52408
     2012.72005         9.16360         6.48142
     2012.72279         9.19634         6.45339
     2012.72553        12.24609         6.50336
     2012.72826        12.12084         6.70323
     2012.73100         7.00359         6.73005
     2012.73374         3.40634         6.63620
     2012.73648         7.97508         6.50457
