# ================= DQRFIT RESULTS ================
# INPUT FILE: series/TAHB.rad
# OUTPUT: LDETRENDED
# FILTER FUNCTION: f(t)
# f(t)=+line(t)+annual(t)
# line(t)=+P 1+P 2*t
# annual(t)=+P 3*sin(2*pi*t+P 4)
# heav(t)=(t<0?0:1)
# TOTAL OBSERVATIONS MTOT= 1204
# INITIAL TIME INTERVAL= 2022.7488 - 2019.4497 =  3.2991
# TOTAL OBSERVATIONS AFTER PREFILTER M= 1183
# TIME-SPAN= 2022.7488 - 2019.4497 =  3.2991
# OBSERVATIONS: USED M=  1183 REJECTED MTOT-M=    21 %USED=   98.2558
# N=  4 PARAMETERS
# MAXSIG= 175.00000
# MAXRES=  17.23655
# SCALE FACTOR FOR LENGTHS: SCL=  10.00000
# SCALE FACTOR FOR SIGMAS: SCLSIG=   1.00000
# CHI^2=   1446.586 DOF=  1179 CHI^2/DOF=   1.22696
# RMS=      6.191 SDEV=      6.193 MEAN=    0.01295
#  P #       PARAMETER +-    SIGMA %error PARAMETER NAME
# P 1 =     -6083.50856 +-  383.978   6.31 YZERO                              
# P 2 =         3.01978 +-    0.190   6.29 SLOPE                              
# P 3 =         4.85157 +-    0.257   5.31 ANNUAL AMPLITUDE                   
# P 4 =         2.86746 +-    0.072   2.52 ANNUAL PHASE                       
#       T            LDETRENDED       SIG_OBS
     2019.44969        -2.59083         6.25730
     2019.45243        -1.81410         6.18862
     2019.45516        -5.49137         6.23293
     2019.45790        -2.20664         6.18419
     2019.46064         4.31909         6.33262
     2019.46338        -3.93317         6.48105
     2019.46611        -1.59444         6.52646
     2019.46885         0.41529         6.41680
     2019.47159         2.42702         6.20081
     2019.47433         4.38676         6.22850
     2019.47707        -1.86951         6.19527
     2019.47980        -2.01478         6.19527
     2019.48254        -2.40805         6.25287
     2019.48525         2.22777         6.33151
     2019.48805         1.33032         6.26837
     2019.49076         0.89415         6.08007
     2019.49349        -0.49612         6.06456
     2019.49623        -1.31739         6.13213
     2019.49897        -4.39665         6.07121
     2019.50171         0.72708         6.06678
     2019.50444         1.99081         6.08561
     2019.50718         2.41354         6.08450
     2019.50992         4.00928         6.09447
     2019.51266        -3.09199         6.13988
     2019.51540         5.13174         6.10333
     2019.51813        -1.49153         6.10776
     2019.52087         5.16521         6.24179
     2019.52361         1.90394         6.12881
     2019.52635        -7.34333         6.16868
     2019.52908         7.46940         6.43342
     2019.53182        -0.12787         6.19970
     2019.53456        -6.98713         6.23736
     2019.53730         1.71760         6.27724
     2019.54004         8.10133         6.31157
     2019.54277        -1.53894         6.22850
     2019.54551         0.19380         6.36696
     2019.54825        -0.43447         6.06456
     2019.55099        -2.65674         6.10444
     2019.55373         1.75699         6.33373
     2019.55646         7.27373         6.23404
     2019.55920        -7.93254         6.35367
     2019.56194         2.61719         6.21078
     2019.56468        -3.96108         6.22517
     2019.56741         4.14265         6.23182
     2019.57015        -5.98161         6.02579
     2019.57289        -5.61588         6.22407
     2019.57563         7.10785         6.15318
     2019.57837         9.99158         6.24954
     2019.58110        10.57332         6.18308
     2019.58384         4.18205         6.52757
     2019.58658         2.99378         6.05459
     2019.58932         3.02251         6.09225
     2019.59206         1.52225         6.17201
     2019.59479        -4.58802         6.09447
     2019.59753        -0.03429         6.35256
     2019.60027         7.16944         6.26284
     2019.60301        -2.29283         6.07342
     2019.60574        -1.69509         6.32597
     2019.60848        -0.89036         6.33484
     2019.61122         5.15637         6.13434
     2019.61396         5.53410         6.34259
     2019.61670         3.79384         6.08893
     2019.61943         0.68057         6.08561
     2019.62217         2.30030         6.37139
     2019.62491         4.69103         6.15318
     2019.62765        10.39577         6.12216
     2019.63039         7.01650         6.11108
     2019.63312        -0.96477         6.16979
     2019.63586         7.75696         6.47330
     2019.63860         3.98769         6.14431
     2019.64134        -6.91957         6.40683
     2019.64407         6.01916         6.09004
     2019.64681         0.05589         6.08893
     2019.64955        -1.78638         6.08228
     2019.65229         4.74136         6.14099
     2019.65503        -3.06991         6.27059
     2019.65776        -3.27718         6.16979
     2019.66050         3.26255         6.18973
     2019.66324         9.32329         6.33373
     2019.66598         5.44702         6.16536
     2019.66872         2.87775         6.12659
     2019.67145        -5.61252         6.14431
     2019.67419         2.80021         6.09447
     2019.67693        -2.85005         6.18751
     2019.67967        -8.63732         6.25730
     2019.68240        -0.47459         6.14653
     2019.68514        -2.50786         6.06013
     2019.68788         5.68388         6.13988
     2019.69062         6.05861         6.14210
     2019.69336         4.63934         6.07675
     2019.69609        16.06007         6.34148
     2019.69883         8.81081         6.21964
     2019.70157        10.33154         6.46111
     2019.70431         3.87727         6.07010
     2019.70705        -0.95000         6.02801
     2019.70978        -4.45327         6.11884
     2019.71252        -6.73053         5.99256
     2019.71526         0.43020         6.11108
     2019.71800        -1.35507         6.31933
     2019.72073         2.65766         6.38579
     2019.72347         4.67040         6.15096
     2019.72621        -2.82587         6.15982
     2019.72895         4.18686         6.05902
     2019.73169         3.64359         6.10222
     2019.73442        12.00233         6.18419
     2019.73716         1.65706         6.07785
     2019.73990         5.16979         6.27724
     2019.74264        -3.63848         6.14099
     2019.74538        -5.04075         6.05570
     2019.74811        -1.86101         6.22850
     2019.75085         1.18672         6.20967
     2019.75359         4.47745         6.30382
     2019.75633         1.40918         6.18973
     2019.75906        -1.79508         6.02247
     2019.76180        -0.28735         6.10222
     2019.76454         4.88138         6.25176
     2019.76728        -2.96389         6.10222
     2019.77002         2.26785         6.09336
     2019.77275        -4.40142         6.57742
     2019.77549        -2.39169         6.21964
     2019.77823        -2.01396         6.12438
     2019.78097         3.87477         6.07010
     2019.78371        -0.73549         6.05681
     2019.78644        -1.09076         6.14321
     2019.78918        17.75297         6.18419
     2019.79192        15.63670         6.29496
     2019.79466        11.55344         6.15871
     2019.79739         9.03817         6.08118
     2019.80013        12.70490         6.14653
     2019.80287        10.65763         6.13878
     2019.80561         6.33537         6.15096
     2019.80835        -1.99390         6.13767
     2019.81108         6.44083         6.25287
     2019.81382         8.94056         6.30271
     2019.81656         4.05229         6.07675
     2019.81930        -2.80997         6.07453
     2019.82203         0.82576         6.11441
     2019.82477        -5.15251         6.07564
     2019.82751        -3.12278         6.09558
     2019.83025         0.46596         6.20413
     2019.83299         2.96369         6.20856
     2019.83572        -1.13858         6.07231
     2019.83846         0.60215         6.13434
     2019.84120         0.13489         6.06235
     2019.84394         5.31362         6.28167
     2019.84668        -6.67965         6.05127
     2019.84941        -2.07192         6.09668
     2019.85215         3.62481         6.20081
     2019.85489         2.28655         6.14099
     2019.85763         3.57828         6.06013
     2019.86036         1.82701         6.11219
     2019.86310         1.18074         6.19527
     2019.86584        11.04848         6.17533
     2019.86858         0.88721         6.18087
     2019.87132        10.39294         6.20413
     2019.87405        11.78467         6.08007
     2019.87679         1.27041         6.31268
     2019.87953        14.69214         6.16979
     2019.88227         5.97287         6.07453
     2019.88501        10.16060         6.17422
     2019.88774         6.02833         6.30825
     2019.89048         3.94607         6.18087
     2019.89322        15.40280         6.12659
     2019.89596         4.24953         6.18419
     2019.89869        10.96126         6.04795
     2019.90143         4.11900         6.04905
     2019.90417        -0.22127         6.12327
     2019.90691         7.57446         6.11108
     2019.90965        -1.28881         6.09004
     2019.91238         1.05593         6.06345
     2019.91512         6.14766         6.11995
     2019.91786        12.16939         6.13324
     2019.92060        12.17212         6.11441
     2019.92334         9.26085         6.21299
     2019.92607         1.11759         6.13545
     2019.92881         7.60432         6.17422
     2019.93155        12.53805         6.15539
     2019.93429         7.08378         6.13324
     2019.93702         5.45152         6.14985
     2019.93976         8.91625         6.20191
     2019.94250        11.15498         6.16536
     2019.94524         4.87771         6.14985
     2019.94798         0.46445         6.16758
     2019.95071         5.56118         6.45114
     2019.95345         6.90991         6.11884
     2019.95619         8.44464         6.17644
     2019.95893         2.98537         6.16868
     2019.96167        11.95111         6.19748
     2019.96440         9.89584         6.34591
     2019.96714         7.85657         6.30714
     2019.96988        -1.84170         6.21742
     2019.97262        -5.38796         6.18530
     2019.97535        -2.39023         6.11662
     2019.97809        -6.08350         6.13102
     2019.98083        -2.80777         6.09779
     2019.98357        -7.07004         6.14431
     2019.98631         4.26270         6.18530
     2019.98904         4.96443         6.13434
     2019.99178        14.18916         6.21410
     2019.99452         9.91489         6.11884
     2020.00000        17.07836         6.12659
     2020.00273        -3.14391         6.03133
     2020.00547         6.18782         6.30271
     2020.00821        -3.68144         6.27502
     2020.01095        -6.16671         6.21299
     2020.01368        -4.77298         6.19194
     2020.01642         3.63075         6.25508
     2020.01916        -1.77952         6.13767
     2020.02190        -4.87378         6.17976
     2020.02464       -19.99105         6.21964
     2020.02737       -10.65932         6.06456
     2020.04928         5.07354         5.98370
     2020.05201        -4.66773         6.07785
     2020.05475        -8.59600         5.97927
     2020.05749         0.12774         6.01915
     2020.06023         1.51047         6.02579
     2020.06297         3.67020         6.04573
     2020.06570         6.56393         6.02358
     2020.06844         0.34167         6.04905
     2020.07118         3.66840         6.01804
     2020.07392         1.15213         5.99810
     2020.07666         1.09686         6.04130
     2020.07939         3.24060         6.03355
     2020.08213         2.68533         6.03355
     2020.08487        -3.99694         6.06345
     2020.08761       -18.00321         5.98592
     2020.09034         2.90352         5.96930
     2020.09308       -22.02674         6.02912
     2020.09582         8.10199         6.01250
     2020.09856         6.43872         6.02358
     2020.10130        -0.71755         6.05902
     2020.10403        -3.66381         6.03465
     2020.10677        -2.18408         6.03908
     2020.10951        -2.21335         6.02468
     2020.11225        10.48438         6.05238
     2020.11498         3.34912         6.00696
     2020.11772       -12.56315         6.20081
     2020.12046       -11.15742         6.18973
     2020.12320       -10.79769         6.00253
     2020.12594        -6.81896         5.97262
     2020.12867        -6.03122         6.03022
     2020.13141        -5.20949         6.00142
     2020.13415        -7.11576         6.03576
     2020.13689        -5.01203         6.11330
     2020.13963         0.94771         6.09336
     2020.14236         3.09744         6.03465
     2020.14510       -18.53083         6.08782
     2020.14784       -11.11410         6.02690
     2020.15058        -3.60136         6.03908
     2020.15331         1.69837         6.05681
     2020.15605        -0.91890         5.99810
     2020.15879        -7.00817         5.98592
     2020.16153        -5.15644         6.08118
     2020.16427         0.42230         6.00807
     2020.16700        -7.36997         6.12438
     2020.16974         3.74476         6.09668
     2020.17248        -0.16151         6.03465
     2020.17796        -9.29504         6.06788
     2020.18069       -19.25031         6.01139
     2020.18343        -3.81358         5.99810
     2020.18617        -4.98284         6.05681
     2020.19164        -3.59838         6.00364
     2020.19438        -6.10765         6.07564
     2020.19712        -5.54392         6.08893
     2020.19986        -7.41718         6.06456
     2020.20260        -9.86745         6.01693
     2020.20533        -4.84672         6.02468
     2020.20807        -5.18899         6.08118
     2020.21081        -7.23925         6.08782
     2020.21355        -1.85152         6.69594
     2020.21629        -3.45979         6.41127
     2020.21902        -7.20006         6.13656
     2020.22176        -3.50032         6.07453
     2020.22450       -14.92059         6.11219
     2020.22724        -7.03186         6.13545
     2020.22997        -6.12413         6.04573
     2020.23271         0.63760         6.05570
     2020.23545         2.76534         6.15318
     2020.23819         4.01207         6.08450
     2020.24093        -1.16620         6.11219
     2020.24366       -29.38047         6.13878
     2020.24640       -23.26573         6.17311
     2020.24914        -7.86900         6.02912
     2020.25188        -3.71127         6.13767
     2020.25462        -3.49054         6.17090
     2020.25735        -4.39980         6.08007
     2020.26009         2.39293         6.05570
     2020.26283        -2.79534         6.02579
     2020.26557       -11.91561         6.05016
     2020.26830        -4.91388         6.07231
     2020.27104        -6.09814         6.11773
     2020.27378        -5.40641         6.06788
     2020.27652        -7.78468         6.03133
     2020.27926        -2.32995         6.14210
     2020.28199        -2.80821         6.21853
     2020.28473        -8.62548         6.12438
     2020.28747         1.06225         6.26062
     2020.29021        -3.43802         6.06013
     2020.29295        -2.64928         6.10111
     2020.29568        -2.62655         6.03908
     2020.29842         2.19418         6.08228
     2020.30116         3.67291         6.06788
     2020.30390         3.60964         6.10001
     2020.30663         4.93538         6.12438
     2020.30937         1.52311         6.22517
     2020.31211        -6.29716         6.26173
     2020.31485         1.77757         6.19416
     2020.31759        -0.08869         6.05459
     2020.32032         5.82804         6.04795
     2020.32306         2.71677         6.06345
     2020.32580        -0.89750         6.09447
     2020.32854         4.24224         6.04795
     2020.33128         8.26797         6.03908
     2020.33401        -2.07630         6.04351
     2020.33675        12.56243         6.10887
     2020.33949         9.19416         6.06788
     2020.34223        -3.30010         6.25287
     2020.34496        -0.60637         6.08450
     2020.34770        -7.79864         5.97705
     2020.35044        -5.17491         6.06899
     2020.35318        -2.28917         6.11219
     2020.35592        -3.32344         6.11995
     2020.35865         0.24329         6.01582
     2020.36139         3.87202         6.04130
     2020.36413         3.72676         5.97152
     2020.36687         2.06749         6.09779
     2020.36961         2.14722         6.11551
     2020.37234         1.69295         6.05016
     2020.37508         4.41468         6.05238
     2020.37782         5.63242         6.05681
     2020.38056        -6.91685         6.04462
     2020.38329        -3.84512         6.10998
     2020.38603        -0.93639         6.04905
     2020.38877        -3.01565         6.14874
     2020.39151        -3.12092         6.03687
     2020.39425        10.37281         6.08118
     2020.39698         2.18254         6.04241
     2020.39972        -0.67372         5.97705
     2020.40246         0.68301         6.01361
     2020.40520        -7.72726         6.23736
     2020.40794        -3.57153         6.09447
     2020.41067        -2.66980         6.02136
     2020.41341        -1.83906         6.02247
     2020.41615        -4.04233         6.03133
     2020.41889        -0.35460         6.05681
     2020.42162         0.26413         6.05016
     2020.42436        -1.93213         6.27059
     2020.42710        -7.89040         6.32708
     2020.42984         3.65733         6.10001
     2020.43258         2.80406         6.06124
     2020.43531        -2.83420         6.03465
     2020.43805         0.43153         6.05348
     2020.44079         7.44126         6.18419
     2020.44353         5.98899         6.24511
     2020.44626        -2.40028         6.14985
     2020.44900         4.78946         6.12548
     2020.45174         3.92319         6.12105
     2020.45448         2.70192         6.14210
     2020.45722         4.04165         6.17090
     2020.45995        -2.26961         6.13878
     2020.46269        -7.17988         6.11441
     2020.46543        -1.67715         6.13656
     2020.46817         9.17458         6.17644
     2020.47091         6.77132         6.15982
     2020.47364         0.54505         6.15096
     2020.47638        11.53178         6.23625
     2020.47912         7.83051         6.27613
     2020.48186        -2.02076         6.16868
     2020.48459        -8.52002         6.47440
     2020.48733        -4.16329         6.29717
     2020.49007        -1.41356         6.27834
     2020.49281        -0.59983         6.34591
     2020.49555        -1.52009         6.26948
     2020.49828        -0.14436         6.13102
     2020.50102        -3.41063         6.13988
     2020.50376        -1.80090         6.13988
     2020.50650        -3.19116         6.07010
     2020.50924        -7.36343         6.09779
     2020.51197        -4.21070         6.16758
     2020.51471        -2.61597         6.16204
     2020.51745         2.08176         6.15650
     2020.52019         4.44150         6.29496
     2020.52292         6.94023         6.11995
     2020.52566        -3.26004         6.14985
     2020.52840         2.91469         6.19194
     2020.53114        -2.33157         6.08118
     2020.53388        -1.59784         6.12548
     2020.53661        -1.12211         6.28499
     2020.53935         2.42962         6.34924
     2020.54209         6.09436         6.12659
     2020.54483         3.72409         6.13988
     2020.54757        -4.19918         6.10001
