# ================= DQRFIT RESULTS ================
# INPUT FILE: series/TAY1.rad
# OUTPUT: LDETRENDED
# FILTER FUNCTION: f(t)
# f(t)=+line(t)+annual(t)
# line(t)=+P 1+P 2*t
# annual(t)=+P 3*sin(2*pi*t+P 4)
# heav(t)=(t<0?0:1)
# TOTAL OBSERVATIONS MTOT= 1668
# INITIAL TIME INTERVAL= 2011.6030 - 2006.6010 =  5.0021
# TOTAL OBSERVATIONS AFTER PREFILTER M= 1666
# TIME-SPAN= 2011.6030 - 2006.6010 =  5.0021
# OBSERVATIONS: USED M=  1666 REJECTED MTOT-M=     2 %USED=   99.8801
# N=  4 PARAMETERS
# MAXSIG= 175.00000
# MAXRES=  33.77061
# SCALE FACTOR FOR LENGTHS: SCL=  10.00000
# SCALE FACTOR FOR SIGMAS: SCLSIG=   1.00000
# CHI^2=   1868.170 DOF=  1662 CHI^2/DOF=   1.12405
# RMS=      6.962 SDEV=      6.964 MEAN=   -0.01900
#  P #       PARAMETER +-    SIGMA %error PARAMETER NAME
# P 1 =      1183.64272 +-  231.228  19.54 YZERO                              
# P 2 =        -0.58793 +-    0.115  19.57 SLOPE                              
# P 3 =         2.15276 +-    0.233  10.82 ANNUAL AMPLITUDE                   
# P 4 =         3.12832 +-    0.153   4.89 ANNUAL PHASE                       
#       T            LDETRENDED       SIG_OBS
     2006.60095         2.83115         6.52454
     2006.60369         0.38576         6.61042
     2006.60643         6.79537         6.34855
     2006.60917        -0.98502         6.50440
     2006.61190         2.22159         6.61042
     2006.61464         7.18420         6.49380
     2006.61738         2.88281         6.47153
     2006.62012        -1.16359         6.69418
     2006.62286         5.45902         6.45033
     2006.62559         6.98663         6.58392
     2006.75975         3.30751         6.69100
     2006.76249         1.61612         6.62420
     2006.76522         7.71973         6.68994
     2006.76796        -2.61666         6.73659
     2006.77070         7.65795         6.53939
     2006.77344         1.03556         6.56483
     2006.77618         4.80517         6.66767
     2006.77891         9.06478         6.49910
     2006.78165         5.69239         6.47365
     2006.78439         1.88400         6.44503
     2006.78713         1.45060         6.78748
     2006.78987         8.29821         6.58180
     2006.79260        -1.34718         6.53197
     2006.79534         0.40543         6.46623
     2006.79808         3.12004         6.49168
     2006.80082        -1.69835         6.93803
     2006.80355        -1.58174         6.45245
     2006.80629        -2.35513         6.59876
     2006.80903         4.68348         6.38672
     2006.81177        -4.44991         6.72174
     2006.81451        -7.60230         6.92743
     2006.81724         5.28531         6.68888
     2006.81998        -3.01508         6.51500
     2006.82272        -4.59847         6.64223
     2006.82546         2.12014         6.56059
     2006.82820         1.88275         6.67828
     2006.83093        -4.50164         6.63269
     2006.83367         4.34797         6.56377
     2006.83641         3.46058         6.57331
     2006.83915         7.77619         6.88714
     2006.84188        -6.65020         6.79702
     2006.84462        -2.51859         6.72492
     2006.84736        -2.80698         6.66343
     2006.85010         3.61463         6.61148
     2006.85284         8.07224         6.81186
     2006.85557         7.77585         6.73553
     2006.85831         2.53946         6.85215
     2006.86105         2.41007         6.86699
     2006.86379        -7.12532         7.06207
     2006.86653         8.36129         6.96241
     2006.86926         0.89889         6.55635
     2006.87200         1.30150         6.81292
     2006.87474        11.15011         6.73977
     2006.87748         5.57672         6.76309
     2006.88021         0.73533         6.58180
     2006.88295        -2.01106         6.62314
     2006.88569        10.10255         6.85745
     2006.88843        -7.07784         6.87654
     2006.89117       -10.57723         6.68570
     2006.89390       -11.94362         6.78324
     2006.89664        -5.23501         6.76521
     2006.89938        -4.24740         6.55317
     2006.90212        -3.45479         6.60830
     2006.90485         8.93882         6.65707
     2006.90759         7.29843         6.44503
     2006.91033         0.48104         6.40898
     2006.91295         5.09058         6.64329
     2006.91581         0.41326         6.44079
     2006.91854        -9.48013         6.61784
     2006.92128        -4.20152         6.43867
     2006.92402        -6.47691         6.48956
     2006.92676        -1.24130         6.37505
     2006.92950        -3.80069         6.62739
     2006.93223        -2.52208         6.44185
     2006.93497        -1.76047         6.82246
     2006.93771         7.15614         6.59134
     2006.94045         8.13075         6.48532
     2006.94318         7.21136         6.57119
     2006.94592         2.88597         6.69206
     2006.94866        -4.77542         6.69418
     2006.95140         5.48918         6.55423
     2006.95414         7.32179         7.12781
     2006.95687         0.58940         6.70160
     2006.95961         2.38501         6.56907
     2006.96235        -1.33138         6.62527
     2006.96509         2.62223         6.75885
     2006.96783        -0.24016         6.78430
     2006.97056         2.31045         6.81504
     2006.97330        -2.14994         6.65495
     2006.97604        -2.03233         6.57862
     2006.97878         2.38828         6.69948
     2006.98151         8.39189         6.62845
     2006.98425         0.19250         6.84049
     2006.98699         3.72611         6.86275
     2006.98973        -7.66028         6.68676
     2006.99794       -12.68445         6.77263
     2007.00342        -0.32023         6.75143
     2007.00616       -10.78662         6.95393
     2007.00889         5.92199         6.97620
     2007.01163        -1.08540         6.61254
     2007.01437         4.77121         6.57968
     2007.01711       -11.75418         6.43761
     2007.01984       -14.68457         6.97514
     2007.02258        -2.44796         6.74295
     2007.02504         5.65048         7.86783
     2007.05544       -11.88065         6.28918
     2007.05817        -9.84304         6.28176
     2007.06091        -4.34643         6.35385
     2007.06365        -7.90682         6.32629
     2007.06639        -6.33621         6.54575
     2007.06913       -10.97760         6.28494
     2007.07186       -13.24799         6.23935
     2007.07460        -7.81638         6.47578
     2007.07734        -6.96977         6.37930
     2007.08008        -5.59016         6.49804
     2007.08282       -13.20555         6.38990
     2007.08555       -16.57594         6.54681
     2007.08829        -6.15133         6.27964
     2007.09103         2.71228         6.39414
     2007.09377        -3.59411         6.71114
     2007.09650        -6.51150         6.67297
     2007.09924        -5.66689         6.43973
     2007.10198        -6.62928         6.38990
     2007.10472        -9.01467         6.70690
     2007.10746         1.45794         6.63693
     2007.11019         4.29655         6.55105
     2007.11293        -0.41884         6.56695
     2007.11567         1.31777         6.40898
     2007.11841        -2.77063         6.42595
     2007.12115        -0.68902         6.36021
     2007.12388        -0.03041         6.52136
     2007.12662        -3.63880         6.73023
     2007.12936        -1.67119         6.69206
     2007.13210        -5.58758         6.74189
     2007.13466        -0.02907         6.93697
     2007.13757        12.36064         6.49062
     2007.14031         4.09125         6.55529
     2007.14305         0.07686         6.48214
     2007.14579         4.59147         6.33053
     2007.14852         4.11008         6.42913
     2007.15126        -0.42831         6.51712
     2007.15400         8.60130         6.44291
     2007.15674        13.85991         6.69524
     2007.15948        11.49652         6.51500
     2007.16221         3.61713         6.78642
     2007.16495         8.59874         6.72068
     2007.16769         4.08635         6.65707
     2007.17043         1.41996         6.66343
     2007.17316         4.51957         6.53515
     2007.17590         0.85018         6.86275
     2007.17864         8.88979         6.61360
     2007.18138         5.09340         6.66873
     2007.18412         4.40301         6.65919
     2007.18685         7.51062         6.48002
     2007.18959        -3.97577         6.62951
     2007.19233        -7.70316         6.73447
     2007.19507        -3.26855         6.69948
     2007.19780         1.43706         6.50228
     2007.20054         2.70366         6.57331
     2007.20328        -9.34473         6.53197
     2007.20602        -0.77912         6.41640
     2007.20876         3.62249         6.59664
     2007.21149         1.30410         6.57437
     2007.21423        -1.88629         6.58074
     2007.21697         0.00732         6.45457
     2007.21971         1.96193         6.85427
     2007.22245         0.38854         6.69736
     2007.22518         6.06615         6.56165
     2007.22792         8.23576         6.77369
     2007.23066         7.49837         6.56801
     2007.23340         2.24798         6.70478
     2007.23613        -6.80841         6.85851
     2007.23887        -7.50180         6.63375
     2007.24161         0.67281         6.87017
     2007.24435         6.52742         6.78960
     2007.24709         4.76203         6.62951
     2007.24982        -5.24936         6.60936
     2007.25256       -11.94975         6.54363
     2007.25530        -7.72114         6.63799
     2007.25804         0.45747         6.75143
     2007.26078         7.03508         6.83201
     2007.26351         3.56669         6.63375
     2007.26625         4.79030         6.47471
     2007.26899         7.98191         6.71644
     2007.27173        -4.92748         6.83095
     2007.27446         7.51613         6.57650
     2007.27720         6.21074         6.64011
     2007.27994         2.52635         6.71750
     2007.28268         4.96395         6.84685
     2007.28542         4.94756         6.67828
     2007.31559        -2.81970         6.83095
     2007.31827        -5.49512         6.82352
     2007.32101         2.16049         7.00482
     2007.32375         3.85610         6.76627
     2007.32648        -0.61329         6.55105
     2007.32922        -9.01068         6.73447
     2007.33196         0.33393         7.00164
     2007.33470        -4.26846         6.90940
     2007.33744         1.55015         6.80656
     2007.34017       -12.35924         6.88184
     2007.34291       -13.88063         6.55317
     2007.34565        -8.96302         6.80974
     2007.34839        -0.33041         6.66661
     2007.35112         5.26220         6.99316
     2007.35386        -0.25819         7.64837
     2007.35660        -7.31858         7.16067
     2007.35934        -5.20797         6.71538
     2007.36208         4.54864         6.83943
     2007.36481        -2.21776         6.89350
     2007.36755        -4.69915         6.74401
     2007.37029        -2.01054         6.81080
     2007.37303        -6.52593         6.80868
     2007.37577         2.29968         6.91682
     2007.37850        -7.14771         7.06313
     2007.38124        -9.52010         6.80762
     2007.38398       -13.35149         7.03345
     2007.38672         6.98312         6.77900
     2007.38945        -7.98727         6.70266
     2007.39219        -2.66766         6.83201
     2007.39493        -2.90005         6.89774
     2007.39767        -6.77344         6.84155
     2007.40041        -3.65483         6.67828
     2007.40314        -1.10622         6.80762
     2007.40588        -8.42961         7.08540
     2007.40856        -1.24203         7.01648
     2007.41136       -14.35739         6.80126
     2007.41410       -14.53978         6.89244
     2007.41683       -12.81717         7.13311
     2007.41957         0.86044         6.75037
     2007.42231        -8.51795         7.14583
     2007.42505        -3.19334         6.94545
     2007.42778         1.67027         6.66237
     2007.43052        -5.72312         6.81186
     2007.43326        -2.16651         6.71538
     2007.43600        -3.69690         6.78960
     2007.43874        -3.27329         6.91894
     2007.44147         0.30632         6.90728
     2007.44421        -9.84007         7.08964
     2007.44695        -5.82547         6.87760
     2007.44969       -11.00886         6.65283
     2007.45243        -9.46825         6.92424
     2007.45516        -9.34964         7.03451
     2007.45790         0.94697         6.57225
     2007.46064       -12.73742         6.83307
     2007.46338        -2.32881         6.68464
     2007.46611         0.47480         6.99528
     2007.46885        15.50741         6.76521
     2007.47159         3.55802         6.81928
     2007.47433         2.58663         6.69418
     2007.47707         0.11824         6.77263
     2007.47980       -10.02415         6.80232
     2007.48254       -10.52654         6.89456
     2007.48528         0.29207         6.70372
     2007.48802        -3.63332         6.85851
     2007.49076         2.63829         6.73341
     2007.49349       -10.44310         6.68040
     2007.49623        -3.28449         6.84367
     2007.49897        -1.72388         6.79596
     2007.50171        -4.57427         6.75885
     2007.50444        -6.93566         6.70584
     2007.50718         3.63995         6.80762
     2007.50992        -5.01744         6.80232
     2007.51266        -4.61283         6.72492
     2007.51540        -0.54522         6.70160
     2007.51813        -9.50161         6.74083
     2007.52087       -10.87600         6.72386
     2007.52350        -6.73346         7.18930
     2007.52635       -10.37178         6.76945
     2007.52908        -0.25618         6.80550
     2007.53182        -8.37457         6.64435
     2007.53456        -5.25396         7.20414
     2007.53730        -7.85135         6.77475
     2007.54004        -8.14174         6.92106
     2007.54277        -0.63713         6.80338
     2007.54551        -3.82052         6.80974
     2007.54825         3.81909         6.99316
     2007.55099        -3.25430         6.76097
     2007.55373        -0.02769         6.65601
     2007.55646         3.01092         6.67191
     2007.55920         3.98453         6.92531
     2007.56194        -0.92986         6.69100
     2007.56468         3.24375         6.78430
     2007.56741        -4.95764         6.64117
     2007.57015        -2.48303         6.69100
     2007.57289         1.45558         6.80126
     2007.57563         4.81219         6.82352
     2007.57837        -4.65520         6.76627
     2007.58110        -4.68459         6.64011
     2007.58384         0.81902         6.55317
     2007.58658         0.33863         7.12887
     2007.58932         0.19424         6.82989
     2007.59206        11.46185         6.67509
     2007.59479         0.48646         6.84579
     2007.59753        -6.11093         6.73871
     2007.60027        -0.53232         6.66343
     2007.60301        -4.28371         6.75779
     2007.60574         2.85790         6.82989
     2007.60848         4.10751         6.57437
     2007.61122        -2.45788         6.44821
     2007.61396        -6.10228         6.60936
     2007.61670         2.27733         7.05041
     2007.61943         1.82394         6.92955
     2007.62217        10.13955         7.08010
     2007.62491        -1.38784         6.88078
     2007.62765         4.78077         6.99422
     2007.63039        11.15838         6.88926
     2007.63312         4.29599         6.82352
     2007.63586         0.95760         6.65495
     2007.63860        -9.90379         6.76627
     2007.64134         4.56582         6.68570
     2007.64407         1.35143         6.87760
     2007.64681         4.34904         6.89350
     2007.64955         8.95765         7.03027
     2007.65229         1.00026         6.99634
     2007.65503        -6.50313         7.01012
     2007.65776        -2.94452         7.36105
     2007.66050         1.73709         6.83943
     2007.66324        -6.29030         6.87866
     2007.66598         4.68431         6.81822
     2007.66872        -5.23008         6.68464
     2007.67145         8.21153         6.86805
     2007.67419        11.92414         6.81716
     2007.67687        -2.23529         7.06737
     2007.67967         6.65336         6.76733
     2007.68240         5.59397         6.78642
     2007.68514        -4.10942         6.90516
     2007.68788         4.24419         6.77051
     2007.69062         5.33880         6.79066
     2007.69336         3.18141         6.48532
     2007.69609         1.46701         6.61042
     2007.69883        -8.11938         6.92849
     2007.70157        -6.16077         6.87123
     2007.70431        14.62884         6.76627
     2007.70705        -1.23855         7.05253
     2007.70978        10.78406         6.73765
     2007.71252         1.91967         6.64541
     2007.71526         6.70828         6.55529
     2007.71800        12.93589         6.45669
     2007.72073        19.07150         6.55529
     2007.72347        17.17711         6.77900
     2007.72621         6.54372         6.75461
     2007.72895        11.59233         6.43549
     2007.73169         4.82394         6.57437
     2007.73442         2.00855         6.56377
     2007.73716         9.20616         6.65071
     2007.73990         5.80177         6.59028
     2007.74264         8.98638         6.60830
     2007.74538         9.38699         6.84897
     2007.74811         3.45660         6.73129
     2007.75085         5.99821         6.84367
     2007.75359        16.34482         6.88184
     2007.75633        10.49043         6.68888
     2007.75906        15.06004         6.58710
     2007.76180        15.14065         6.73341
     2007.76454         7.74526         6.46517
     2007.76728         9.29287         7.05571
     2007.77002        16.64948         7.21368
     2007.77275         8.60309         6.78642
     2007.77549         8.74870         6.59028
     2007.77823        14.27930         6.45351
     2007.78097         7.08891         6.52561
     2007.78371         9.97352         6.47896
     2007.78644        14.49513         6.59982
     2007.78918        17.67574         6.77157
     2007.79192        24.39035         6.84155
     2007.79466        16.09796         6.63375
     2007.79739         4.63357         6.66343
     2007.80013        12.76718         6.64011
     2007.80287         4.60079         6.41110
     2007.80561         3.87340         6.55953
     2007.80835         7.09201         6.72280
     2007.81108         9.81062         6.54363
     2007.81382         4.13823         6.89668
     2007.81656        -6.09216         7.13735
     2007.81930         2.32145         6.62633
     2007.82203         7.14006         6.59240
     2007.82477        -2.01533         6.59240
     2007.82751         2.01128         6.66449
     2007.83025         0.55589         6.64011
     2007.83299         6.61450         6.43231
     2007.83572         5.41811         6.40050
     2007.83846         2.80872         6.61572
     2007.84120         2.96833         6.59240
     2007.84394         2.93594         6.50334
     2007.84668        -3.51845         6.43443
     2007.84941         6.60016         6.63375
     2007.85215         7.00077         6.50758
     2007.85489         6.62938         6.57225
     2007.85763         1.49499         6.57756
     2007.86036         9.21459         6.40580
     2007.86310         1.83720         6.50334
     2007.86584        12.60781         6.38036
