# ================= DQRFIT RESULTS ================
# INPUT FILE: series/TMBU.rad
# OUTPUT: LDETRENDED
# FILTER FUNCTION: f(t)
# f(t)=+line(t)+annual(t)
# line(t)=+P 1+P 2*t
# annual(t)=+P 3*sin(2*pi*t+P 4)
# heav(t)=(t<0?0:1)
# TOTAL OBSERVATIONS MTOT= 3622
# INITIAL TIME INTERVAL= 2022.7488 - 2011.7481 = 11.0007
# TOTAL OBSERVATIONS AFTER PREFILTER M= 3618
# TIME-SPAN= 2022.7488 - 2011.7481 = 11.0007
# OBSERVATIONS: USED M=  3618 REJECTED MTOT-M=     4 %USED=   99.8896
# N=  4 PARAMETERS
# MAXSIG= 175.00000
# MAXRES=  23.76651
# SCALE FACTOR FOR LENGTHS: SCL=  10.00000
# SCALE FACTOR FOR SIGMAS: SCLSIG=   1.00000
# CHI^2=   4605.931 DOF=  3614 CHI^2/DOF=   1.27447
# RMS=      7.558 SDEV=      7.559 MEAN=   -0.02265
#  P #       PARAMETER +-    SIGMA %error PARAMETER NAME
# P 1 =      1672.25992 +-   73.782   4.41 YZERO                              
# P 2 =        -0.82922 +-    0.037   4.41 SLOPE                              
# P 3 =         5.40020 +-    0.173   3.21 ANNUAL AMPLITUDE                   
# P 4 =        -3.00401 +-    0.045   1.50 ANNUAL PHASE                       
#       T            LDETRENDED       SIG_OBS
     2011.74811        -4.18463         7.05690
     2011.75085         5.53964         7.33800
     2011.75359         0.79391         7.05916
     2011.75633        -0.74882         7.04900
     2011.75906         8.87345         6.99707
     2011.76180         1.10072         6.91353
     2011.76454        -4.54601         7.07722
     2011.76728        -4.14274         7.14383
     2011.77002        -2.33447         7.15963
     2011.77275        13.12380         7.42832
     2011.77549         5.61507         7.43848
     2011.77823       -15.13566         7.24318
     2011.78097        -0.52839         7.19576
     2011.78371         2.13288         7.36171
     2011.78644         1.76015         7.26914
     2011.78918         2.24942         7.11561
     2011.79192        -1.04931         7.26124
     2011.79466       -10.90204         7.06481
     2011.79739        10.51023         7.46557
     2011.80013         6.95750         7.23753
     2011.80287        -1.45623         6.96998
     2011.80561        -7.26195         7.08851
     2011.80835         4.39032         7.02303
     2011.81108         1.00759         7.16641
     2011.81382        -3.54914         7.27027
     2011.81656         0.79413         7.00836
     2011.81930        -1.18360         7.02303
     2011.82203         4.08667         6.84015
     2011.82477        -0.97106         7.30865
     2011.82751        -9.60879         7.33688
     2011.83025         4.61448         7.20592
     2011.83299        -4.69025         6.94627
     2011.83572         1.13302         7.06706
     2011.83846         7.39929         7.04110
     2011.84090         6.80231         7.77377
     2011.84394        -1.31217         6.75096
     2011.84668        -9.30190         6.92482
     2011.84941        -9.07463         6.92708
     2011.85215        -0.63736         7.10319
     2011.85489         1.14591         7.11674
     2011.85763        -1.08382         7.06593
     2011.86036        -0.40355         6.94627
     2011.86310         0.28072         6.99030
     2011.86584         1.95899         6.97675
     2011.86858        10.76626         6.96885
     2011.87132         7.45153         7.01400
     2011.87405        -7.11420         7.01175
     2011.87679         5.91307         7.07609
     2011.87953         2.38034         6.96885
     2011.88227       -11.65839         6.99594
     2011.88501         2.48588         6.94853
     2011.88774        -6.66185         7.08174
     2011.89048        -5.92458         7.06255
     2011.89322         1.32569         7.14609
     2011.89596        -0.56804         7.02191
     2011.89869        -3.15577         7.06819
     2011.90143         3.26451         7.09303
     2011.90417         4.03578         7.16189
     2011.90691        -3.77695         6.94853
     2011.90965         2.01532         7.11222
     2011.91238        -5.35541         7.22737
     2011.91512        -0.68514         6.97675
     2011.91786        10.27913         7.28269
     2011.92060        -6.81960         6.87966
     2011.92240        -3.63111        13.65433
     2011.92607        -3.33106         7.19237
     2011.92881         1.49621         7.34478
     2011.93155         6.57648         7.12125
     2011.93429        -1.11325         7.24318
     2011.93702        -0.04498         7.09867
     2011.93976         3.28129         6.95982
     2011.94250         4.66456         7.05577
     2011.94524        14.07683         6.83112
     2011.94798         8.80410         6.86724
     2011.95071         4.70637         7.02529
     2011.95345        -3.67836         7.13819
     2011.95619        -1.50909         7.09190
     2011.95893         7.37518         7.03207
     2011.96167         8.01545         6.88644
     2011.96440         2.49372         6.95869
     2011.96714        -3.11401         7.09416
     2011.96988         4.04626         6.74758
     2011.97262         3.16153         6.72839
     2011.97535        -0.95220         7.03432
     2011.97809         0.74807         7.14947
     2011.98083        -3.66666         7.16867
     2011.98357         8.02461         6.93272
     2011.98631         4.54488         6.81418
     2011.98904        -1.88185         7.42380
     2011.99178        10.81842         7.38090
     2011.99452        12.15469         7.37752
     2011.99726        -1.00903         6.97110
     2012.00273         6.62951         7.16189
     2012.00547        -1.56222         7.04900
     2012.00821         2.91705         7.18334
     2012.01095         6.98932         7.06932
     2012.01368         7.14859         6.97675
     2012.01642         5.88886         6.87289
     2012.01916         3.88113         7.07158
     2012.02190         7.13440         7.21947
     2012.02464        11.14967         6.93611
     2012.02737         6.93094         6.95756
     2012.03011         4.60721         6.82096
     2012.03285         1.98148         7.17544
     2012.03559         0.10175         6.94514
     2012.03833         7.68402         6.75548
     2012.04106         6.28629         6.79499
     2012.04380         6.51556         6.75661
     2012.04654         0.68083         6.94853
     2012.04928         9.47610         7.15286
     2012.05201        -2.99663         7.19012
     2012.05475         6.74164         7.48589
     2012.05749         4.02991         7.31656
     2012.06023        -2.48682         7.42154
     2012.06297        -7.47455         7.30301
     2012.06570       -10.95728         7.19124
     2012.06844       -10.17601         7.29398
     2012.07118        -2.43074         6.83902
     2012.07392         0.13453         7.01739
     2012.07666        -1.69520         7.17431
     2012.07939         8.43607         7.05013
     2012.08213        -0.38966         7.05803
     2012.08487         5.94561         7.04110
     2012.08761         1.24488         6.98352
     2012.09034        -4.37585         6.90450
     2012.09308         0.41543         6.98014
     2012.09582         5.20970         6.92821
     2012.09856         6.60997         7.07384
     2012.10130         3.27724         7.03320
     2012.10403        -5.05349         7.13480
     2012.10677        -9.10722         7.52992
     2012.10951         6.54605         7.31317
     2012.11225        -3.09668         7.38655
     2012.11498         2.12759         7.01965
     2012.11772         2.91686         7.06593
     2012.12046         9.23413         7.02642
     2012.12320         0.13640         6.87515
     2012.12594         3.07667         6.88418
     2012.12867         3.52994         7.20366
     2012.13141        -4.77379         6.92821
     2012.13415         9.03048         6.76677
     2012.13689       -11.42725         6.97449
     2012.13963        -5.55698         7.47009
     2012.14236       -14.37171         7.71394
     2012.14510         3.52356         7.03658
     2012.14784        -3.31517         7.32897
     2012.15058        -2.94090         6.87853
     2012.15331         0.69237         6.80628
     2012.15605        -1.65836         6.90224
     2012.15879        -4.97609         6.86273
     2012.16153         5.31718         6.83563
     2012.16427        -6.07755         7.03094
     2012.16700        -2.72628         7.12577
     2012.16974        -2.30501         7.27591
     2012.17248         1.00926         7.12464
     2012.17522         1.11753         7.03658
     2012.17796        -1.09020         6.97788
     2012.18069         1.70107         6.90224
     2012.18343       -13.79066         7.14496
     2012.18617        -7.74239         7.00046
     2012.18891         1.42889         7.19124
     2012.19164         4.57016         7.09190
     2012.19438        -0.97657         7.00836
     2012.19712        -3.42030         6.96207
     2012.19986       -12.15303         6.96320
     2012.20260        -1.02376         7.23866
     2012.20533        -1.19949         7.30527
     2012.20807        -0.11122         7.09303
     2012.21081         5.84505         6.99481
     2012.21355         1.75732         6.78370
     2012.21629       -17.38341         6.98578
     2012.21902       -11.06414         7.29398
     2012.22176        -5.76187         7.14496
     2012.22450       -10.12060         6.89434
     2012.22724        -0.22633         7.15399
     2012.22997        -3.03906         7.16189
     2012.23271         0.22921         7.10996
     2012.23545         5.60248         6.91579
     2012.23819        -8.53625         7.11448
     2012.24093         4.24102         7.06368
     2012.24366        -4.06471         7.17883
     2012.24640         4.32556         7.51186
     2012.24914         0.09083         7.17431
     2012.25136        -9.32533         8.57192
     2012.25462       -12.73963         7.32220
     2012.25735        -6.20236         6.98352
     2012.26009        -9.21809         6.89885
     2012.26283       -11.02982         6.82886
     2012.26557       -10.28655         7.23753
     2012.26830        -4.52828         7.14947
     2012.27104       -12.34901         7.34026
     2012.27378        -1.75874         7.11448
     2012.27652        -5.40347         7.35042
     2012.27926        -4.54020         7.23979
     2012.28199        -1.83393         7.17205
     2012.28473         2.95235         7.09641
     2012.28747        -5.02638         7.09641
     2012.29021       -16.25711         7.29736
     2012.29295       -15.40984         7.24882
     2012.29568       -10.13957         7.41138
     2012.29842        -9.95830         7.28269
     2012.30116        -5.83403         7.41477
     2012.30390        -9.45776         7.19463
     2012.30663       -10.33649         7.01175
     2012.30937        -9.15722         7.11222
     2012.31211         7.85805         7.53444
     2012.31485        -6.03368         7.30865
     2012.31759        -7.92241         7.81102
     2012.32032        -5.99414         7.11109
     2012.32306       -11.75187         7.12012
     2012.32522       -16.66708         9.55521
     2012.32854        -4.63533         7.13931
     2012.33128        -1.82506         6.98014
     2012.33401         0.43121         6.92143
     2012.33675        -1.72852         7.21269
     2012.33949        -8.40425         6.87402
     2012.34223       -12.68398         6.89998
     2012.34496        -8.06371         6.99255
     2012.34770       -10.05444         7.11109
     2012.35044       -13.41017         6.99368
     2012.35318        -5.02790         7.20705
     2012.35592        -7.15363         6.83112
     2012.35865        -3.03736         7.00271
     2012.36139       -11.62909         7.01739
     2012.36413       -11.11382         7.02416
     2012.36687        -8.22855         6.99933
     2012.36961       -16.09928         7.00723
     2012.37234         1.20199         7.13028
     2012.37508         3.80426         7.05803
     2012.37782        -4.36647         6.95869
     2012.38056        -6.90219         6.97223
     2012.38329        -8.84592         6.95982
     2012.38603       -12.06265         7.15173
     2012.38877       -15.60538         7.40574
     2012.39150        -1.05912         7.12690
     2012.39425        -0.20484         6.99933
     2012.39698       -17.82557         7.34139
     2012.39972       -13.20530         7.18560
     2012.40241        -8.74907         7.41929
     2012.40520        -8.92876         7.29736
     2012.40794       -11.61649         7.01062
     2012.40979        -7.46095        13.15083
     2012.41341       -13.72495         7.30752
     2012.41615        -5.66068         7.25108
     2012.41889        -6.76641         7.64959
     2012.42162         0.15986         7.37187
     2012.42436        -4.91687         7.62701
     2012.42704        -8.34565         7.35607
     2012.42984        -5.64233         7.07045
     2012.43258       -11.10206         7.36171
     2012.43531       -14.50379         7.37300
     2012.43683        -1.92553        26.76227
     2012.44079       -12.61125         7.23076
     2012.44353       -10.87098         7.30414
     2012.44626        -3.52071         7.29398
     2012.44900         0.74356         7.45428
     2012.45174        -2.95617         7.23979
     2012.45448        -6.43790         7.27817
     2012.45722        -5.82963         7.31656
     2012.45995        -6.89336         7.44638
     2012.46269        -4.81509         7.29849
     2012.46543        -4.83582         7.13141
     2012.46817        -7.37955         7.10093
     2012.47091        -9.22628         7.26237
     2012.47364        -7.03601         7.35155
     2012.47638       -15.29073         7.47799
     2012.47912       -11.77246         7.30865
     2012.48186        -1.25219         7.42719
     2012.48459        -9.15792         7.36961
     2012.48733       -11.63365         7.16076
     2012.49007        -5.89538         7.43171
     2012.49281        -2.21711         7.25559
     2012.49555       -16.33184         7.29398
     2012.49828        -2.96757         7.13028
     2012.50102        -5.18830         7.14722
     2012.50376        -2.93103         7.18786
     2012.50650        -4.03676         7.09867
     2012.50924       -11.75549         7.24769
     2012.51145        -8.24366         9.57102
     2012.51471        -6.41895         7.10319
     2012.51745        -4.47768         7.23189
     2012.52019        -4.31541         7.27366
     2012.52292        -9.41414         7.37187
     2012.52566        -4.69287         7.28156
     2012.52728         6.92247        20.51932
     2012.53114         6.45267         7.32446
     2012.53388         0.30794         7.32446
     2012.53661        -8.76579         7.32784
     2012.53935         4.06348         7.54573
     2012.54209        -0.91825         7.19576
     2012.54483        -4.81298         7.30527
     2012.54736        -4.79088         7.82570
     2012.55030        -8.38844         7.34704
     2012.55304        -6.86717         7.13141
     2012.55578        -6.16690         7.32784
     2012.55852       -15.92963         7.06255
     2012.56125        -5.08136         7.26801
     2012.56399        -0.56509         7.27253
     2012.56673         0.39918         7.27930
     2012.56947         5.35945         7.42832
     2012.57221         4.75373         7.27817
     2012.57494        -3.70200         7.21269
     2012.57768        -3.49473         7.23414
     2012.58042         3.58554         7.38542
     2012.58316        -9.91519         7.30752
     2012.58590         0.20008         7.63604
     2012.58775         2.75362        12.44751
     2012.59137        -1.98538         7.10545
     2012.59411         1.73289         7.22511
     2012.59685         1.14716         7.49718
     2012.59958         4.68443         7.26124
     2012.60232         8.23170         7.48025
     2012.60506         4.94197         7.28833
     2012.60780         3.03824         7.32220
     2012.61054         3.48951         7.17544
     2012.61327         0.50378         7.27817
     2012.61527         6.50343        11.70130
     2012.61875         8.02332         7.25221
     2012.62149        11.49859         7.52879
     2012.62423         6.64286         7.21947
     2012.62696         1.96913         7.13367
     2012.62970         2.13140         7.50621
     2012.63244         0.45767         7.40235
     2012.63518         8.65294         7.40687
     2012.63791         2.46821         7.38994
     2012.64065         8.95948         7.20705
     2012.64339         2.92975         7.17431
     2012.64613         5.35202         7.12238
     2012.64827         5.49080         9.60037
     2012.65160         4.68956         7.18108
     2012.65434         0.94283         7.23301
     2012.65708        10.61910         7.29962
     2012.65982         0.56037         7.10206
     2012.66256         5.31864         6.91579
     2012.66529         7.92991         7.18899
     2012.66803         5.41819         7.28382
     2012.67077         4.14646         7.19237
     2012.67351        -1.09427         6.99030
     2012.67624         3.83800         7.10883
     2012.67898         6.48527         7.12802
     2012.68172         1.89754         7.17883
     2012.68446         3.45781         7.10658
     2012.68720         4.93608         7.25446
     2012.68993         4.83135         7.20479
     2012.69267         2.57662         7.33688
     2012.69541        -2.36811         7.01626
     2012.69815         1.71516         7.18560
     2012.70089         1.99543         7.21157
     2012.70362         5.59070         7.05916
     2012.70636         6.76997         7.37752
     2012.70910         3.26624         7.07835
     2012.71184        -1.76349         7.16867
     2012.71457         6.83678         7.11448
     2012.71731        11.93205         6.97901
     2012.72005        14.03232         7.03094
     2012.72279         9.94959         7.28946
     2012.72553         8.82186         7.35607
     2012.72826        13.31313         7.42606
     2012.73100         9.29740         7.36171
     2012.73374        15.14867         7.34252
     2012.73648        10.21794         7.16754
     2012.73921         0.97721         7.20479
     2012.74195         7.84148         7.42042
     2012.74469        11.86375         7.20028
     2012.74743        10.66302         7.18673
     2012.75017         6.56629         7.18334
     2012.75290         3.83956         7.14044
     2012.75564        10.72383         7.12464
     2012.75838         2.35010         7.13254
     2012.76112         8.61637         7.17883
     2012.76386         6.07365         7.06255
     2012.76659         3.27392         7.12690
     2012.76933         6.80019         6.84466
     2012.77207        10.43546         7.15738
     2012.77481        10.32773         6.96772
     2012.77754         5.99600         6.93272
     2012.78028         7.08027         7.08513
     2012.78302        18.21554         7.06368
     2012.78576        -2.87819         6.90788
     2012.78850         6.47908         7.37639
     2012.79123        24.82735         7.64620
     2012.79397         3.22062         7.24543
     2012.79671         6.86189         7.45315
     2012.79945         0.37316         7.38768
     2012.80219        13.07343         7.57508
     2012.80492         4.78370         7.15963
     2012.80766        -6.26803         7.21834
     2012.81040         1.09024         7.01739
     2012.81314        -2.18449         6.98465
     2012.81587        -3.95922         6.99368
     2012.81861        -4.02595         7.35155
     2012.82135        -1.72668         7.21157
