# ================= DQRFIT RESULTS ================
# INPUT FILE: series/TRAI.rad
# OUTPUT: LDETRENDED
# FILTER FUNCTION: f(t)
# f(t)=+line(t)+annual(t)
# line(t)=+P 1+P 2*t
# annual(t)=+P 3*sin(2*pi*t+P 4)
# heav(t)=(t<0?0:1)
# TOTAL OBSERVATIONS MTOT= 2018
# INITIAL TIME INTERVAL= 2022.7488 - 2017.2074 =  5.5414
# TOTAL OBSERVATIONS AFTER PREFILTER M= 1975
# TIME-SPAN= 2022.7488 - 2017.2074 =  5.5414
# OBSERVATIONS: USED M=  1975 REJECTED MTOT-M=    43 %USED=   97.8692
# N=  4 PARAMETERS
# MAXSIG= 175.00000
# MAXRES=  29.84693
# SCALE FACTOR FOR LENGTHS: SCL=  10.00000
# SCALE FACTOR FOR SIGMAS: SCLSIG=   1.00000
# CHI^2=   2287.389 DOF=  1971 CHI^2/DOF=   1.16052
# RMS=      6.442 SDEV=      6.443 MEAN=    0.03175
#  P #       PARAMETER +-    SIGMA %error PARAMETER NAME
# P 1 =     -1919.37026 +-  178.608   9.31 YZERO                              
# P 2 =         0.95353 +-    0.088   9.27 SLOPE                              
# P 3 =         6.31633 +-    0.198   3.13 ANNUAL AMPLITUDE                   
# P 4 =         2.59509 +-    0.037   1.44 ANNUAL PHASE                       
#       T            LDETRENDED       SIG_OBS
     2017.20739        -8.63351         6.07583
     2017.21013       -11.16212         6.09522
     2017.21286       -13.60573         6.11246
     2017.21560        -7.93534         6.13185
     2017.21834        -5.49796         6.00150
     2017.22108         0.39843         5.99073
     2017.22381        -3.46418         6.24173
     2017.22655        -5.04179         6.21157
     2017.22929        -3.61240         6.06829
     2017.23203        -8.59001         5.99611
     2017.23477        -9.61962         6.06829
     2017.23750        -9.96523         5.99504
     2017.24024        -6.65284         6.08014
     2017.24298        -9.99545         6.05105
     2017.24572        -7.69206         6.04675
     2017.24846        -4.12667         6.07368
     2017.25667        -5.74650         6.05860
     2017.25941       -14.76411         6.18356
     2017.26214       -14.02973         6.10707
     2017.26488        -6.72634         6.04136
     2017.26762         0.43205         6.03813
     2017.27036        -5.24556         6.05536
     2017.27310        -9.90917         6.25466
     2017.27583       -14.57978         6.15232
     2017.27857       -10.06639         6.13077
     2017.28131       -18.56800         6.06398
     2017.28405       -14.47061         6.09953
     2017.28679        -3.77622         6.09953
     2017.28952        -8.88483         6.09307
     2017.29226        -5.10544         6.08014
     2017.29500       -11.36605         6.02951
     2017.29774        -9.25866         6.09415
     2017.30047       -19.47427         6.10276
     2017.30321       -12.92988         6.10492
     2017.30595       -10.66450         6.15447
     2017.30869        -8.69511         6.07476
     2017.31143       -10.35772         6.08553
     2017.31416       -10.64933         6.12000
     2017.31690        -8.58494         5.97457
     2017.31964        -7.40155         6.17710
     2017.32238       -16.31016         6.21265
     2017.32512       -11.44077         5.98965
     2017.32785        -7.27138         6.07368
     2017.33059       -11.27199         5.98534
     2017.33333       -12.58360         6.01981
     2017.33607        -8.95621         6.10276
     2017.33880        -9.82782         6.06829
     2017.34154       -11.79943         6.45072
     2017.34428       -15.54904         6.01335
     2017.34702       -11.25965         6.03166
     2017.34976        -9.01427         5.99073
     2017.35249        -7.42488         6.09307
     2017.35523        -7.54149         5.99827
     2017.35797       -12.70810         6.14155
     2017.36071        -8.57971         6.09846
     2017.36344       -10.59732         6.06075
     2017.36618        -3.01093         6.05644
     2017.36892        -3.00554         6.02412
     2017.37166       -16.82515         6.08230
     2017.37440        -6.86076         6.12323
     2017.37713        -7.23237         6.13077
     2017.37987       -17.42398         6.11569
     2017.38261        -8.32259         6.05752
     2017.38535       -13.48720         6.07906
     2017.38809       -12.56581         6.09522
     2017.39082       -10.17142         6.14586
     2017.39356       -12.28504         6.35485
     2017.39630         0.93635         6.04890
     2017.39904        -5.23726         6.00042
     2017.40177        -6.34887         6.04890
     2017.40451        -3.11648         6.32791
     2017.40725       -10.25609         6.08768
     2017.40999        -5.30470         6.02089
     2017.41273        -6.84131         6.21588
     2017.41546        -5.78192         6.20080
     2017.41820       -18.12253         6.18679
     2017.42094       -12.50114         6.18033
     2017.42368        -5.78275         6.12862
     2017.42642        -0.78136         6.17386
     2017.42915        -1.51397         6.08553
     2017.43189         1.49942         6.13939
     2017.43463        -4.19719         6.14909
     2017.43737        -6.51781         6.08014
     2017.44010         1.86658         6.08984
     2017.44284        -0.17703         6.09091
     2017.44558        -1.11264         6.06721
     2017.44832         0.77875         6.01335
     2017.45106        -3.31586         6.13077
     2017.45379         6.33753         6.13939
     2017.45653        -0.16908         6.40332
     2017.45927        -2.64169         6.16309
     2017.46201        -0.09930         6.02951
     2017.46475       -11.02491         6.18571
     2017.46748        -1.39752         6.05860
     2017.47022        -7.32813         6.25574
     2017.47296         4.79526         6.13293
     2017.47570        -4.60635         6.04028
     2017.47843       -10.12897         6.12646
     2017.48117        -4.72258         6.33546
     2017.48391         0.33881         6.08768
     2017.48665        -2.29380         6.26436
     2017.48939        -0.73241         6.15878
     2017.49212        -2.08402         6.07691
     2017.49486        -2.75163         6.17171
     2017.49760         2.94876         6.22988
     2017.50034         4.53315         6.14478
     2017.50308         1.94554         6.12539
     2017.50581         1.98193         6.03705
     2017.50855        -6.20068         6.20726
     2017.51129        -3.22629         6.26436
     2017.51403        -5.91390         6.41302
     2017.51676        -0.89751         6.17817
     2017.51950        -5.37712         6.12323
     2017.52224         6.34626         6.12216
     2017.52498        -3.02635         6.19002
     2017.52772         1.06304         6.29452
     2017.53045        -1.65457         6.15340
     2017.53319        -2.01718         6.15232
     2017.53593        -3.32579         6.33007
     2017.53867        -1.58340         6.21157
     2017.54141        14.70199         6.09307
     2017.54414         1.45238         6.14155
     2017.54688         4.46877         6.07260
     2017.54962        -2.03184         6.19756
     2017.55236        -0.86345         6.08230
     2017.55509         7.77094         6.16094
     2017.55783        -6.18167         6.23096
     2017.56057        -0.57628         6.26436
     2017.56331         3.00611         6.13724
     2017.56605        -0.67951         6.15663
     2017.56878         4.06388         6.18571
     2017.57152         1.73427         6.24496
     2017.57426        -0.27634         6.05860
     2017.57700         2.71805         6.12539
     2017.57974        -0.86956         6.01981
     2017.58247        -4.15417         6.13185
     2017.58521        -6.34878         6.15447
     2017.58795        -3.47339         6.38070
     2017.59069         2.16400         6.45719
     2017.59342         1.88239         6.08014
     2017.59616         2.84278         6.16417
     2017.59890        -0.14683         6.13616
     2017.60164        -0.41644         6.22126
     2017.60438        -5.49305         6.08661
     2017.60711         4.46334         6.10923
     2017.60985         2.58672         6.28482
     2017.61259         5.28511         6.14478
     2017.61533         0.91350         6.39363
     2017.61807        -4.19711         6.40009
     2017.62080         0.91828         6.07476
     2017.62354         5.74567         6.15878
     2017.62628         2.83506         6.35161
     2017.62902         6.29245         6.60047
     2017.63175         6.04984         6.16848
     2017.63449         1.22123         6.10276
     2017.63723         1.90962         6.07152
     2017.63997         5.47301         6.26759
     2017.64271         0.22340         6.23850
     2017.64544         4.50279         6.29775
     2017.64818         4.64818         6.38070
     2017.65092         7.53257         6.04782
     2017.65366         7.07195         6.08984
     2017.65639        -1.31366         6.15555
     2017.65913        -1.67327         6.17494
     2017.66187         5.17912         6.07368
     2017.66461         8.84951         6.27297
     2017.66735         9.65390         6.44103
     2017.67008        10.27129         6.13077
     2017.67282         8.57168         6.29236
     2017.67556         3.14707         6.12323
     2017.67830         7.98246         6.05213
     2017.68104         5.43585         6.11785
     2017.68377         7.00124         6.33222
     2017.68652        15.20462         6.38393
     2017.68925        11.76802         6.17925
     2017.69199         1.01541         6.22019
     2017.69472        20.40480         6.10169
     2017.69746        17.82418         6.22881
     2017.70020         4.13257         6.39901
     2017.70294        16.82096         6.38393
     2017.70568        10.73035         6.24389
     2017.70841        11.92074         6.02305
     2017.71115        11.85513         6.10061
     2017.71389        11.80252         6.24604
     2017.71663        13.87991         6.01120
     2017.71937        11.65630         6.06614
     2017.72210         5.74569         6.12431
     2017.72484         4.89808         6.02089
     2017.72758        11.26347         6.07691
     2017.73032         7.87586         6.12646
     2017.73305         7.40725         6.05644
     2017.73579         7.76364         6.04244
     2017.73853         0.46202         6.29883
     2017.74127         1.15841         6.09522
     2017.74401         9.97480         6.07260
     2017.74674         6.37419         6.12754
     2017.74948        11.45358         6.00796
     2017.75222         7.70697         6.13939
     2017.75496         5.01536         6.03597
     2017.75770        -1.61925         6.29236
     2017.76043         6.36714         6.05429
     2017.76317        14.29953         6.11031
     2017.76591        11.36492         6.20295
     2017.76865        10.13031         6.11031
     2017.77138         7.11970         6.14693
     2017.77412         8.41609         6.17171
     2017.77686        13.14148         6.07799
     2017.77960        11.46587         6.15878
     2017.78234        -0.94175         6.13939
     2017.78507         3.41164         6.10600
     2017.78781         6.61303         6.12431
     2017.79055        11.66242         6.13293
     2017.79329         6.65981         6.30852
     2017.79603        11.54620         6.22126
     2017.79876         1.99059         6.27297
     2017.80150        14.44898         6.26436
     2017.80424         6.16937         6.07691
     2017.80698         2.43776         6.16848
     2017.80971         2.15915         6.21696
     2017.81245         1.48454         6.13508
     2017.81519        -0.37807         6.21265
     2017.81793        -1.44468         6.03490
     2017.82067        -3.66129         6.11031
     2017.82340         4.87410         6.11138
     2017.82614         1.74848         6.22342
     2017.82888        -5.58613         6.15016
     2017.83162         9.37826         6.11785
     2017.83436         8.21265         6.05860
     2017.84257         0.67882         6.16417
     2017.84531         9.48821         6.26543
     2017.84804         2.35960         6.05105
     2017.85078         5.34699         6.06829
     2017.85352         6.98938         6.15447
     2017.85626         2.53977         6.30745
     2017.85900         1.86116         6.43564
     2017.86173         6.29755         6.19756
     2017.86447         2.81994         6.00258
     2017.86721         2.19833         6.13077
     2017.86995        -0.34929         6.10492
     2017.87269         7.16210         6.12970
     2017.87542         8.07849         6.09307
     2017.87816        10.56488         6.09415
     2017.88090         5.02627         6.04028
     2017.88364         7.57466         6.19972
     2017.88637         1.33705         6.13185
     2017.88911         2.43844         6.28913
     2017.89185        -5.69217         6.20726
     2017.89459        -0.86278         6.23204
     2017.89733         3.24461         6.10815
     2017.90006         6.18300         6.02305
     2017.90280        -1.85361         6.07691
     2017.90554        11.03578         6.18895
     2017.90828         9.53817         6.12862
     2017.91102        -2.37444         6.36777
     2017.91375         0.26894         6.08122
     2017.91649         0.95533         6.06506
     2017.91923         6.98372         6.23742
     2017.92197         1.82611         6.17171
     2017.92470         4.91550         6.03920
     2017.92744        -1.72511         6.03705
     2017.93018        -3.78972         6.22234
     2017.93292        -0.59333         6.04782
     2017.93566         1.12006         6.01874
     2017.93839         3.67645         6.03920
     2017.94113         9.83484         6.12646
     2017.94387         1.45723         6.04890
     2017.94661         6.05862         6.03490
     2017.94935         4.33301         6.22881
     2017.95208         1.51640         6.21049
     2017.95482         9.33879         6.08230
     2017.95756         6.42617         6.14155
     2017.96030         7.48456         6.07583
     2017.96303        -9.55605         6.15447
     2017.96577        21.09234         6.54552
     2017.97125         6.43112         5.96056
     2017.97399         4.64651         6.00796
     2017.97672         6.15590         6.03490
     2017.97946         6.60329         6.07045
     2017.98220         7.28068         5.98857
     2017.98494         2.68007         5.97888
     2017.98767        -2.48454         6.05213
     2017.99041         4.22985         5.95949
     2017.99315         4.43424         6.02520
     2017.99589        10.01163         6.00796
     2017.99863        15.06402         5.93902
     2018.00136         6.44140         6.02843
     2018.00410         2.39579         5.92501
     2018.00684        -1.90982         6.03274
     2018.00958        -8.59643         6.08014
     2018.01232        -5.34804         6.09630
     2018.01779         6.00274         6.06290
     2018.02053        -3.63987         6.03920
     2018.02327        15.53652         6.64787
     2018.02600         4.31691         6.20187
     2018.02874         3.49430         6.03920
     2018.03148        -2.78731         6.11246
     2018.03422        -2.53892         6.05105
     2018.03696        -5.21953         6.12754
     2018.03969        -1.82514         5.94656
     2018.04243        -7.16276         6.08876
     2018.04517       -12.66437         6.04675
     2018.04791       -17.30498         6.17279
     2018.05065        11.89141         6.16525
     2018.05338         2.83980         5.99827
     2018.05612        -3.85081         6.06075
     2018.05886       -10.17742         6.04567
     2018.06160        -7.80403         6.20834
     2018.06981         0.99014         6.05429
     2018.07255        17.84753         6.14586
     2018.07529        -4.16808         6.30421
     2018.07802       -13.18069         6.14047
     2018.08076        -6.37730         6.27836
     2018.08350         9.96809         6.17710
     2018.08624        -7.53753         6.18571
     2018.08898        -9.87114         6.40332
     2018.09171       -11.48875         6.21803
     2018.09445        -4.07236         6.16632
     2018.09719         5.45603         6.40763
     2018.09993        -5.44858         6.18033
     2018.10266       -11.37419         6.19756
     2018.10540       -11.70180         6.45180
     2018.10814       -10.94041         6.18895
     2018.11088        -5.33102         6.11892
     2018.11362        -0.81163         6.13724
     2018.11635        -6.19924         6.14478
     2018.11909        -1.69585         6.26759
     2018.12183        10.62454         6.24820
     2018.12457        -4.87707         6.14370
     2018.12731        -1.55968         6.08661
     2018.13004         5.52870         6.29560
     2018.13278        -6.88691         6.04675
     2018.13552         2.03748         6.03274
     2018.13826         2.54387         6.05644
     2018.14099        -1.44774         6.06937
     2018.14373        -1.94335         6.05860
     2018.14647        -5.68796         6.33007
     2018.14921         6.44843         6.22881
     2018.15195         8.14882         6.06290
     2018.15468         0.24421         6.11785
     2018.15742         5.68160         6.09522
     2018.16016        -3.09601         6.11354
     2018.16290        15.50638         6.58862
     2018.16564       -10.08923         6.28482
     2018.16837        -7.73084         6.11354
     2018.17111        -8.75245         6.16417
     2018.17385        -1.10307         6.15663
     2018.17659       -11.06268         6.03813
     2018.17932        -7.63129         6.06183
     2018.18206         2.85810         6.40117
     2018.18480       -11.68151         6.28806
     2018.18754        -3.85012         6.18141
     2018.19028        -8.31473         6.06075
     2018.19301        -6.64334         6.14155
     2018.19575        -2.27595         6.07799
     2018.19849        -4.50356         6.07260
     2018.20123        -1.34617         6.21049
     2018.20397         5.40322         6.11246
     2018.20670         0.88061         6.16525
     2018.20944        -1.40100         6.12646
     2018.21218        -2.78861         6.03382
     2018.21492       -16.34722         6.06183
     2018.21765        -0.44384         6.02089
     2018.22039        -8.64145         6.17494
     2018.22313       -12.23206         6.09091
     2018.22587        -4.25267         6.31714
     2018.22861        -7.73928         5.95410
     2018.23134        -3.70489         6.03382
     2018.23408       -13.77650         6.13508
     2018.23682         0.07189         6.17817
     2018.23956        -3.78872         6.01766
     2018.24230        -6.34033         6.00473
     2018.24503        -2.92194         5.99827
     2018.24777        -4.09955         5.97995
     2018.25051        -4.87116         6.05213
     2018.25325        -5.99077         5.96595
     2018.25598        -7.48838         6.03597
     2018.25872        -9.03599         6.07260
     2018.26146       -12.65561         6.10061
     2018.26420        -9.43422         6.16309
     2018.26694       -11.44583         5.97457
     2018.26967       -12.58644         6.11031
     2018.27241        -9.10405         5.98426
     2018.27515        -1.15266         5.98965
     2018.27789        -5.82627         6.19433
     2018.28062        -7.70288         6.20941
     2018.28336       -14.52749         5.95302
     2018.28610       -16.42310         6.00042
     2018.28884       -11.61471         5.97888
     2018.29158         0.45568         6.13508
     2018.29431       -17.69293         6.13724
     2018.29705       -13.98754         5.99180
     2018.29979        -7.91115         6.09307
