# ================= DQRFIT RESULTS ================
# INPUT FILE: series/TRI1.rad
# OUTPUT: LDETRENDED
# FILTER FUNCTION: f(t)
# f(t)=+line(t)+annual(t)
# line(t)=+P 1+P 2*t
# annual(t)=+P 3*sin(2*pi*t+P 4)
# heav(t)=(t<0?0:1)
# TOTAL OBSERVATIONS MTOT= 1439
# INITIAL TIME INTERVAL= 2011.2140 - 2006.6010 =  4.6130
# TOTAL OBSERVATIONS AFTER PREFILTER M= 1426
# TIME-SPAN= 2011.2140 - 2006.6010 =  4.6130
# OBSERVATIONS: USED M=  1426 REJECTED MTOT-M=    13 %USED=   99.0966
# N=  4 PARAMETERS
# MAXSIG= 175.00000
# MAXRES=  27.61442
# SCALE FACTOR FOR LENGTHS: SCL=  10.00000
# SCALE FACTOR FOR SIGMAS: SCLSIG=   1.00000
# CHI^2=   1106.444 DOF=  1422 CHI^2/DOF=   0.77809
# RMS=      6.958 SDEV=      6.949 MEAN=   -0.41107
#  P #       PARAMETER +-    SIGMA %error PARAMETER NAME
# P 1 =      4762.86059 +-  226.671   4.76 YZERO                              
# P 2 =        -2.36454 +-    0.113   4.77 SLOPE                              
# P 3 =         5.90033 +-    0.189   3.21 ANNUAL AMPLITUDE                   
# P 4 =        -2.87270 +-    0.044   1.52 ANNUAL PHASE                       
#       T            LDETRENDED       SIG_OBS
     2006.60095         1.69641         5.05528
     2006.60369         6.18488         5.11791
     2006.60643         6.10336         5.02882
     2006.60917         6.56183         4.97501
     2006.61190         4.59131         4.98736
     2006.61464         6.02778         5.05263
     2006.61738        13.60825         4.99706
     2006.62012         8.97873         5.07116
     2006.62286         7.99120         5.01118
     2006.62559         6.87167         4.96707
     2006.75975        13.23289         5.09586
     2006.76249        12.65236         5.14349
     2006.76522         7.30584         5.21141
     2006.76796         5.78231         5.20171
     2006.77070         5.44978         5.02617
     2006.77344         2.57126         5.17701
     2006.77618         9.52573         5.13379
     2006.77891        14.39021         5.09145
     2006.78165         9.89168         4.99883
     2006.78439        11.24515         4.93796
     2006.78713        14.11363         5.26081
     2006.78987        21.88710         4.97325
     2006.79260        10.38357         4.99794
     2006.79534         1.66805         5.08704
     2006.79808        13.64452         5.09145
     2006.80082         9.66200         5.11791
     2006.80355         5.89947         4.96178
     2006.80629         8.49294         4.92826
     2006.80903         7.53642         5.03499
     2006.81177         4.07989         5.07204
     2006.81451        11.54436         5.07733
     2006.81724         5.82384         5.09850
     2006.81998         1.92031         4.93796
     2006.82272         1.72379         4.93884
     2006.82546        18.83426         5.06587
     2006.82820         4.46273         4.90797
     2006.83093         7.30421         4.91238
     2006.83367        11.69868         4.91503
     2006.83641         7.47915         5.04381
     2006.83915        17.09263         5.12938
     2006.84188         2.15910         5.15760
     2006.84462         9.54858         5.20876
     2006.84736        10.94505         5.06851
     2006.85010        13.58352         5.17966
     2006.85284        11.27900         5.28021
     2006.85557        11.63647         5.19289
     2006.85831         8.77394         5.09233
     2006.86105        16.39042         5.19994
     2006.86379         1.57989         5.20612
     2006.86653         4.94337         5.34549
     2006.86926         3.77584         5.03058
     2006.87200         1.63631         5.02794
     2006.87474         5.49779         5.03587
     2006.87748         7.19026         4.95208
     2006.88021         3.89973         5.01206
     2006.88295         5.06821         5.17260
     2006.88569         2.62268         5.06057
     2006.88843         6.79916         5.10732
     2006.89117         6.86563         5.04911
     2006.89390        -1.31590         5.15760
     2006.89664        -3.62942         5.14790
     2006.89938         1.14005         4.98648
     2006.90212         1.74352         5.05440
     2006.90485         2.21900         5.29256
     2006.90759         4.38847         4.94414
     2006.91033        -2.39205         4.98912
     2006.91295         1.70515         5.30668
     2006.91581        -3.01011         4.98824
     2006.91854        -6.82763         4.97060
     2006.92128        -2.47116         4.93267
     2006.92402        -3.70869         5.14084
     2006.92676        -2.94021         4.98118
     2006.92950         0.30826         5.07998
     2006.93223        -2.83626         5.02264
     2006.93497         2.97621         5.21494
     2006.93771         2.65368         5.06939
     2006.94045         4.99316         5.00588
     2006.94318         4.71663         5.10556
     2006.94592         1.74710         5.25640
     2006.94866         2.81258         5.13467
     2006.95140         8.24205         5.01823
     2006.95329        17.61553         8.75831
     2006.96078       -14.50777        12.94561
     2006.96235        -2.50305         5.01647
     2006.96509        -1.63158         5.07998
     2006.96783         3.83689         5.22641
     2006.97056         3.11737         5.10468
     2006.97330        -1.82916         5.01823
     2006.97604         1.09132         5.06057
     2006.97878        -2.37721         5.05528
     2006.98151        -3.50174         5.06675
     2006.98425        -0.81526         5.03323
     2006.98699         0.71721         5.20347
     2006.98973        -7.87032         5.16290
     2006.99794        -8.40289         5.16995
     2007.00342         2.34705         5.26081
     2007.00616        -3.85147         5.11879
     2007.00889         0.61400         5.10821
     2007.01163        -0.09553         5.06675
     2007.01437        -1.91805         5.08704
     2007.01711        -6.62658         5.08704
     2007.01984        -6.89910         5.03235
     2007.02258        -7.44963         5.00412
     2007.02504         0.64317         5.85446
     2007.05544       -10.42194         4.84005
     2007.05817       -13.56847         4.89827
     2007.06091        -6.90900         4.85416
     2007.06365       -10.15152         4.81447
     2007.06639       -14.59405         4.95296
     2007.06913       -13.28658         4.80477
     2007.07186        -7.83210         4.78889
     2007.07460        -8.23363         4.81623
     2007.07734       -10.55915         4.81270
     2007.08008       -14.82368         4.82594
     2007.08282        -9.59221         4.78712
     2007.08555        -8.11173         4.86916
     2007.08829        -8.89426         4.87357
     2007.09103        -6.28779         4.93002
     2007.09377        -3.55231         4.88592
     2007.09650       -10.69084         4.92473
     2007.09924       -12.05836         4.81623
     2007.10198        -5.98489         4.79065
     2007.10472        -5.51742         4.94678
     2007.10746        -5.36594         5.01382
     2007.11019        -8.69447         4.83917
     2007.11293        -0.42100         4.86210
     2007.11567        -7.83552         4.78183
     2007.11841        -9.46405         4.83387
     2007.12115        -9.71757         4.84711
     2007.12388        -4.23710         4.92120
     2007.12662        -6.94163         4.83123
     2007.12936        -6.34615         4.98559
     2007.13210        -4.79768         4.90180
     2007.13466        -1.54461         5.22464
     2007.13757         3.33327         4.93620
     2007.14031        -2.70826         4.84975
     2007.14305        -4.16178         4.81888
     2007.14579        -5.99931         4.80829
     2007.14852        -6.25484         4.85857
     2007.15126         3.26564         4.89474
     2007.15400         0.56311         4.86563
     2007.15674         2.74958         4.82329
     2007.15948         1.30606         5.09233
     2007.16221        -5.11847         5.16466
     2007.16495        -2.54199         5.04381
     2007.16769        -5.95552         5.01382
     2007.17043        -4.30705         4.93620
     2007.17316        -3.25357         4.98824
     2007.17590        -7.09810         4.98559
     2007.17864        -2.06363         5.06057
     2007.18138        -0.10115         4.99265
     2007.18412        -6.19668         4.94766
     2007.18685        -0.86920         5.06057
     2007.18959        -3.84073         4.98383
     2007.19233        -4.19026         5.12761
     2007.19507        -9.30778         4.84270
     2007.19780       -10.22831         4.86475
     2007.20054       -13.76284         4.92208
     2007.20328       -12.49136         4.94325
     2007.20602        -6.09389         4.96795
     2007.20876        -5.57541         4.93443
     2007.21149       -12.20494         4.90797
     2007.21423        -0.94047         4.92826
     2007.21697        -4.16799         4.89209
     2007.21971        -2.20852         4.85593
     2007.22245        -6.29905         4.87004
     2007.22518         2.10343         4.99530
     2007.22792         1.10290         4.96531
     2007.23066        -7.91562         4.86828
     2007.23340        -9.65015         4.97677
     2007.23613       -11.60068         4.91767
     2007.23887       -10.38620         4.85416
     2007.24161       -15.11473         4.88945
     2007.24435        -2.39226         4.84622
     2007.24709        -7.61078         4.83564
     2007.24982        -6.23331         4.85416
     2007.25256        -9.12083         4.83211
     2007.25530       -11.18736         4.85240
     2007.25804        -6.73389         4.91415
     2007.26078        -6.92941         4.87798
     2007.26351        -2.94294         4.83476
     2007.26625         1.68053         4.97236
     2007.26899         5.36301         4.88856
     2007.27173        -4.38652         4.91326
     2007.27446         2.58096         4.75360
     2007.27720         2.76243         4.80918
     2007.27994        -0.62810         4.84005
     2007.28268        -1.45962         5.03058
     2007.28542        -5.62215         4.83123
     2007.31576        -5.20440         5.37724
     2007.31827        -2.36046         4.89739
     2007.32101        -1.98399         4.90268
     2007.32375        -2.15052         4.90532
     2007.32648        -3.45204         4.88151
     2007.32922        -2.49457         4.87092
     2007.33196        -1.44810         5.05263
     2007.33470        -4.28162         5.00500
     2007.33744        -3.55715         4.86828
     2007.34017       -10.41867         4.87974
     2007.34303        -6.48793         5.24140
     2007.34571       -10.00459         4.99971
     2007.34936        -2.59896         9.35020
     2007.35130        -7.62737         5.22376
     2007.35386        -4.71830         5.17789
     2007.35671        -9.91356         5.35607
     2007.35951        -6.35895         5.29786
     2007.36213        -5.30175         5.03323
     2007.36481        -6.89241         5.01206
     2007.36755        -5.54994         4.93267
     2007.37029        -6.00746         4.94061
     2007.37303        -3.38899         5.04822
     2007.37577        -8.72151         5.02882
     2007.37850        -9.47804         5.06234
     2007.38124        -4.60857         4.94325
     2007.38398        -0.06709         4.91150
     2007.38672        -9.92562         4.93091
     2007.38945       -14.92515         4.89209
     2007.39219        -4.63467         5.05969
     2007.39493        -5.24120         4.89209
     2007.39767        -6.56872         4.91679
     2007.40041        -0.50825         4.86210
     2007.40314        -5.01578         4.85328
     2007.40588        -8.16730         4.86651
     2007.40856        -8.43996         5.07380
     2007.41136        -9.09836         4.82329
     2007.41410        -1.45688         4.86034
     2007.41683        -2.64241         4.89915
     2007.41957        -2.24593         4.91856
     2007.42231         0.58654         4.99177
     2007.42505         1.86301         4.99883
     2007.42778        -0.46451         4.82682
     2007.43052        -1.54904         4.83564
     2007.43326        -1.17557         4.87269
     2007.43600        -5.36209         4.92297
     2007.43874        -1.28462         4.86828
     2007.44147        -0.86014         4.96884
     2007.44421        -1.06067         5.11438
     2007.44695        -9.14720         4.98824
     2007.44969        -7.55272         4.84534
     2007.45243        -5.09125         4.88504
     2007.45516        -4.61378         4.83829
     2007.45790        -0.51030         4.84534
     2007.46064        -6.21983         4.87004
     2007.46338        -1.82435         4.84005
     2007.46611        -1.94988         4.87269
     2007.46885         2.38959         4.91503
     2007.47159        -1.93193         4.84534
     2007.47433        -5.06546         4.88945
     2007.47707       -10.84699         5.02617
     2007.47980        -8.10251         4.85240
     2007.48254        -8.53504         4.87533
     2007.48528        -7.62556         4.90356
     2007.48802       -12.42509         4.95208
     2007.49076         0.45938         5.02970
     2007.49349        -6.43814         4.86122
     2007.49623        -4.53367         4.88592
     2007.49897        -3.06120         4.90444
     2007.50171        -5.38072         4.84975
     2007.50444        -7.00425         4.83829
     2007.50718        -4.09977         4.83123
     2007.50992         1.08670         4.95560
     2007.51266        -6.75283         4.86739
     2007.51540         2.49965         4.91767
     2007.51813        -3.55088         4.89033
     2007.52087        -1.16241         4.88945
     2007.52350        -5.38120         5.09409
     2007.52635         0.59454         4.94943
     2007.52908         0.79802         4.99971
     2007.53182         2.94149         4.98559
     2007.53456        -4.26604         5.00588
     2007.53730         3.32644         4.93443
     2007.54004         0.63391         4.93443
     2007.54277        -2.09962         4.96001
     2007.54551         2.44986         4.91591
     2007.54825         0.26033         4.92914
     2007.55099         3.38381         4.97589
     2007.55373         5.97328         4.91503
     2007.55646        -2.29425         4.97060
     2007.55920         4.67023         4.88415
     2007.56194         4.03870         4.85593
     2007.56468         4.42417         4.82241
     2007.56741        -4.54735         4.90532
     2007.57015         0.54712         4.92120
     2007.57289         1.66160         4.88592
     2007.57563         3.96907         4.89915
     2007.57837         1.00054         4.90356
     2007.58110         5.71702         4.85681
     2007.58384         9.36249         4.88239
     2007.58658         0.52796         4.90709
     2007.58932         2.25444         4.87092
     2007.59206         1.47991         4.89915
     2007.59479        12.29739         5.30668
     2007.59753         8.26086         5.47075
     2007.60027         4.61733         4.96090
     2007.60301         7.10481         4.80565
     2007.60574         7.55728         4.87886
     2007.60848         3.43375         4.83211
     2007.61122         9.64423         4.98207
     2007.61396         3.00670         4.86651
     2007.61670         1.62418         5.26610
     2007.61943         6.67265         5.23082
     2007.62217         9.16412         5.10115
     2007.62491         5.72660         5.06057
     2007.62765         7.63607         5.20259
     2007.63039        12.51054         5.28374
     2007.63312         7.78502         5.00412
     2007.63586         6.32049         5.01294
     2007.63860         2.68197         5.00059
     2007.64134        11.35744         4.88239
     2007.64407        11.37991         5.18142
     2007.64681         3.91339         5.10291
     2007.64955        18.30286         5.37283
     2007.65229         5.86334         5.12056
     2007.65503         8.30181         5.06234
     2007.65776         5.39928         5.08880
     2007.66050         7.51276         5.07557
     2007.66324         7.76923         5.06587
     2007.66598         4.74770         5.07116
     2007.66872         2.99818         5.12320
     2007.67145        10.53865         5.28904
     2007.67419        10.97513         5.36578
     2007.67693         7.39060         5.11085
     2007.67967        12.85107         5.09850
     2007.68240        13.22155         5.04822
     2007.68514         8.27202         5.16907
     2007.68788         8.92649         5.19465
     2007.69062        10.27397         5.03323
     2007.69336        10.06744         5.06234
     2007.69609         8.30292         5.17348
     2007.69883         4.14539         5.06145
     2007.70157         7.86886         5.09321
     2007.70431         4.40934         5.28021
     2007.70705         5.71081         5.20876
     2007.70978         9.01328         5.15760
     2007.71252         8.65076         5.08351
     2007.71526        11.06923         4.94061
     2007.71800         7.82871         4.95472
     2007.72073         8.10318         5.02000
     2007.72347        15.16565         5.05263
     2007.72621         6.85513         4.88415
     2007.72895         6.97160         4.92385
     2007.73169         5.88407         5.01118
     2007.73442         1.70055         4.99442
     2007.73716         6.85402         5.09321
     2007.73990        11.48750         5.03852
     2007.74264        14.15797         4.89209
     2007.74538        16.51844         4.96707
     2007.74811        11.62092         5.10556
     2007.75079        11.68826         5.27228
     2007.75359        10.44086         5.09056
     2007.75633        12.50234         4.94414
     2007.75906         7.94481         4.93267
     2007.76180         5.03329         4.95031
     2007.76454         2.93376         4.92914
     2007.76728        13.70923         5.39665
     2007.77002         5.09071         5.35343
     2007.77275         6.63518         5.17789
     2007.77549         9.73865         4.92914
     2007.77823         6.32613         4.94855
     2007.78097         7.52560         4.88327
     2007.78371         8.49408         4.93884
     2007.78644        16.65955         4.89827
     2007.78918         9.35102         5.07116
     2007.79192         7.25050         5.06675
     2007.79466         7.88097         5.09409
     2007.79739         9.30944         5.15584
     2007.80013        19.32192         5.05969
     2007.80287         5.66539         4.93796
     2007.80561         3.49287         5.01029
     2007.80835         5.51934         5.04205
     2007.81108         7.72681         5.14790
     2007.81382         4.51829         5.03323
     2007.81656         4.49376         5.13732
     2007.81930         4.97523         4.98824
     2007.82203        -6.06529         5.05175
     2007.82477        -2.51182         5.20788
     2007.82751        -1.21534         5.00941
     2007.83025         4.18213         5.00588
     2007.83299         6.19360         4.91767
     2007.83572         0.39608         4.89121
     2007.83846        -2.50045         4.94061
     2007.84120         3.76802         4.97942
     2007.84394        -0.41350         4.94678
     2007.84668        -1.06103         5.00588
     2007.84941         1.92945         5.00500
     2007.85215         3.35192         5.06851
     2007.85489         5.83039         5.33931
     2007.85763        -0.32513         5.16907
     2007.86036        10.36634         5.00765
     2007.86310         9.69081         5.09233
     2007.86584         5.49729         4.99883
     2007.86858         3.00876         4.86916
