# ================= DQRFIT RESULTS ================
# INPUT FILE: series/TSEP.rad
# OUTPUT: LDETRENDED
# FILTER FUNCTION: f(t)
# f(t)=+line(t)+annual(t)
# line(t)=+P 1+P 2*t
# annual(t)=+P 3*sin(2*pi*t+P 4)
# heav(t)=(t<0?0:1)
# TOTAL OBSERVATIONS MTOT= 1128
# INITIAL TIME INTERVAL= 2017.1225 - 2012.5941 =  4.5284
# TOTAL OBSERVATIONS AFTER PREFILTER M= 1091
# TIME-SPAN= 2017.1225 - 2012.5941 =  4.5284
# OBSERVATIONS: USED M=  1091 REJECTED MTOT-M=    37 %USED=   96.7199
# N=  4 PARAMETERS
# MAXSIG= 175.00000
# MAXRES=  58.69393
# SCALE FACTOR FOR LENGTHS: SCL=  10.00000
# SCALE FACTOR FOR SIGMAS: SCLSIG=   1.00000
# CHI^2=   3510.136 DOF=  1087 CHI^2/DOF=   3.22920
# RMS=     14.342 SDEV=     14.333 MEAN=    0.66592
#  P #       PARAMETER +-    SIGMA %error PARAMETER NAME
# P 1 =     72394.67314 +-  670.644   0.93 YZERO                              
# P 2 =       -35.94474 +-    0.333   0.93 SLOPE                              
# P 3 =        10.62310 +-    0.574   5.41 ANNUAL AMPLITUDE                   
# P 4 =        -2.75479 +-    0.070   2.55 ANNUAL PHASE                       
#       T            LDETRENDED       SIG_OBS
     2012.59411        18.99964        12.45498
     2012.59685        21.01605        12.55741
     2012.59958        16.57246        12.57358
     2012.60232        19.96787        13.11448
     2012.60506        18.86928        12.41365
     2012.60780        16.46269        12.48194
     2012.61054        18.73610        12.70117
     2012.61327        13.65751        12.26630
     2012.61601        14.58893        12.53944
     2012.61875        21.38534        12.61491
     2012.62149        21.11875        12.54843
     2012.62423        20.21916        13.72905
     2012.62696        20.32457        12.48373
     2012.62970        14.18098        12.42264
     2012.63244        20.07539        12.75508
     2012.63518        19.16381        12.61312
     2012.63791        20.87722        12.36693
     2012.64065        24.48463        12.39927
     2012.64339        24.72204        12.30763
     2012.64613        19.51445        12.42982
     2012.64887        15.74686        12.37591
     2012.65160        24.01727        12.37052
     2012.65434        27.24268        12.61132
     2012.65708        34.18510        12.75328
     2012.65982        23.21551        12.77125
     2012.66256        20.16692        12.46037
     2012.66529        21.39433        12.37232
     2012.66803        24.40974        12.46756
     2012.67077        22.19515        12.32919
     2012.67351        22.74956        12.42443
     2012.67624        22.58498        12.39927
     2012.67898        27.01639        12.56999
     2012.68172        21.48080        12.31482
     2012.68446        21.50021        12.58077
     2012.68720        29.27662        12.60593
     2012.68993        20.92203        12.52686
     2012.69267        17.91344        12.89884
     2012.69541        20.73985        12.49452
     2012.69815        19.51727        12.66882
     2012.70089        22.29368        12.39388
     2012.70362        17.31209        12.45318
     2012.70636        22.70950        12.48194
     2012.70910        16.92691        12.44959
     2012.71184        20.98932        12.56100
     2012.71457        20.92473        12.33458
     2012.71731        26.21215        12.40467
     2012.72005        24.90656        12.49272
     2012.72279        18.55297        12.51249
     2012.72553        24.04538        12.56100
     2012.72826        19.55079        12.37052
     2012.73100        23.76820        12.57897
     2012.73374        29.02561        13.06596
     2012.73648        20.62102        12.42264
     2012.73921        19.93144        12.83594
     2012.74195        22.79285        12.70476
     2012.74469        27.59826        12.40107
     2012.74743        37.22967        12.37591
     2012.75017        23.96508        12.69937
     2012.75290        25.79149        12.48194
     2012.75564        17.06190        12.49631
     2012.75838        19.02232        12.46397
     2012.76112        28.72573        12.47295
     2012.76386        20.79414        12.54483
     2012.76659        27.63455        12.56100
     2012.76933        25.22096        12.49631
     2012.77207        27.32737        12.24833
     2012.77481        25.40578        12.57538
     2012.77754        22.15319        12.30224
     2012.78028        28.11861        12.60773
     2012.78302        20.04802        12.59694
     2012.78576        15.92443        12.51249
     2012.78850        24.20284        12.41006
     2012.79123        31.43325        12.44779
     2012.79397        22.53766        12.31841
     2012.79671        16.14707        12.33638
     2012.79945        24.99049        12.69937
     2012.80219         8.00890        12.34716
     2012.80492         1.68031        12.46037
     2012.80766         2.79972        12.52147
     2012.81040         6.77813        12.59515
     2012.81314         6.50054        12.55202
     2012.81587         4.68095        12.44959
     2012.81861        17.97036        12.90423
     2012.82135        20.87978        12.61851
     2012.82409        27.72019        12.83055
     2012.82683        21.02860        12.87728
     2012.82956         6.85201        12.58976
     2012.83230        -2.30858        12.30583
     2012.83778       -11.92576        12.57718
     2012.84052         5.90766        12.52506
     2012.84325         8.32907        12.49092
     2012.84599        13.92848        12.70117
     2012.84873        10.35489        12.68140
     2012.85147        26.60030        12.50530
     2012.85420        25.38371        12.63468
     2012.85694        17.02812        12.60413
     2012.85968         9.76853        12.56460
     2012.86242         7.71195        12.33818
     2012.86516        19.48036        12.43162
     2012.86789        13.47277        12.82516
     2012.87063        10.23418        12.35974
     2012.87337        10.77359        12.73172
     2012.87611        16.92900        12.44061
     2012.87885        22.41941        12.49991
     2012.88158         1.60183        12.71734
     2012.88432         2.38924        12.72273
     2012.88706         7.80565        13.14862
     2012.88980        17.15406        12.98150
     2012.89253        10.46447        12.73531
     2012.89527        -7.65712        13.00846
     2012.89801        -3.07571        13.12886
     2013.01300        17.04757        12.75149
     2013.01654         5.23886        19.53335
     2013.31266         0.53283        46.78660
     2013.31416         1.23982        12.33818
     2013.31690         7.05223        12.61851
     2013.31964         0.00664        12.43881
     2013.32238         2.51605        12.38310
     2013.32512        10.34546        12.47475
     2013.32785         5.83387        12.32380
     2013.33059        -3.00772        12.30583
     2013.33333        -7.34830        12.48014
     2013.33607        -4.75489        12.47475
     2013.33880         2.60752        12.54663
     2013.34154         7.53693        12.37052
     2013.34428         5.37234        12.54663
     2013.34702        -4.50425        12.69039
     2013.34976        -3.46484        12.62929
     2013.35249        -8.39542        12.43162
     2013.35523        -1.64201        12.85931
     2013.35797        -3.30660        12.65085
     2013.36071        -6.27419        12.66164
     2013.36344         2.57822        12.55202
     2013.36618         2.06763        12.69937
     2013.36892         2.31104        12.68140
     2013.37166        -0.13855        12.48373
     2013.37440         1.66387        12.50889
     2013.37713        -1.83872        12.62031
     2013.37987         6.11569        12.71016
     2013.38261        -8.25390        12.64367
     2013.38535         1.30951        12.88267
     2013.38809         5.24092        12.72633
     2013.39082        -5.49167        12.42443
     2013.39356         1.23875        12.53405
     2013.39630        -6.76184        12.65804
     2013.39904        -3.68743        12.69758
     2013.40177        -3.25002        12.64007
     2013.40451       -12.44861        12.57538
     2013.40725        -9.47220        12.87368
     2013.40999        -2.85279        12.73352
     2013.41273        -4.75738        12.67062
     2013.41546        -7.75996        13.15401
     2013.41820        -3.39755        12.66523
     2013.42094         6.91186        12.62929
     2013.42368        -9.71573        12.63288
     2013.59979       -14.00928        50.06072
     2013.60164        12.91501        12.46936
     2013.60318       -15.11664        42.30489
     2013.60866       -17.41247        42.92126
     2013.61160        -1.39706        23.62511
     2013.61533         7.31306        12.72273
     2013.61807        10.50947        12.50350
     2013.61956       -14.85671        50.66631
     2013.62225         8.97600        72.92750
     2013.62628         6.46271        12.54124
     2013.63053         3.34062        45.58800
     2013.63449         7.39994        12.67422
     2013.63606         6.43632        36.55091
     2013.64179         9.71737        20.17667
     2013.64818        12.17200        12.23036
     2013.65092        22.64341        12.28786
     2013.65246        -4.83006        40.76307
     2013.65913        11.58564        12.59694
     2013.66066        21.41166        40.01012
     2013.66461        -1.26953        12.21239
     2013.66640        21.02671        20.50013
     2013.66913        22.07095        20.60795
     2013.67282        18.23070        13.02104
     2013.67830        11.20652        12.21239
     2013.68925        10.26017        12.54303
     2013.69472         6.82699        12.48733
     2013.70020        15.30581        12.09199
     2013.70204        21.58111        21.26026
     2013.70751        12.64759        20.96376
     2013.71547        15.10559        30.48245
     2013.71937         8.54769        12.29145
     2013.72210        21.68711        12.40646
     2013.74032         6.82681        20.93141
     2013.74280         9.78917        35.73507
     2013.74852        15.61671        22.06532
     2013.75108       -31.75120        25.98996
     2013.75662       -10.26233        24.16780
     2013.76317         2.59128        12.47115
     2013.76468        28.89544        44.73802
     2013.77138        11.37151        12.61132
     2013.89027       -17.65429        26.80040
     2013.89185       -12.95839        12.52147
     2013.89459        -9.32398        12.64007
     2013.89733        -0.18040        12.39209
     2013.90006        -7.51816        12.46756
     2013.90280        -5.77475        12.63109
     2013.90554         0.33166        12.29864
     2013.90718        10.96978        31.66667
     2013.90983        26.14377        41.28779
     2013.91650         0.69648        12.53405
     2013.91823        21.38584        26.96752
     2013.92197        13.43413        12.81079
     2013.92470        11.52354        12.29325
     2013.92744         8.64396        12.44959
     2013.93018         7.35337        12.25372
     2013.93453        23.42570        36.42871
     2013.93839         9.08160        12.47834
     2013.94546        -2.46234        40.48453
     2013.95483         9.46924        12.27888
     2013.96303         8.39030        12.33099
     2013.96851         3.24413        12.49452
     2013.97277        51.18521        47.54852
     2013.97544        10.60440        56.92345
     2013.97946         4.22677        12.48373
     2013.98103        25.66832        36.99836
     2013.98767       -11.23700        12.39209
     2013.99208        13.72039        29.98827
     2013.99863        -7.75135        12.68140
     2014.00301        22.28235        32.16084
     2014.00684        -3.35312        12.74789
     2014.00958        -6.91270        12.53225
     2014.01233        -8.46295        12.82696
     2014.01381        -4.19965        59.28111
     2014.01655        16.58477        62.56602
     2014.02327         6.75735        12.96713
     2014.02874        25.32217        12.64906
     2014.03149        41.35493        12.53225
     2014.03422        36.52300        12.90962
     2014.03969        31.49682        12.48014
     2014.04243         7.09023        12.91142
     2014.04517        -3.07536        12.99588
     2014.04791       -11.99495        12.52327
     2014.05065       -10.07519        12.57897
     2014.05338       -17.30912        12.31841
     2014.05612       -15.38571        12.36693
     2014.05886        -5.28530        12.38490
     2014.06160        -1.96289        12.28247
     2014.06433       -11.72148        12.62570
     2014.06707        -6.19007        12.90962
     2014.06982        -1.61531        12.51428
     2014.07255        -7.37124        12.51788
     2014.07529        -5.76883        12.52686
     2014.07802       -27.15742        12.62031
     2014.08076       -29.16401        12.68140
     2014.08350       -29.33960        12.73352
     2014.08624       -31.46219        12.74070
     2014.08898       -39.84443        13.23128
     2014.09171       -40.48436        13.02643
     2014.09445       -49.67095        12.60952
     2014.09719       -54.64254        13.00486
     2014.09993       -53.40913        12.52147
     2014.10266       -48.38972        12.96353
     2014.10540       -46.80531        12.50530
     2014.10815       -32.31255        12.61132
     2014.11088       -32.32049        12.71195
     2014.11362       -21.78507        12.82516
     2014.11635         5.91834        12.39029
     2014.11909         5.86375        12.51788
     2014.12183        -1.00084        12.59874
     2014.12457         5.26457        12.41724
     2014.12756        -4.47696        16.82707
     2014.13004        19.30339        15.58355
     2014.13278         9.32181        16.80192
     2014.13552         6.23122        31.81402
     2014.13826        14.83963        21.90539
     2014.14099        13.54304        18.66540
     2014.14373        -0.92755        23.17586
     2014.14657        16.23862        18.38687
     2014.14921         6.52827        16.21969
     2014.15195       -26.66532        13.19534
     2014.15468        -2.15890        12.55202
     2014.15742        -6.05149        13.14503
     2014.16016         4.12992        15.41823
     2014.16290         0.64833        17.20804
     2014.16571        28.11330        22.24322
     2014.16852        48.15345        25.07349
     2014.17110        11.57022        23.35916
     2014.17387        31.53683        23.02491
     2014.17617        20.46252        71.98408
     2014.17903       -40.15979        25.03396
     2014.18200        31.99999        22.94585
     2014.18483       -17.29318        22.19830
     2014.18754       -10.50397        24.43915
     2014.19308        -5.78392        32.89222
     2014.19540         8.50845        26.71594
     2014.19849        11.98668        24.98903
     2014.20134        30.54719        45.37416
     2014.20473        12.92301        41.92392
     2014.20680        -5.81167        73.62833
     2014.21076       -33.78018       220.16619
     2014.22862        33.66889        42.44146
     2014.36550       -13.40223        12.95455
     2014.36824       -13.79482        13.21511
     2014.37097       -13.18841        13.25644
     2014.37371       -13.77800        12.84852
     2014.37652        -7.38202        13.04979
     2014.37919        -5.34817        12.73891
     2014.38193       -18.99576        12.70476
     2014.38466       -12.40435        12.78563
     2014.38740       -20.46294        12.88626
     2014.39014        -2.19653        12.72273
     2014.39288       -10.65912        12.81977
     2014.39569       -11.11414        12.92759
     2014.39835        -3.88130        12.80180
     2014.40109       -15.70588        12.73531
     2014.40383       -12.25147        12.78563
     2014.40657        -4.56906        12.93298
     2014.40930       -18.71065        12.90243
     2014.41204       -15.55524        13.12346
     2014.41485       -10.88426        13.17917
     2014.41752       -10.40942        12.67961
     2014.42026       -16.42900        12.89165
     2014.42299       -14.18459        12.98330
     2014.42573        -9.44518        12.78383
     2014.42847       -14.94177        12.70117
     2014.43121       -13.20636        12.71914
     2014.43402        -2.07439        12.78383
     2014.43668        -5.02754        13.03182
     2014.43942       -13.34713        12.79461
     2014.44216       -14.19071        12.73352
     2014.44490       -22.13730        13.20972
     2014.44763       -12.12289        13.01205
     2014.45037        -8.88748        12.65625
     2014.45318         7.31049        12.79641
     2014.45585        -3.65066        12.61312
     2014.45859        -6.35325        12.62390
     2014.46132        -2.30983        12.75328
     2014.46406       -12.81242        12.73352
     2014.46680        -8.81201        12.61312
     2014.46954       -12.27660        12.69039
     2014.47235       -12.73363        12.79641
     2014.47501       -17.36178        12.61491
     2014.47775        -0.54137        12.62390
     2014.48049        -3.50396        12.76766
     2014.48323         4.31546        12.71734
     2014.48596        -3.40613        12.81258
     2014.48870       -11.30572        12.77485
     2014.49151        -2.55975        12.79282
     2014.49418        -8.38090        12.54124
     2014.49692       -13.00549        12.39029
     2014.49965        -9.29308        12.53585
     2014.50239       -15.81766        12.67961
     2014.50513       -11.77225        12.60773
     2014.50787       -17.64884        12.52686
     2014.51068        -9.58687        12.82516
     2014.51334        -3.10002        12.47115
     2014.51608        -3.86961        12.70117
     2014.51882        -6.25520        12.67961
     2014.52156        -4.05379        12.92579
     2014.52429        -8.96837        12.62929
     2014.52703         5.32704        12.84313
     2014.52984        -5.63599        12.92759
     2014.53251        -2.50914        12.55202
     2014.53525        -8.50273        12.72813
     2014.53798        -2.77532        12.37591
     2014.54072        -0.91691        12.68500
     2014.54346        -1.42949        12.58257
     2014.54620         7.06992        12.43342
     2014.54901         5.63089        12.76047
     2014.55167        -6.22526        12.64007
     2014.55441        -0.80885        12.64726
     2014.55715        -0.67344        12.81797
     2014.55989       -13.94303        12.60952
     2014.56262         0.91038        12.57179
     2014.56536        -7.73820        12.46756
     2014.56817        -3.67423        12.75149
     2014.57084       -12.56938        12.62570
     2014.57357        -8.39097        12.65265
     2014.57631        -8.14756        12.55921
     2014.57905        -4.42815        12.50889
     2014.58179        -4.52174        12.91501
     2014.58354       -15.14086        23.99529
     2014.58734        -8.82435        13.46669
     2014.59000         2.96050        12.51249
     2014.59274         0.14991        12.56819
     2014.59548        -0.63868        12.52327
     2014.59822        -3.72727        12.60952
     2014.60095        -0.67686        12.78203
     2014.60369        -1.11544        12.72094
     2014.62567         2.47841        12.82337
     2014.62833        -2.72674        12.79821
     2014.63107         2.56267        12.73531
     2014.63381         3.18708        13.22410
     2014.63655         4.80749        12.77305
     2014.63915         3.28412        13.27441
     2014.64108       -10.83852        22.70145
     2014.64380        -5.41579        26.95674
