# ================= DQRFIT RESULTS ================
# INPUT FILE: series/TULN.rad
# OUTPUT: LDETRENDED
# FILTER FUNCTION: f(t)
# f(t)=+line(t)+annual(t)
# line(t)=+P 1+P 2*t
# annual(t)=+P 3*sin(2*pi*t+P 4)
# heav(t)=(t<0?0:1)
# TOTAL OBSERVATIONS MTOT=  316
# INITIAL TIME INTERVAL= 2007.7728 - 2004.0821 =  3.6906
# TOTAL OBSERVATIONS AFTER PREFILTER M=  315
# TIME-SPAN= 2007.7728 - 2004.0821 =  3.6906
# OBSERVATIONS: USED M=   315 REJECTED MTOT-M=     1 %USED=   99.6835
# N=  4 PARAMETERS
# MAXSIG= 175.00000
# MAXRES=  12.40206
# SCALE FACTOR FOR LENGTHS: SCL=  10.00000
# SCALE FACTOR FOR SIGMAS: SCLSIG=   1.00000
# CHI^2=    206.887 DOF=   311 CHI^2/DOF=   0.66523
# RMS=      4.759 SDEV=      4.767 MEAN=    0.01478
#  P #       PARAMETER +-    SIGMA %error PARAMETER NAME
# P 1 =      1833.83038 +-  467.377  25.49 YZERO                              
# P 2 =        -0.90380 +-    0.233  25.78 SLOPE                              
# P 3 =         5.36549 +-    0.393   7.32 ANNUAL AMPLITUDE                   
# P 4 =        -2.33508 +-    0.073   3.11 ANNUAL PHASE                       
#       T            LDETRENDED       SIG_OBS
     2004.08214         5.62603         4.80806
     2004.08488         0.72451         4.74200
     2004.08762        -5.30202         4.83824
     2004.09035       -16.04054         4.92796
     2004.09583         3.94040         4.80725
     2004.09857        -2.03512         4.90104
     2004.10131        -4.64065         4.87902
     2004.10404        -2.43817         4.85782
     2004.10678         3.58630         4.86108
     2004.10952         0.17278         4.76239
     2004.11226         1.71925         4.76402
     2004.11499        -1.51627         4.89941
     2004.11773         2.70320         4.88636
     2004.12047         3.47367         4.90757
     2004.12321         4.53815         5.03725
     2004.12595         1.01862         4.90675
     2004.26558        -0.99618         4.80970
     2004.26831        -1.82870         4.67920
     2004.27105        -2.09323         4.69062
     2004.27379         1.04624         4.70448
     2004.27653        -4.67128         4.76484
     2004.27927        -6.40381         4.70937
     2004.28200       -11.28933         4.87250
     2004.28474        -5.91886         4.90431
     2004.28748         0.65762         4.72732
     2004.29022        -0.59791         4.72813
     2004.29295        -1.32943         4.71998
     2004.29569        -2.01496         4.73629
     2004.29843        -4.95648         4.67675
     2004.30117         3.50499         4.78686
     2004.30391        -4.72654         4.84558
     2004.30664         6.26494         4.76402
     2004.30938         3.72841         4.71182
     2004.31212        -3.78511         4.71508
     2004.31486        -5.18264         4.72161
     2004.31760        -2.20516         4.73874
     2004.32033         5.03531         4.76484
     2004.32307         7.45979         4.80643
     2004.32581        -5.61474         4.69143
     2004.32855        -7.02527         4.72079
     2004.33128        -7.00979         4.72650
     2004.33402        -0.79432         4.72650
     2004.33676        -4.66684         4.80888
     2004.33950         4.87563         4.93449
     2004.34224        -0.34589         4.97527
     2004.34497        -1.05642         4.83498
     2004.34771         0.91706         4.80888
     2004.35045        -0.49547         4.76565
     2004.35319         0.18500         4.95080
     2004.35593         2.51948         4.94264
     2004.35866        -2.16605         4.82845
     2004.36140        -1.19157         4.79828
     2004.36414         2.64290         4.81133
     2004.36688        12.24338         4.87984
     2004.36961        -1.09215         4.87250
     2004.37235         5.00333         4.84558
     2004.37509         0.80580         4.81133
     2004.37783        -8.39973         4.74118
     2004.38057         4.76375         4.81051
     2004.38330         2.28122         4.85537
     2004.38604        -2.24130         4.80236
     2004.38878        -1.60183         4.66778
     2004.39152         2.19765         4.80970
     2004.39426         4.37012         4.67267
     2004.57222         3.63396         4.75179
     2004.57495        -0.30756         4.75994
     2004.57769         9.02691         4.67267
     2004.58043         6.07739         4.65962
     2004.58317         1.92986         4.64983
     2004.58590         2.44133         4.70530
     2004.58864         2.48381         4.87087
     2004.59138        10.55328         4.74200
     2004.59412         3.45776         4.81051
     2004.59686         0.95923         4.75505
     2004.59959         4.97971         4.65473
     2004.60233         2.79918         4.68980
     2004.60507         7.47766         4.72324
     2004.60781         4.72513         4.74281
     2004.61055         3.28160         4.69551
     2004.61328        -0.83392         4.64902
     2004.61602         8.20655         4.86679
     2004.61876         7.39903         4.79746
     2004.62150         6.89150         4.86842
     2004.62423         3.16598         4.83743
     2004.62697         3.70745         4.79175
     2004.62971         5.61593         4.67593
     2004.63245         8.38540         4.75260
     2004.63519         4.10687         4.77462
     2004.63792         9.67835         4.81867
     2004.64066         6.01482         4.72895
     2004.64340         8.16630         4.73711
     2004.64614        -2.25023         4.75260
     2004.64888         4.13725         4.74852
     2004.65161         3.51472         4.76810
     2004.65435         3.22220         4.66207
     2004.65709         6.13967         4.77218
     2004.65983         2.78314         4.77218
     2004.66256         4.44262         4.82845
     2004.66530         5.81009         4.84232
     2004.66804         6.48757         4.83743
     2004.67078        11.22604         4.80806
     2004.67352        14.90852         4.70367
     2004.67625        13.65599         4.75831
     2004.67899         5.16147         4.74281
     2004.68173         2.92194         4.74281
     2004.68447         6.55942         4.69062
     2004.84052         4.67246         4.75750
     2004.84326        12.92393         4.64249
     2004.84600         8.94041         4.67023
     2004.84874         4.96888         4.69062
     2004.85148        -0.31864         4.73547
     2004.85421         1.06183         5.04949
     2004.85695        -0.63569         4.72732
     2004.85953        -0.31536         5.03399
     2004.86243        -5.70474         4.72242
     2004.86517        -1.97127         4.60253
     2004.86790       -12.15580         4.65228
     2004.87064       -10.67332         4.64983
     2004.87338        -7.38585         4.63515
     2004.87612        -0.58137         4.73547
     2004.87885        -5.78890         4.63842
     2004.88159        -4.42642         4.76157
     2004.88433         0.48905         4.95406
     2004.88707         2.96453         4.75505
     2004.88981         1.42800         4.67104
     2004.89254         2.17747         4.69877
     2004.89528         6.32095         4.72895
     2004.89802         7.35342         4.82927
     2004.90076         5.38590         4.85455
     2005.11157        -4.37957         4.60824
     2005.11431        -4.95609         4.63352
     2005.11705        -6.20062         4.57888
     2005.11979        -8.59614         4.58214
     2005.12252        -8.41167         4.62047
     2005.12526        -7.79720         4.61884
     2005.12800        -8.00272         4.62292
     2005.13074        -4.29625         4.71182
     2005.13347        -7.67977         4.61232
     2005.13621        -6.68830         4.60824
     2005.13895        -6.83282         4.64820
     2005.14169       -13.40435         4.62781
     2005.57427         7.24162         5.02747
     2005.57701        -2.19791         4.96711
     2005.57974        -1.38743         5.01849
     2005.58249         1.79805         5.01605
     2005.58522        11.90152         4.91328
     2005.58796         1.47799         4.81296
     2005.59070        -3.41454         4.77544
     2005.59343        -4.68806         4.75994
     2005.59617         5.23741         4.69225
     2005.59891         6.27389         4.85782
     2005.60165         6.42836         4.89941
     2005.60439         2.89384         4.91491
     2005.91650        -5.49907         4.81704
     2005.91924       -17.18860         4.88310
     2005.92198        -9.48913         4.76973
     2005.92471       -13.26765         4.69877
     2005.92745       -13.91418         4.69143
     2005.93019        -7.73870         4.70530
     2005.93293        -4.70423         4.73955
     2005.93567        -9.30875         4.71998
     2005.93840        -9.61028         4.69551
     2005.94114        -7.40980         4.70367
     2005.94388        -1.99433         4.73303
     2005.94662        -2.21886         4.68164
     2005.94935       -10.94238         4.72079
     2005.95209       -15.46891         4.71835
     2005.95483       -13.43243         4.82275
     2005.95757        -5.46696         4.70448
     2005.96031         0.32552         4.69388
     2005.96304       -13.74801         4.63108
     2005.96852       -11.98206         4.89615
     2006.30528         4.76930         4.73711
     2006.30801        -0.70523         4.81133
     2006.31075         0.31025         4.77952
     2006.31349        -1.97128         4.77870
     2006.31623        -1.34280         4.75016
     2006.32170        -2.34485         4.72242
     2006.32444         0.07762         4.69143
     2006.32718        -2.17690         4.87087
     2006.32992        -0.08743         4.70367
     2006.33265        -5.72295         4.64168
     2006.33539         2.51852         4.66778
     2006.33813         2.59399         4.72732
     2006.34087        -1.26553         4.74852
     2006.34361         1.23994         4.69796
     2006.34634         2.17942         4.71672
     2006.34908       -11.27311         4.75016
     2006.35182        -2.28563         4.77626
     2006.35456        -3.37816         4.74281
     2006.35729        -0.25168         4.71019
     2006.36003        -3.05721         4.75097
     2006.36277        -5.27074         4.71101
     2006.36551       -11.01226         4.69551
     2006.36825        -2.05579         4.71101
     2006.37098        -2.47831         4.83906
     2006.37372        -0.54784         4.85129
     2006.37646         6.35964         4.77055
     2006.37920        -0.52489         4.85619
     2006.38193        -2.22541         4.79828
     2006.38467         1.44306         4.86108
     2006.38741         0.10853         4.86434
     2006.39015         3.22401         4.83172
     2006.39289        -1.60552         4.78686
     2006.39562        -4.22804         4.89860
     2006.39836        -2.33257         4.95161
     2006.40110        -6.91909         4.84314
     2006.40384         1.39638         4.77055
     2006.40658         2.86086         4.75831
     2006.40931        -2.43267         4.78441
     2006.41205        -3.67720         4.79746
     2006.41479        -6.32872         4.80154
     2006.41753         1.60575         4.97119
     2006.42026         4.38323         4.93367
     2006.42300        -4.53830         4.97771
     2006.42574         0.27018         4.99321
     2006.42848        -4.44435         4.89534
     2006.43122        -1.80287         4.94183
     2006.43395         4.93160         4.82845
     2006.43669        -2.13693         4.80480
     2006.43943        -0.88745         4.87739
     2006.44217         4.37402         4.82111
     2006.44491         5.21650         4.84640
     2006.44764         1.59797         4.82356
     2006.45038         4.00545         4.86842
     2006.45312        -2.49008         4.78441
     2006.45586         3.69340         4.80888
     2006.45859        10.20287         4.88229
     2006.46133         6.25935         4.93367
     2006.46407         1.66582         4.91409
     2006.46681         6.43429         4.87984
     2006.94867        -9.89320         4.88473
     2006.95141        -2.24173         4.82519
     2006.95415        -1.46825         5.06009
     2006.95688        -1.43278         4.93856
     2006.95962        -4.76630         5.66609
     2006.96236         0.61217         5.18162
     2006.96510         1.52665         5.04133
     2006.96784        -0.38288         5.02012
     2006.97045        -6.36352         5.60003
     2006.97605        -4.31345         5.47442
     2006.98426        -6.49003         5.80964
     2006.99521        -4.46413         5.71666
     2006.99795        -1.74866         5.45893
     2007.00343        -4.80071         5.41081
     2007.01985        -6.49586         5.25829
     2007.02259        -1.75639         5.03236
     2007.02533        -0.71291         5.12697
     2007.02807        -9.05644         5.53560
     2007.03354        -7.08149         4.80970
     2007.03628        -3.17102         4.63271
     2007.03902        -6.06454         4.64657
     2007.04176        -5.57207         4.70122
     2007.04449        -3.80059         4.66125
     2007.04723        -9.67912         4.77055
     2007.04997        -3.33364         4.81540
     2007.05271        -3.86617         4.81377
     2007.05545        -7.67470         4.67838
     2007.05818        -5.16222         4.63189
     2007.06092        -7.95275         4.61966
     2007.06366        -4.40627         4.61395
     2007.06640        -5.64280         4.68246
     2007.06914        -4.18632         4.57561
     2007.07187         3.37115         4.54951
     2007.07461        -0.23137         4.61558
     2007.07735        -0.30190         4.57969
     2007.08009        -5.48443         4.61068
     2007.08282        -1.07595         4.57969
     2007.08556         0.91452         4.65962
     2007.08830        -1.81900         4.62863
     2007.09104        -2.00053         4.70774
     2007.09378        -6.76905         4.57806
     2007.09651        -7.50258         4.60090
     2007.66051        -0.36884         5.03399
     2007.66325         4.64964         4.94509
     2007.66599        -1.09089         5.01115
     2007.66872         3.94559         5.05030
     2007.67146         2.76606         4.93938
     2007.67420         0.49553         4.94998
     2007.67694         6.28901         4.96711
     2007.67968         3.27548         4.89289
     2007.68241         5.29696         4.88636
     2007.68515         8.15843         5.05275
     2007.68789         7.12691         4.95895
     2007.69063         5.22438         4.89697
     2007.69337         7.59086         4.96466
     2007.69610         6.17233         4.92796
     2007.69884        12.99080         4.96303
     2007.70158         7.81828         4.91980
     2007.70432        11.23775         5.03644
     2007.70705         4.19523         4.90839
     2007.70979         3.47470         4.94835
     2007.71253         3.96718         4.92551
     2007.71527         7.97565         4.71264
     2007.71801        13.74013         4.74771
     2007.72074         8.94860         4.78849
     2007.72348         3.10907         4.81867
     2007.72622         0.85055         4.71916
     2007.72896        13.05602         4.78604
     2007.73170        10.75250         4.75831
     2007.73443         8.34397         4.71264
     2007.73717         3.31545         4.88229
     2007.73991         7.27692         4.77299
     2007.74265         6.87840         4.81785
     2007.74538        11.47387         4.79991
     2007.74812         6.71735         4.91165
     2007.75086        10.02282         5.00544
     2007.75360         7.01329         4.92633
     2007.75634         9.22677         4.80562
     2007.75907        12.49024         4.89370
     2007.76181        11.02872         4.71182
     2007.76455         4.63819         4.73058
     2007.76729         8.88467         5.06172
     2007.77003         7.47314         5.09924
     2007.77276         1.75462         4.97282
