# ================= DQRFIT RESULTS ================
# INPUT FILE: series/TWR1.rad
# OUTPUT: LDETRENDED
# FILTER FUNCTION: f(t)
# f(t)=+line(t)
# line(t)=+P 1+P 2*t
# heav(t)=(t<0?0:1)
# TOTAL OBSERVATIONS MTOT=  235
# INITIAL TIME INTERVAL= 2010.9979 - 2010.2998 =  0.6982
# TOTAL OBSERVATIONS AFTER PREFILTER M=  229
# TIME-SPAN= 2010.9979 - 2010.2998 =  0.6982
# OBSERVATIONS: USED M=   229 REJECTED MTOT-M=     6 %USED=   97.4468
# N=  2 PARAMETERS
# MAXSIG= 175.00000
# MAXRES=  36.38262
# SCALE FACTOR FOR LENGTHS: SCL=  10.00000
# SCALE FACTOR FOR SIGMAS: SCLSIG=   1.00000
# CHI^2=   2182.549 DOF=   227 CHI^2/DOF=   9.61475
# RMS=     18.202 SDEV=     18.114 MEAN=    2.14485
#  P #       PARAMETER +-    SIGMA %error PARAMETER NAME
# P 1 =   -140173.73463 +- ********   7.72 YZERO                              
# P 2 =        69.91712 +-    5.382   7.70 SLOPE                              
#       T            LDETRENDED       SIG_OBS
     2010.29979        -4.79913        10.63411
     2010.30253       -11.16017        10.18648
     2010.30527        -9.59773        10.44090
     2010.30801        -5.00282        10.15374
     2010.31075       -17.40354        10.07221
     2010.31348       -12.78113        10.07517
     2010.31622        -5.89453         9.99382
     2010.31896       -12.09974        10.32043
     2010.32170       -17.31165        10.19370
     2010.32444       -12.44509        10.43115
     2010.32717       -21.54502        17.69846
     2010.32991       -20.65249        17.28900
     2010.33265       -22.84789        17.49378
     2010.33539       -15.43613        18.04846
     2010.33812       -20.69364        17.45949
     2010.34086       -29.46060        17.11620
     2010.34360       -27.72567        17.14279
     2010.34634       -20.15694        18.06180
     2010.34908       -18.82919        17.24676
     2010.35181       -16.43267        17.15849
     2010.35455       -14.89315        18.40468
     2010.35729       -34.50680        41.86324
     2010.36003       -16.27237        17.67081
     2010.36277       -16.02360        17.57032
     2010.36550       -18.49280        19.20275
     2010.36824       -12.96749        17.99001
     2010.37098       -12.72990        18.14452
     2010.37372       -11.37857        17.37633
     2010.37645       -18.80605        18.25936
     2010.37919       -23.25584        18.86788
     2010.38193       -26.81258        18.49870
     2010.38467       -24.73969        17.65153
     2010.38741       -23.64648        17.88504
     2010.39014       -28.77941        17.67230
     2010.39288       -30.92710        17.80099
     2010.39562       -22.33289        18.07565
     2010.39836       -29.38214        17.26724
     2010.40110       -27.08331        17.28732
     2010.40383       -23.50132        17.16148
     2010.40657       -38.80863        17.73730
     2010.40931       -28.23460        17.63217
     2010.41205       -26.46276        17.57247
     2010.41478        21.70746        17.38855
     2010.42300        12.76371        74.70749
     2010.42574        14.95185        76.61188
     2010.42847         6.11504        44.36884
     2010.43121         7.13069        50.63972
     2010.43395        17.82553        65.72343
     2010.43669       -12.13818        51.82795
     2010.43943        13.39074        76.34124
     2010.44216        22.48214        76.80380
     2010.44490        18.18941        74.56888
     2010.45038         5.41207        71.40950
     2010.45311        14.99045        28.33816
     2010.45585        12.12050        19.98167
     2010.45859        21.10097        28.01152
     2010.46133        22.30329        29.26315
     2010.46407        32.87700        42.49712
     2010.46680         2.30064        44.55885
     2010.46954        14.65641        66.62201
     2010.47228         8.93082        61.75487
     2010.47502        15.94693        37.43954
     2010.47775        10.49532        34.36765
     2010.48049         8.72758        41.91726
     2010.48323        25.55411        17.03999
     2010.48597        18.95840        16.93349
     2010.48871        19.51731        20.99938
     2010.49144        36.38262        68.91558
     2010.49418        14.83459        20.40263
     2010.49692        19.90107        16.98375
     2010.49966        15.41877        16.95197
     2010.50240        20.16848        17.24113
     2010.50513        21.15136        16.97900
     2010.50787        14.09896        17.07495
     2010.51061        21.30733        16.99368
     2010.51335        25.03591        16.93123
     2010.51608        21.58962        17.32669
     2010.51882        27.49932        16.99688
     2010.52156        21.12626        17.10181
     2010.52430        23.34776        17.06724
     2010.52704        13.82769        16.97645
     2010.52977        24.27425        16.99510
     2010.53251        22.20720        16.98381
     2010.53525        20.99848        17.14057
     2010.53799        25.11418        17.35534
     2010.54073        23.18261        18.85294
     2010.54346        16.26131        19.53156
     2010.54620        18.03502        17.32641
     2010.54894        24.24725        17.08247
     2010.55168        24.23188        17.40954
     2010.55441        22.38893        18.31108
     2010.55715        20.71099        16.98297
     2010.55989        15.71787        17.15489
     2010.56263        26.88099        17.49880
     2010.56537        27.30593        17.11298
     2010.56810        21.19693        17.50358
     2010.57084        23.13031        17.03921
     2010.57358        18.91236        17.90409
     2010.57632        18.76314        17.89154
     2010.57906        15.53868        17.45971
     2010.58179        28.66669        17.41569
     2010.58453        19.05905        17.12849
     2010.58727        15.67817        17.42083
     2010.59001        32.66715        17.52588
     2010.59274        28.88179        17.10549
     2010.59548        25.77023        17.08774
     2010.59822        26.68234        17.65069
     2010.60096        18.51278        17.10366
     2010.60370        19.32859        17.15099
     2010.60643        18.97671        17.10344
     2010.60917        25.18708        17.00716
     2010.61191        21.36632        17.10630
     2010.61465        22.94933        17.10884
     2010.61739        28.14125        17.09038
     2010.62012        26.78963        17.17182
     2010.62286        19.31475        17.54660
     2010.62560        16.72386        17.11059
     2010.62834        16.74781        17.46331
     2010.63107        26.29513        17.54696
     2010.63381        20.68288        17.49564
     2010.63655        25.75156        17.14569
     2010.63929        13.61125        17.36982
     2010.64203        15.01752        17.74543
     2010.64476        17.12701        17.55362
     2010.64750        18.13522        17.15722
     2010.65024        18.83019        18.46538
     2010.65298        19.99197        17.70810
     2010.65572        15.35638        17.22874
     2010.65845        23.62233        17.15244
     2010.66119        17.93285        17.13165
     2010.66393        13.76804        17.12220
     2010.66667        24.10140        78.37014
     2010.66940        10.51643        52.56992
     2010.67214        16.01855        52.44992
     2010.67488        17.10961        80.53591
     2010.67762        13.80187        77.67717
     2010.68036        -2.88959        75.89648
     2010.68309        -7.50886        75.45301
     2010.68583        -8.62369        73.47398
     2010.68857        -6.56492        75.84538
     2010.69131         1.98468        74.68117
     2010.69405         3.64007        77.06808
     2010.69678         9.48838        73.42896
     2010.69952        27.35846        88.95322
     2010.70500         2.39308        39.36247
     2010.70773         7.91094        18.97724
     2010.71321        13.21012        17.28269
     2010.71595        14.36177        17.70161
     2010.71869         4.19819        29.88280
     2010.72142        14.30150        19.34188
     2010.72416         6.03812        18.51401
     2010.72690         0.13358        17.75036
     2010.72964         9.55899        17.30316
     2010.73238         5.07158        17.38807
     2010.73511        12.64827        17.93526
     2010.73785         3.35383        17.72260
     2010.74059        10.65701        17.77383
     2010.74333        15.33205        21.18001
     2010.77892       -24.67739        55.92358
     2010.78166         5.99721        17.75219
     2010.78439         8.67835        17.98507
     2010.78713         5.78260        18.11264
     2010.78987         5.06647        17.20075
     2010.79261         3.19460        17.30609
     2010.79535         5.90477        17.59980
     2010.79808         3.59247        17.49997
     2010.80082         6.99454        17.52401
     2010.80356        11.99270        17.73462
     2010.80630        -4.72067        17.27997
     2010.80903        10.10880        17.55292
     2010.81177         9.85711        17.51485
     2010.81451         7.36631        17.31171
     2010.81725        -0.06445        17.32623
     2010.81999        -2.11469        17.71247
     2010.82272         7.71429        17.52359
     2010.82546         0.91657        18.00866
     2010.82820        -0.01061        17.65827
     2010.83094        -4.46803        18.41579
     2010.83368       -11.26732        18.49535
     2010.83641       -13.60958        17.55992
     2010.83915        -2.33185        18.34190
     2010.84189        -2.19937        17.43739
     2010.84463         7.70413        17.63252
     2010.84736         2.70859        17.46979
     2010.85010        -2.44478        17.68581
     2010.85284       -12.27560        17.49298
     2010.85558        -9.24827        18.03417
     2010.85832        -5.62963        17.60630
     2010.86105       -18.75474        17.16344
     2010.86379       -16.61412        17.46951
     2010.86653       -16.89534        17.24411
     2010.86927       -13.57397        17.52296
     2010.87201       -20.48000        17.64043
     2010.87474       -10.43805        17.37991
     2010.87748        -8.05624        17.77933
     2010.88296       -13.55540        17.63501
     2010.88569        -9.28482        17.20639
     2010.88843        -5.54869        18.02721
     2010.89117         6.36046        23.80201
     2010.91855        14.96197        17.52903
     2010.92129       -28.85216        17.03129
     2010.92402        -5.69253        17.03072
     2010.92676       -17.63360        17.93085
     2010.92950       -15.81573        17.01101
     2010.93224       -19.57251        17.29101
     2010.93498       -17.72884        17.41736
     2010.93771       -19.77665        17.05252
     2010.94045       -18.87094        17.40387
     2010.94319       -20.08229        17.01739
     2010.94593       -30.55416        17.06560
     2010.94867       -23.78084        17.13143
     2010.95140       -18.38112        17.99493
     2010.95414       -24.36121        17.65365
     2010.95688       -32.22192        17.11543
     2010.95962       -14.22466        17.66106
     2010.96235       -10.26273        18.19435
     2010.96509       -16.76725        17.49416
     2010.96783       -10.49933        17.49381
     2010.97057       -13.04194        17.96387
     2010.97331       -16.82135        17.42575
     2010.97604       -24.51230        17.51857
     2010.97878       -22.88881        17.12321
     2010.98152       -29.64132        17.09449
     2010.98426       -29.17518        17.43548
     2010.98700        -9.84867        17.64832
     2010.98973         9.65815        18.41553
     2010.99247        -7.91071        17.79558
     2010.99521        -7.82198        17.61583
     2010.99795       -12.33851        17.96382
