# ================= DQRFIT RESULTS ================
# INPUT FILE: series/TWRI.rad
# OUTPUT: LDETRENDED
# FILTER FUNCTION: f(t)
# f(t)=+line(t)+annual(t)+jumps(t)
# line(t)=+P 1+P 2*t
# annual(t)=+P 3*sin(2*pi*t+P 4)
# jumps(t)=+P 5*heav(t-2004.9268  )+P 6*heav(t-2009.4565  )+P 7*heav(t-2012.5914  )
# heav(t)=(t<0?0:1)
# TOTAL OBSERVATIONS MTOT= 3961
# INITIAL TIME INTERVAL= 2022.7488 - 2004.7666 = 17.9822
# TOTAL OBSERVATIONS AFTER PREFILTER M= 3795
# TIME-SPAN= 2022.7488 - 2004.7666 = 17.9822
# OBSERVATIONS: USED M=  3795 REJECTED MTOT-M=   166 %USED=   95.8091
# N=  7 PARAMETERS
# MAXSIG= 175.00000
# MAXRES= 430.13362
# SCALE FACTOR FOR LENGTHS: SCL=  10.00000
# SCALE FACTOR FOR SIGMAS: SCLSIG=   1.00000
# CHI^2=  21091.168 DOF=  3788 CHI^2/DOF=   5.56789
# RMS=     16.957 SDEV=     16.958 MEAN=   -0.13810
#  P #       PARAMETER +-    SIGMA %error PARAMETER NAME
# P 1 =      3805.61647 +-  204.190   5.37 YZERO                              
# P 2 =        -1.97947 +-    0.102   5.15 SLOPE                              
# P 3 =         9.42199 +-    0.372   3.94 ANNUAL AMPLITUDE                   
# P 4 =         2.12293 +-    0.031   1.47 ANNUAL PHASE                       
# P 5 =        -7.53990 +-    2.076  27.53 OFFSET 2004.9268                   
# P 6 =         1.57231 +-    0.880  55.99 OFFSET 2009.4565                   
# P 7 =       102.46000 +-    1.002   0.98 OFFSET 2012.5914                   
#       T            LDETRENDED       SIG_OBS
     2004.76660        -4.77996        14.98606
     2004.76884         5.18147        19.72657
     2004.77208         7.91188        15.21258
     2004.77482         5.03830        14.90111
     2004.77755        12.72172        14.94595
     2004.78029         5.31014        14.97190
     2004.78303         6.98756        14.89403
     2004.78577         3.71497        14.97898
     2004.78851        13.15839        15.09224
     2004.79124        -1.27119        14.57784
     2004.79398        19.37323        14.55189
     2004.79672        29.05365        14.51649
     2004.79946        36.63207        14.79257
     2004.80220        30.87849        15.01673
     2004.80493        21.15091        14.62739
     2004.80767        16.58333        14.97662
     2004.81041        31.39975        14.92471
     2004.81315        22.36717        14.51649
     2004.81588        20.85059        14.48818
     2004.81862        16.87001        14.95538
     2004.82136        17.30343        15.16067
     2004.82410         9.76185        15.05921
     2004.82684         0.69327        14.88695
     2004.82957        23.89969        15.31169
     2004.83231        16.30511        14.52121
     2004.83505       -12.60847        15.10640
     2004.83778         5.89394        15.04741
     2004.84052        -9.79865        15.08988
     2004.84325         8.63977        15.04505
     2004.84599         3.68718        15.30225
     2004.84873         4.95660        14.85628
     2004.85147        -1.85898        15.37540
     2004.85420        -2.79256        18.61046
     2004.85694         6.27186        15.34000
     2004.85968        12.47528        15.67507
     2004.86242         2.74170        15.43911
     2004.86516         1.99912        14.95538
     2004.86789        -2.77846        15.32821
     2004.87063        -3.24704        15.54529
     2004.87337        10.08138        15.57125
     2004.87611        18.00680        14.84684
     2004.87885         4.19122        15.15595
     2004.88158        17.27864        15.55945
     2004.88432        13.47306        15.56653
     2004.88706         0.49848        15.77418
     2004.88980         8.37890        15.72463
     2004.89253        -2.92968        15.61136
     2004.89527        -5.73226        15.73170
     2004.89801       -12.91984        16.41364
     2004.90075        21.59757        15.99834
     2004.90349        18.03099        15.84733
     2004.90622        19.54241        15.30225
     2004.90896         3.12983        15.51462
     2004.91170        -2.24475        14.97426
     2004.91444        -7.25733        15.14651
     2004.91718       -16.18291        15.20079
     2004.91991        -4.61749        15.29281
     2004.92265         3.87093        15.15359
     2004.92539         2.43635        15.34236
     2004.92807        14.03066        15.97947
     2004.98015        -0.56326        15.86148
     2004.98288        20.16716        15.04977
     2004.98562        11.38658        15.48866
     2004.98836         4.53700        15.48630
     2004.99110         7.54042        15.84497
     2004.99384         7.13084        15.60192
     2004.99657        -4.80674        15.02853
     2004.99920         2.90145        15.71991
     2005.00479        -4.01848        15.02617
     2005.00752       -17.17406        15.38720
     2005.01026       -22.62964        15.34944
     2005.01300        -0.66323        15.25978
     2005.01574         5.46019        15.58305
     2005.01848        10.96061        15.32585
     2005.01996       -32.50845        95.07924
     2005.08813       -12.93951        44.04264
     2005.08966       -11.83548        14.97662
     2005.09240       -10.92506        14.98842
     2005.09514        -2.68764        14.99550
     2005.09787         9.84278        15.00258
     2005.10061         1.07320        14.34660
     2005.10335         5.34862        14.71234
     2005.10609         8.34504        14.89167
     2005.10882        -7.77154        15.50046
     2005.11156        -2.13312        15.08044
     2005.11430        -2.69270        15.32585
     2005.11704        -5.72228        14.74774
     2005.11978        15.30614        14.76661
     2005.12251         5.03455        14.48582
     2005.12525         0.80897        14.91763
     2005.12799       -11.12061        15.24798
     2005.13073        -5.71119        15.74114
     2005.13347        -5.76877        15.10404
     2005.13620        -2.81735        15.42731
     2005.13894        -7.70993        15.13944
     2005.14168       -11.24551        14.82560
     2005.14442        -4.62909        15.55237
     2005.14715        -5.76167        16.08093
     2005.14989        -6.15425        16.14700
     2005.15263         1.18117        15.51698
     2005.15537        -2.24541        15.03561
     2005.15811        -6.56199        15.29517
     2005.16084        -3.08457        14.82796
     2005.16358        12.64885        14.96246
     2005.16632         5.57227        14.96246
     2005.16906         0.36869        15.49102
     2005.17180       -11.76789        15.46035
     2005.17453         2.88053        16.04318
     2005.17727        -9.88006        16.28150
     2005.18001         7.60536        15.74586
     2005.18275         1.98278        15.25034
     2005.18489         8.80103        22.67140
     2005.18822       -11.29538        15.43675
     2005.19096         4.06904        15.47686
     2005.19370        -0.62254        15.01909
     2005.19644        -2.52712        14.88459
     2005.19917        -4.69270        14.67931
     2005.20191        -2.38528        15.46978
     2005.20465        -2.77586        15.07337
     2005.20739         4.26356        14.83032
     2005.21013        -6.17102        14.57784
     2005.21286         0.21340        15.18663
     2005.21560         6.26582        15.09224
     2005.21834         0.70824        15.03797
     2005.22108        -0.80234        15.13000
     2005.22381         7.19208        14.65099
     2005.22655        -1.51850        14.48110
     2005.22929        -5.98108        14.64627
     2005.23203        -9.16067        14.70054
     2005.23477        17.49275        15.44619
     2005.23750        12.64817        14.94123
     2005.24024        17.82959        15.46507
     2005.24298        53.42101        15.56653
     2005.24572        52.78543        16.17768
     2005.24846        24.35485        15.49338
     2005.25119        14.89227        15.42023
     2005.25393        29.36969        16.07621
     2005.25667        36.71211        15.61844
     2005.25941        25.12453        15.40843
     2005.26214        -1.26305        15.48158
     2005.26488        -0.09863        15.52170
     2005.26762        -1.59321        15.29517
     2005.27036         3.50021        16.32161
     2005.27310        -2.17237        16.27678
     2005.27583         0.59705        15.68215
     2005.27857        -0.98053        15.24326
     2005.28131         5.05689        15.75294
     2005.28405        -0.25569        15.46743
     2005.28679         0.73972        15.26922
     2005.28952         1.64614        16.09745
     2005.29226         3.71156        15.88980
     2005.29500        -5.14102        14.95066
     2005.29774        -0.75360        16.44903
     2005.29982       -14.51647        23.40997
     2005.30321        -5.90976        16.50331
     2005.30595         5.78166        16.71095
     2005.30869         5.37908        17.29614
     2005.31143       -12.11050        16.59533
     2005.31416         1.58592        17.08142
     2005.31690         7.03534        16.72275
     2005.31964         2.54676        16.44196
     2005.32238        -4.86182        16.35937
     2005.32512        -7.20340        16.19419
     2005.32785         2.31702        16.20127
     2005.33059        -8.38656        15.90868
     2005.33333       -11.72114        17.38817
     2005.33607         3.02028        16.78410
     2005.33858         2.17424        18.47360
     2005.34154         9.39411        16.19183
     2005.34428        -2.11047        16.66140
     2005.34702        -8.63605        15.98655
     2005.34976       -15.57963        15.81429
     2005.35249        -7.43821        16.76051
     2005.35523        -8.80179        16.13284
     2005.35797        -2.50237        16.28386
     2005.36071        -5.58195        16.73455
     2005.36344        -4.97753        16.30038
     2005.36618         0.68089        16.13756
     2005.36892        -0.74969        16.81950
     2005.37166        -1.82927        16.59769
     2005.37440         9.16115        15.26450
     2005.37713         1.82457        15.76710
     2005.37987        14.38099        16.66140
     2005.38261         8.13041        16.40420
     2005.38535        12.39683        15.98655
     2005.38809         5.09625        16.00778
     2005.39082        12.00667        16.44432
     2005.39356       -11.04891        16.78174
     2005.39630       -12.05449        17.02007
     2005.39904        -7.39008        16.68028
     2005.40177        -9.29666        16.83130
     2005.40451        10.57176        16.32633
     2005.40725         0.88418        16.29330
     2005.40999        -6.89140        16.18004
     2005.41273        -8.77098        16.18476
     2005.41546       -24.81456        15.51226
     2005.41820       -22.31414        15.25742
     2005.42094        -5.90872        15.72699
     2005.42368        -2.48030        15.55473
     2005.42642       -10.36088        15.81665
     2005.42915        -2.59946        15.15831
     2005.43189       -12.18704        15.69867
     2005.43463       -21.85562        15.82373
     2005.43737        -7.59420        16.34757
     2005.44010        -9.36878        16.21307
     2005.44284       -19.53336        16.43252
     2005.44558       -23.38994        16.26970
     2005.44832         1.86748        17.35985
     2005.45106        -7.48810        16.21071
     2005.45379         2.33031        16.10925
     2005.45653       -12.82227        16.03610
     2005.45927       -18.03585        15.48866
     2005.46201         1.59257        15.99834
     2005.46475        -3.70601        15.99834
     2005.46748         0.29941        16.61657
     2005.47022        -9.44717        16.11397
     2005.47296        -7.33575        15.70339
     2005.47570        -8.33033        15.48866
     2005.47843        -6.04191        15.66799
     2005.48117         5.13551        15.83789
     2005.48391        -6.30307        15.14887
     2005.48665       -11.85365        15.16775
     2005.48939        -4.99823        15.08516
     2005.49212         0.08619        15.28337
     2005.49486        -6.18539        14.63211
     2005.49760        -8.53297        14.79729
     2005.50034        -2.00955        14.64627
     2005.50308        -8.80913        15.07809
     2005.50581       -10.31471        14.54953
     2005.50855        -2.29930        14.68874
     2005.51129        -7.19288        14.76897
     2005.51403        -7.80946        14.96010
     2005.51676        -6.90504        15.01202
     2005.51950        -1.04662        15.18899
     2005.52224        -9.16220        14.62032
     2005.52498         0.71222        14.71470
     2005.52772        -8.17236        15.00258
     2005.53045        -8.61394        14.40559
     2005.53319         2.33248        14.59436
     2005.53593        -5.35910        14.42683
     2005.53867        -1.67368        15.04977
     2005.54141        -4.76326        14.60380
     2005.54414         0.90816        14.87988
     2005.54688         0.77458        14.54953
     2005.54962        -4.76900        14.45042
     2005.55236        -3.09858        14.70290
     2005.55509        -6.33316        15.03089
     2005.55783         1.94026        14.54953
     2005.56057        -5.95132        14.68403
     2005.56331        -5.41291        15.00022
     2005.56605        -3.50649        15.12528
     2005.56878        -0.28407        15.30225
     2005.57152       -10.74465        15.69395
     2005.57426        -2.23823        14.90583
     2005.57700        -4.78781        14.77841
     2005.57974         0.33661        15.30933
     2005.58247         0.04303        15.00494
     2005.58521        -4.68955        14.94830
     2005.58795         7.35687        14.54245
     2005.59069        -3.21871        14.58492
     2005.59342        -3.64629        14.62739
     2005.59616         1.87813        14.65099
     2005.59890         0.89855        14.73594
     2005.60164         3.49497        14.73122
     2005.60438        -2.10461        14.67223
     2005.60711        -2.94019        14.66279
     2005.60985         7.92623        15.38720
     2005.61259         6.15265        15.45327
     2005.61533         0.18807        14.53301
     2005.61807         3.64848        14.39851
     2005.62080        -8.99210        14.79965
     2005.62354        -1.86668        15.45563
     2005.62628         7.10174        15.20551
     2005.62902         7.14316        14.67223
     2005.63175        -6.30042        14.53065
     2005.63449        10.81200        14.75010
     2005.63723        16.77942        14.87752
     2005.63997         9.17984        14.91055
     2005.64271         5.53126        14.83268
     2005.64544         4.21368        14.67695
     2005.64818         0.84510        14.45750
     2005.65092         4.67752        14.67931
     2005.65366         1.01994        14.56368
     2005.65639         3.56936        14.50469
     2005.65913        -4.48922        14.66987
     2005.66187         6.06320        14.78077
     2005.66461        -2.81638        14.70526
     2005.66735         3.55604        14.59436
     2005.67008         9.55146        14.83504
     2005.67282        -1.28813        14.52357
     2005.67556         4.85029        14.40323
     2005.67830        -4.52929        14.39615
     2005.68104        -4.54887        14.71234
     2005.68377        -5.94345        15.14415
     2005.68651         0.52297        14.59672
     2005.68925        -3.10661        14.68403
     2005.69199       -21.87519        14.55425
     2005.69472       -10.17477        15.47686
     2005.69746        -3.28835        14.74302
     2005.70020         8.47007        15.12292
     2005.70294         4.00149        14.88931
     2005.70568        -0.05409        14.87516
     2005.70841         3.11933        14.91763
     2005.71115        -3.40925        14.62503
     2005.71389         3.44317        14.76425
     2005.71663         0.84759        14.67459
     2005.71937         2.32301        14.70290
     2005.72210         1.89343        14.76897
     2005.72484        -4.18815        14.58020
     2005.72758        -1.97874        15.15831
     2005.73032        -8.15732        14.82560
     2005.73305         0.35310        14.60852
     2005.73579         8.08152        14.75717
     2005.73853         6.45594        15.07809
     2005.74127         2.25436        14.98842
     2005.74401        -0.20822        14.87044
     2005.74674         0.27120        14.48110
     2005.74948         0.23762        14.71706
     2005.75222       -11.91596        14.97898
     2005.75496         3.17846        14.77369
     2005.75770        -6.11812        14.90583
     2005.76043       -12.39270        14.67459
     2005.76317         1.81472        14.57548
     2005.76591         0.87014        14.61560
     2005.76865         2.05756        14.85864
     2005.77138        -0.46502        14.59908
     2005.77412         0.64340        14.63683
     2005.77686        -2.79718        14.93651
     2005.77960         0.58024        14.97426
     2005.78234         3.32166        15.15831
     2005.78507         3.19807        14.81145
     2005.78781        11.62249        14.73830
     2005.79055        -6.27109        14.72650
     2005.79329         5.49133        14.75010
     2005.79603         5.89675        14.84212
     2005.79876        -1.32683        14.95066
     2005.80150        -7.06741        14.66515
     2005.80424         2.97501        14.70762
     2005.80698        -0.68957        14.36783
     2005.80971         3.82785        14.54245
     2005.81245        -7.15773        14.30176
     2005.81519         0.72269        14.40323
     2005.81793        10.89611        14.66043
     2005.82067        -8.33647        14.35604
     2005.82340        -2.30705        14.61796
     2005.82614         0.09537        14.53301
     2005.82888         2.68379        14.33716
     2005.83162         6.31221        15.02617
     2005.83436         2.74663        14.91055
     2005.83709        -4.84595        14.82324
     2005.83983        -8.03254        15.12292
     2005.84257         3.24388        15.27393
     2005.84531        -2.67770        15.80721
     2005.84804        17.08472        15.52406
     2005.85078        12.19814        15.05685
     2005.85352        18.09256        15.10404
     2005.85626         4.25898        16.02902
     2005.85900         2.98840        15.72463
     2005.86173         0.40482        15.34000
     2005.86447        -8.63876        14.72414
     2005.86721        -7.57634        15.39900
     2005.86995       -11.05692        15.15359
     2005.87269       -23.69750        16.27442
     2005.87542       -11.69608        16.24139
     2005.87816       -15.96266        16.55522
     2005.88090       -11.25624        15.91812
     2005.88364        -5.68882        16.36173
     2005.88637       -12.80640        15.55709
     2005.88911        -1.84398        16.07149
     2005.89185        -9.63756        15.43439
     2005.89459        -3.12715        15.35652
     2005.89733        -6.36373        15.92755
     2005.90006       -15.78731        15.17719
     2005.90280       -26.89489        14.99314
     2005.90554       -41.11247        14.98606
     2005.90828       -36.73805        14.66515
     2005.91102       -11.48863        15.09696
     2005.91375       -23.75421        14.91763
     2005.91649       -26.76979        14.96246
     2005.91923       -19.91437        15.03797
     2005.92197       -18.95995        14.42918
     2005.92470       -32.96853        14.77133
     2005.92744       -30.97811        14.96718
     2005.93018       -21.08169        14.64391
     2005.93292       -17.42627        14.64391
