# ================= DQRFIT RESULTS ================
# INPUT FILE: series/TWSP.rad
# OUTPUT: LDETRENDED
# FILTER FUNCTION: f(t)
# f(t)=+line(t)+annual(t)+jumps(t)
# line(t)=+P 1+P 2*t
# annual(t)=+P 3*sin(2*pi*t+P 4)
# jumps(t)=+P 5*heav(t-2016.2207  )
# heav(t)=(t<0?0:1)
# TOTAL OBSERVATIONS MTOT= 2600
# INITIAL TIME INTERVAL= 2022.7488 - 2015.6003 =  7.1485
# TOTAL OBSERVATIONS AFTER PREFILTER M= 2541
# TIME-SPAN= 2022.7488 - 2015.6003 =  7.1485
# OBSERVATIONS: USED M=  2541 REJECTED MTOT-M=    59 %USED=   97.7308
# N=  5 PARAMETERS
# MAXSIG= 175.00000
# MAXRES=  47.87843
# SCALE FACTOR FOR LENGTHS: SCL=  10.00000
# SCALE FACTOR FOR SIGMAS: SCLSIG=   1.00000
# CHI^2=   5643.843 DOF=  2536 CHI^2/DOF=   2.22549
# RMS=      8.823 SDEV=      8.824 MEAN=    0.02748
#  P #       PARAMETER +-    SIGMA %error PARAMETER NAME
# P 1 =       618.22191 +-  194.911  31.53 YZERO                              
# P 2 =        -0.30663 +-    0.097  31.53 SLOPE                              
# P 3 =         6.21427 +-    0.244   3.92 ANNUAL AMPLITUDE                   
# P 4 =         2.34958 +-    0.038   1.61 ANNUAL PHASE                       
# P 5 =        -0.75918 +-    0.728  95.83 OFFSET 2016.2207                   
#       T            LDETRENDED       SIG_OBS
     2015.60026        17.95782        12.70573
     2015.60299        16.12966        12.60876
     2015.60577        11.23651        12.60428
     2015.60850         3.13534        13.96481
     2015.61123        19.46218        12.90414
     2015.61397        16.48302        17.53321
     2015.61670        -1.32214        12.98022
     2015.61943         9.16470        12.61323
     2015.62491        23.25838        10.28751
     2015.62765        14.58722         8.45109
     2015.63039        14.54206         8.53463
     2015.63312        13.48589         8.50181
     2015.63566        10.95667         9.01052
     2015.63905        12.49971        11.43321
     2015.64134        17.59841         8.61668
     2015.64407        16.17225         8.56148
     2015.64681        10.88809         8.44512
     2015.64955        15.84193         8.32727
     2015.65229        16.25177         8.42424
     2015.65503        26.31661         8.16317
     2015.65776        18.10645         8.50480
     2015.66051        23.07429        11.16469
     2015.66324        18.33513         8.31832
     2015.66598        10.14597         8.57939
     2015.66872        14.07181         8.60325
     2015.67145        15.97365         8.68530
     2015.67419        15.35949         8.08560
     2015.67693        15.64433         8.69724
     2015.67966        14.33516         8.89863
     2015.68240        10.96501         8.56596
     2015.68514         4.36185         8.97621
     2015.68788         9.25469         8.79421
     2015.69062         8.80152         9.57740
     2015.69336        14.49136         8.66293
     2015.69609         9.06720         8.88521
     2015.69883        24.66604         8.58088
     2015.70157        12.55488         8.81360
     2015.70431        18.63672         8.82852
     2015.70705        17.93956         8.50927
     2015.70978        15.00440         8.29445
     2015.71252         4.69124         8.27953
     2015.71526        10.33908         8.34368
     2015.71800        14.86592         8.73006
     2015.72073        23.50776         8.78675
     2015.72347        18.85460         8.33622
     2015.72621         8.11344         8.42573
     2015.72895        15.29428         8.83001
     2015.73169        18.19812         8.55999
     2015.73442         9.26896         8.38396
     2015.73713         5.93979         8.95980
     2015.73992        17.33064         8.73603
     2015.74264        13.62048         8.89565
     2015.74538        17.29631         8.83896
     2015.74809         7.73315         9.14478
     2015.75085         7.01599         8.47048
     2015.75359         7.68483         8.33920
     2015.75633        10.26067         8.55701
     2015.75906        13.12951         9.06721
     2015.76180         3.64635         8.30788
     2015.76454        10.00819         8.37501
     2015.76731         4.50404         8.91653
     2015.77002        10.26087         8.77630
     2015.77275        13.44871         8.39589
     2015.77549        11.87155         9.28501
     2015.77823        18.59839         9.56547
     2015.78097         1.63323         8.84791
     2015.78371        14.14207         8.37799
     2015.78644        10.75791         8.73304
     2015.78916         6.29474        11.69726
     2015.79194        14.33459         8.60176
     2015.79466         8.92743         8.58386
     2015.79739        12.49827         8.94637
     2015.80013         5.63011         8.83598
     2015.80290         4.24296         8.49734
     2015.80561         2.05678         8.51971
     2015.80835         5.22562         8.30340
     2015.81108         3.63146         8.72111
     2015.81382         6.61730         8.36307
     2015.81656         4.47914         8.72409
     2015.81930         2.09998         9.14329
     2015.82203        10.66582         8.51822
     2015.82478         8.21566         8.33622
     2015.82753         7.93751         8.99112
     2015.83025        17.33334         8.45407
     2015.83299         7.56918         8.54657
     2015.83572         5.12002         8.49435
     2015.83846         6.57686         8.92996
     2015.84120         2.68470         8.48242
     2015.84394         5.15754         8.92698
     2015.84668         3.09638         9.06422
     2015.84941        10.41822         8.76885
     2015.85215         7.68006         8.80763
     2015.85489         7.91090         9.23578
     2015.85763         4.53674         8.48988
     2015.85980        -0.27560        11.67339
     2015.86312         5.20942         8.47347
     2015.86584        13.89925        10.53962
     2015.86858         9.28809         9.17611
     2015.87132        13.99193         8.87775
     2015.87405         6.91577         9.17909
     2015.87679        -9.77039         9.07765
     2015.87951         5.36544         8.63160
     2015.88227         6.31629         8.79868
     2015.88501        -8.19787         9.53414
     2015.88774        -2.62103         9.18357
     2015.89048         0.13381         9.46850
     2015.89322         6.56265         8.87626
     2015.89596         6.69549         8.37053
     2015.89869         9.30333         8.74199
     2015.90142        -2.00684         8.54806
     2015.90417        -2.88299         9.90859
     2015.90691        -0.12315         9.15672
     2015.90965        -0.32631         9.20594
     2015.91238         2.73353         8.58535
     2015.91512         4.36037         8.55253
     2015.91788         2.44121         8.75989
     2015.92060       -13.06896         8.66591
     2015.92607        -2.05628         8.74050
     2015.92881         4.56256         8.68680
     2015.93155         5.98840         9.22534
     2015.93429        -8.28876         9.24026
     2015.93703        11.26008         8.87924
     2015.93977         5.24192         9.50729
     2015.94248        11.20275        10.24424
     2015.94524         5.25860         8.83150
     2015.94798        -3.86356         9.31335
     2015.95071        -2.35872         9.41331
     2015.95345         5.31312         9.20744
     2015.95618        -5.17304         9.99959
     2015.95893         0.99780         8.68680
     2015.96167        -0.58536         8.59729
     2015.96440        -5.00452         8.45258
     2015.96714        -8.10168         9.23131
     2015.96988        -4.63584         8.80166
     2015.97262        -5.76000         8.86730
     2015.97535        -4.52317         8.54060
     2015.97809       -11.14233         8.55104
     2015.98083       -11.71649         9.00455
     2015.98357       -18.17965         8.51971
     2015.98631       -13.71381         9.00157
     2015.98904       -16.62497         8.83896
     2015.99179       -15.24613         8.59132
     2015.99452       -17.39129         9.05229
     2015.99726        -9.77545         8.76139
     2016.00001       -10.55161         8.51225
     2016.00273       -10.32977         8.34070
     2016.00547       -11.42993         9.04334
     2016.00821       -17.00509         8.61668
     2016.01095       -10.78025         8.98516
     2016.01369        -8.18241         8.86432
     2016.01642         3.45743         9.35513
     2016.01916        -1.44073         9.43568
     2016.02190         0.85611         8.73006
     2016.02464         1.32395         9.19550
     2016.02737         0.68579         9.13285
     2016.03011        -3.09138         9.11345
     2016.03285       -18.66154         8.27357
     2016.03559         4.04630         8.95085
     2016.03833        -1.32086         8.51524
     2016.04106        -2.76202         8.32876
     2016.04380       -10.00318         9.00604
     2016.04653         7.14566         8.61221
     2016.04928         0.09950         9.40883
     2016.05201       -12.21766         9.31932
     2016.05475        -5.48082         8.51673
     2016.06023        -3.18314         9.59978
     2016.06295        -4.19431         9.32380
     2016.06571         0.87954         8.97621
     2016.06845        -3.20262         9.13583
     2016.07118        -0.57378         9.25965
     2016.07392         3.52806         8.92399
     2016.07665         2.67389         9.71316
     2016.07940         1.37974         9.92947
     2016.08213         0.19358         8.68381
     2016.08487         0.23242         8.88222
     2016.08761        -2.90875         9.07914
     2016.09034        -1.61491         9.36855
     2016.09308        -8.80407         9.23578
     2016.09583       -16.01122         8.52270
     2016.09852       -11.01440         8.56894
     2016.10130        -9.45055         8.81360
     2016.10403        -8.22371         8.18704
     2016.10677        -7.41187         8.96427
     2016.10951        -1.79703         8.63757
     2016.11225       -12.70819         8.92399
     2016.11498        -6.59335         8.51673
     2016.11774        -4.28950         9.44165
     2016.12048         1.08733         8.91206
     2016.12320        -2.99583         8.55850
     2016.12594        -2.53599         8.54955
     2016.12866        -2.59916         8.61668
     2016.13140         7.10468         8.43468
     2016.13416        -3.18047         8.53314
     2016.13689        -1.34263         8.54955
     2016.13957        -6.51081         9.18506
     2016.14239       -14.00395         8.96129
     2016.14510       -13.29712         8.64055
     2016.14784        -4.22428         8.26909
     2016.15058        -3.17044         8.46004
     2016.15331        -1.53560         8.40186
     2016.15606        -2.90876         8.76288
     2016.15879        -4.07292         8.55850
     2016.16153        -5.56508         8.58386
     2016.16427        -5.77424         8.93593
     2016.16701       -21.53040         8.69127
     2016.16974        -4.97956         8.11096
     2016.17248        -4.14772         8.73155
     2016.17522        -6.63488         8.39440
     2016.17796         2.86696         8.78973
     2016.18069        -1.78020         8.60176
     2016.18343        -5.46136         8.58237
     2016.18617        -0.46752         8.34816
     2016.18891         3.96032         8.21986
     2016.19164        -1.66284         8.14079
     2016.19437         4.00099         8.11543
     2016.19710         1.12783         8.03189
     2016.19985        -0.37033         8.51524
     2016.20260        -3.22649         8.53762
     2016.20533       -10.60065         8.56596
     2016.20807        -3.22281         8.34965
     2016.21081        -8.90197         8.63458
     2016.21341        -5.40317         8.71514
     2016.21642        -2.66925         8.79719
     2016.21902        -0.33545         8.23030
     2016.22178         0.47540         8.22434
     2016.22450        -7.82077         9.02245
     2016.22724        -7.10193         8.75989
     2016.22997        -3.83409         8.66889
     2016.23271        -4.23225         8.22135
     2016.23545        -5.91641         8.01399
     2016.23819         0.48443         8.19450
     2016.24093         0.16527         8.09455
     2016.24366        -1.32989         7.89614
     2016.24640         0.79295         8.49584
     2016.24914        -3.98821         8.08411
     2016.25188        -2.93337         8.31832
     2016.25463         2.42747         8.46899
     2016.25735        -0.10970         8.42125
     2016.26009        -7.13786         8.63607
     2016.26283       -11.88202         8.29445
     2016.26557        -1.05918         8.48242
     2016.26830        -4.82034         8.21986
     2016.27104         1.30950         8.43468
     2016.27378        -0.73466         8.72260
     2016.27652         1.34918         8.34816
     2016.27926        -1.39898         8.43170
     2016.28199        -1.55614         8.79570
     2016.28473        -1.91030         8.02443
     2016.28746        -2.82746         8.63757
     2016.29021        -4.58662         8.65845
     2016.29295        -8.97778         7.97520
     2016.29568        -2.76494         8.23478
     2016.29843        -3.46910         8.91952
     2016.30116        -1.72626         8.76885
     2016.30390        -3.33342         8.16168
     2016.30663         2.54142         8.86730
     2016.30937        -1.71974         8.15422
     2016.31211        -0.95690         8.07515
     2016.31485         1.81293         8.07665
     2016.31757         7.67677         8.49286
     2016.32032        -2.36839         8.21389
     2016.32306        -5.77555         8.14229
     2016.32580        -6.71671         8.44363
     2016.32854        -5.89387         8.12588
     2016.33128        -6.23403         8.17361
     2016.33401        -3.68419         8.35412
     2016.33675         0.51665         8.47048
     2016.33948        -3.78851         8.45407
     2016.34223        -2.57067         8.31981
     2016.34365       -24.95723       222.36586
     2016.34775         5.80002         8.78675
     2016.35044        12.34585         8.90908
     2016.35318        -5.25231         8.50778
     2016.35592        -7.77147         8.07217
     2016.35865       -10.74663         8.42424
     2016.36139        -5.79479         8.04830
     2016.36413         1.79805         8.63160
     2016.36687         3.61089         9.11644
     2016.36959         9.99672         9.04931
     2016.37234         9.25056         8.26909
     2016.37508         3.70340         8.36009
     2016.37782        -2.70076         8.38843
     2016.37955        -0.18123        18.91463
     2016.38364        -4.45197        10.01152
     2016.38603         3.24976         8.29743
     2016.38841        15.08849        10.10103
     2016.39251        -7.18825        20.79431
     2016.39423         2.00128         8.68680
     2016.39698         3.22212         8.79271
     2016.39972         8.46496         8.74050
     2016.40208         7.46168         9.32529
     2016.40618        -8.85006        18.18066
     2016.40794        -0.63452        10.44564
     2016.41067        -5.81668         9.22832
     2016.41341        -2.91784         8.21389
     2016.41612         1.59899         9.96975
     2016.41886        -1.64717         9.97124
     2016.42162         7.11168         8.20047
     2016.42436         0.96452         8.52717
     2016.42710        -0.95165         7.93940
     2016.42984         5.76619         8.95085
     2016.43258         9.52903         9.65349
     2016.43532         5.44887         8.68530
     2016.43805         9.08671         9.39839
     2016.44079         4.62655         9.50431
     2016.44355        -3.91560         8.06620
     2016.44626        -3.61677         8.55850
     2016.44900         2.47407         8.07515
     2016.45174         5.66291         9.05378
     2016.45448        10.70775         8.98367
     2016.45722         5.37159         8.45706
     2016.45995         7.07843         8.80017
     2016.46271        -2.07473         9.86234
     2016.46544        -1.75889        10.23380
     2016.46817         0.77895         8.22881
     2016.47091         6.33679         9.44613
     2016.47364         7.75663         8.11096
     2016.47638        15.56647        10.08164
     2016.47912         1.66531         8.76288
     2016.48184         3.17114        10.71118
     2016.48460         1.42499        10.80069
     2016.48733         1.90982        10.16667
     2016.49007         5.78166         9.89964
     2016.49280         4.47750         8.31981
     2016.49555         0.75434        13.89619
     2016.49830        15.22819        10.16070
     2016.50102         9.79902         8.01548
     2016.50376         1.27286         8.30937
     2016.50650         6.07770         8.25119
     2016.50924         7.42154         7.87674
     2016.51197        -0.74462         9.71614
     2016.51471         6.39622        10.67239
     2016.51745         2.49006         8.73304
     2016.52019         9.14290         8.95980
     2016.52291         3.91073        10.80367
     2016.52567        -3.64442         8.74050
     2016.52839         3.54441         9.09406
     2016.53111         2.59425        12.65948
     2016.53390         6.49710         9.27755
     2016.53661         2.83894         8.50778
     2016.53935         9.75077         8.36307
     2016.54209        12.11761        10.73356
     2016.54483        10.78246         9.26413
     2016.54757         2.93429         8.11543
     2016.55030         5.83213         8.64801
     2016.55304         8.62697         8.29893
     2016.55577        14.00581         9.08511
     2016.55852         3.98765         8.79719
     2016.56124        16.17349        10.28452
     2016.56402        15.82434        11.74948
     2016.56673        12.62317         8.68530
     2016.56947         2.61101        12.96530
     2016.57220        10.83185         8.02742
     2016.57506        13.36672        10.39044
     2016.57768        14.75853         8.72111
     2016.58042         8.95937         8.22583
     2016.58311         8.89119         8.30937
     2016.58590        11.60105         7.97819
     2016.58863         1.28289         9.29844
     2016.59137         2.51873        10.09954
     2016.59411        15.20157         8.24970
     2016.59688        19.67041        10.05478
     2016.59955        15.91323         8.71812
     2016.60233         1.74309        11.56002
     2016.60509        11.89593         8.93742
     2016.60779         2.28976         8.51225
     2016.61052         4.22260        10.29944
     2016.61328         4.60244         8.61071
     2016.61601         7.11528         7.92299
     2016.61875         7.19612         9.11942
     2016.62148        -0.29904        10.92003
     2016.62423        10.58180         8.35561
     2016.62696        10.05064         8.26312
     2016.62970         7.98748         8.87924
     2016.63244         3.75732        10.59631
     2016.63518         8.35616         8.07963
     2016.63788        14.99499        10.34569
     2016.64065        13.95684         9.79073
     2016.64339         7.40568        11.36757
     2016.64613         6.00152        10.55454
     2016.64887        11.69736        11.72561
     2016.65189        12.60728         9.05080
     2016.65434         5.56003         8.84642
     2016.65708         7.23687         8.84344
     2016.65982         6.37771        10.06523
     2016.66246        10.65052        11.33475
     2016.66529         7.41439         8.80166
     2016.66803         9.57323         8.26909
     2016.67077        11.26707         9.10898
     2016.67351        13.11291         8.84045
