# ================= DQRFIT RESULTS ================
# INPUT FILE: series/UKIA.rad
# OUTPUT: LDETRENDED
# FILTER FUNCTION: f(t)
# f(t)=+line(t)+annual(t)
# line(t)=+P 1+P 2*t
# annual(t)=+P 3*sin(2*pi*t+P 4)
# heav(t)=(t<0?0:1)
# TOTAL OBSERVATIONS MTOT= 3838
# INITIAL TIME INTERVAL= 2022.7488 - 2011.8718 = 10.8770
# TOTAL OBSERVATIONS AFTER PREFILTER M= 3826
# TIME-SPAN= 2022.7488 - 2011.8718 = 10.8770
# OBSERVATIONS: USED M=  3826 REJECTED MTOT-M=    12 %USED=   99.6873
# N=  4 PARAMETERS
# MAXSIG= 175.00000
# MAXRES=  25.03259
# SCALE FACTOR FOR LENGTHS: SCL=  10.00000
# SCALE FACTOR FOR SIGMAS: SCLSIG=   1.00000
# CHI^2=   3103.307 DOF=  3822 CHI^2/DOF=   0.81196
# RMS=      5.088 SDEV=      5.088 MEAN=   -0.02601
#  P #       PARAMETER +-    SIGMA %error PARAMETER NAME
# P 1 =      2047.08625 +-   53.023   2.59 YZERO                              
# P 2 =        -1.01530 +-    0.026   2.59 SLOPE                              
# P 3 =         4.89086 +-    0.115   2.35 ANNUAL AMPLITUDE                   
# P 4 =        -3.08354 +-    0.033   1.08 ANNUAL PHASE                       
#       T            LDETRENDED       SIG_OBS
     2011.87177         9.68769         6.19588
     2011.87405         0.84501         5.05871
     2011.87953         3.52357         5.09295
     2011.88227         0.66935         5.19477
     2011.88501         2.03213         5.00464
     2011.88774        -4.51409         5.04429
     2011.89048         1.14969         5.08394
     2011.89322        -1.53753         5.16143
     2011.89869         3.94303         5.07312
     2011.90143        -6.88719         5.02537
     2011.90417        -0.74442         5.11097
     2011.90691        -2.64364         5.12358
     2011.90965         0.76814         5.09024
     2011.91238         1.49392         5.46960
     2011.91786         6.87548         5.25514
     2011.92060        -4.39674         5.06952
     2011.92334        -5.32096         5.14972
     2011.92607        -6.48518         5.18216
     2011.92881        -2.15740         5.15152
     2011.93138        -1.59779         5.62279
     2011.93794        -0.16413         8.66576
     2011.93976         0.85072         5.16684
     2011.94250         4.59450         5.09565
     2011.94524         3.62928         5.13169
     2011.94798         6.46906         5.11097
     2011.95071         5.23084         5.02627
     2011.95345         5.12162         5.10196
     2011.95619         1.50840         5.15422
     2011.95893        -3.75482         4.98121
     2011.96167         2.51896         5.28127
     2011.96440         1.43874         5.04339
     2011.96714        -2.22848         5.09205
     2011.96988        10.68130         4.96860
     2011.97262        -2.01992         4.94607
     2011.97535        -2.98614         4.98301
     2011.97792        -5.31454         5.40202
     2012.00861         1.90162         5.95709
     2012.01368         7.82977         4.91183
     2012.01642        -0.92645         4.91814
     2012.01916         2.69533         4.94877
     2012.02190         0.97911         4.93796
     2012.02464         5.41989         4.95598
     2012.02737         1.97767         5.01726
     2012.03285        -2.32677         4.87849
     2012.03559        -0.17299         4.93165
     2012.03833         1.44579         4.95418
     2012.04106         5.89657         4.94787
     2012.04380         2.14735         5.47050
     2012.04654         4.48413         4.93976
     2012.05201         8.95069         4.96229
     2012.05475        14.52047         4.98842
     2012.05749         2.72425         4.95688
     2012.06023         5.52003         5.52547
     2012.06297         1.47781         4.93616
     2012.06570        -8.35041         5.06321
     2012.07118        -2.56285         4.91093
     2012.07392        -4.41107         4.89110
     2012.07666         1.52371         4.90372
     2012.07939         3.60549         4.93886
     2012.08213         2.57127         4.92985
     2012.08487         0.15505         4.96229
     2012.09034        -3.62139         4.90102
     2012.09308        -0.29661         4.86858
     2012.09582        -1.68683         4.90552
     2012.09856        -0.54205         4.94247
     2012.10130        -2.31427         5.03528
     2012.10403        -2.99349         4.95869
     2012.10951        -1.09593         4.93706
     2012.11225        -2.73015         4.93616
     2012.11498        -0.62237         4.94517
     2012.11772         2.33341         5.01275
     2012.12046         6.07218         4.94967
     2012.12320         0.12996         4.93616
     2012.12856        -4.78259         5.10106
     2012.13044        -0.93568         9.12802
     2012.13415         3.58408         5.01275
     2012.13689        -2.84214         5.00374
     2012.13963         1.50464         5.23532
     2012.14117         2.24021        14.12545
     2012.14784        -6.65402         4.89831
     2012.15058        -5.21524         4.94787
     2012.15331        -4.85646         4.93706
     2012.15605        -3.68968         5.04339
     2012.15879        -3.37490         4.95869
     2012.16153         2.83188         4.88299
     2012.16700        -6.35056         4.98211
     2012.16974       -12.50378         4.89381
     2012.17248        -3.74100         4.88119
     2012.17522        -1.15322         4.92264
     2012.17796        -2.72144         4.93075
     2012.18069        -3.96266         4.99022
     2012.18617        -5.29610         4.92715
     2012.18891        -2.22632         4.90462
     2012.19159         0.54340         5.09926
     2012.19336         4.03420         9.52179
     2012.19712         4.40002         5.02176
     2012.19986        -3.83720         4.95328
     2012.20533        -1.84964         4.97581
     2012.20807         0.04914         4.94337
     2012.21081         1.01692         4.89561
     2012.21355         1.27470         4.89291
     2012.21629        -2.88952         4.86768
     2012.21902        -5.16374         4.87669
     2012.22450       -10.21618         4.97581
     2012.22724        -5.68840         4.93346
     2012.22997        -1.13163         4.90642
     2012.23271         3.53715         4.97941
     2012.23545        -1.43907         5.14701
     2012.23819         2.61771         4.98572
     2012.24366        -6.40473         5.00644
     2012.24640        -0.78595         5.00284
     2012.24914        -2.87117         5.06591
     2012.25188        -3.96439         4.93165
     2012.25462        -8.79261         4.93886
     2012.25735        -5.27583         4.94066
     2012.26283        -6.65227         4.92354
     2012.26557        -9.74749         4.93616
     2012.26830        -5.40671         5.19387
     2012.27104        -4.87693         5.30290
     2012.27378        -2.30215         5.11728
     2012.27652        -2.19537         5.11998
     2012.28137       -10.16745         8.29902
     2012.28473         1.29497         4.90732
     2012.28747        -4.60125         4.90462
     2012.29021        -6.79047         4.91183
     2012.29295        -4.73669         5.12268
     2012.29568       -10.71491         4.94697
     2012.30116        -0.31335         4.95508
     2012.30390        -6.36357         4.96860
     2012.30663       -10.21979         4.95598
     2012.30937        -1.94301         5.20739
     2012.31211         1.11177         5.21910
     2012.31485        -1.21745         5.07222
     2012.32032        -2.80289         4.96589
     2012.32306        -7.86311         4.88750
     2012.32580        -9.42133         4.92084
     2012.32854        -1.17255         5.00644
     2012.33128         0.28423         5.10106
     2012.33401        -4.60099         5.02086
     2012.33949       -11.39744         4.94066
     2012.34217       -10.30271         5.34615
     2012.34496       -14.86988         5.00554
     2012.34770        -8.01610         5.00104
     2012.35044       -10.90132         4.91994
     2012.35318        -9.59954         5.35697
     2012.35746       -20.93719        14.71026
     2012.36139        -7.12020         4.93075
     2012.36413       -12.35342         4.92895
     2012.36687       -13.06264         4.93436
     2012.36961        -9.74386         4.98031
     2012.37234        -3.77308         4.91724
     2012.37782        -4.20752         4.99112
     2012.38056        -8.79574         5.01636
     2012.38329        -8.06196         4.97310
     2012.38603        -6.07718         5.01185
     2012.38877        -6.88440         5.08123
     2012.39151        -1.17662         4.96680
     2012.39698        -4.24606         4.94877
     2012.39972        -6.23328         4.86768
     2012.40246         0.01650         5.08574
     2012.40520        -9.03372         4.95238
     2012.40794        -4.97694         4.97581
     2012.41067        -8.81516         4.85236
     2012.41615        -8.01260         4.99653
     2012.41889         3.99418         5.83364
     2012.42162        -2.96604         5.17765
     2012.42436         1.71674         4.81001
     2012.42710        -5.12348         4.86227
     2012.42984        -5.03770         4.85596
     2012.43531        -7.78614         4.98031
     2012.43805        -0.68936         4.80730
     2012.44079        -9.03958         4.81271
     2012.44353       -13.01581         4.88119
     2012.44626        -5.02203         4.91453
     2012.44900        -6.75825         4.90282
     2012.45448        -6.68969         4.89020
     2012.45722        -7.63091         4.93346
     2012.45995         0.18387         5.16413
     2012.46269        -2.44335         5.42184
     2012.46543        -3.83357         4.95418
     2012.46817        -0.87279         4.94517
     2012.47364        -3.05823         4.91003
     2012.47638        -1.43745         5.03438
     2012.47912         0.18533         4.94427
     2012.48186        -0.37089         4.95148
     2012.48459         0.81389         5.00554
     2012.48625        -4.38443        12.57378
     2012.49384         2.15527         9.59478
     2012.49555        -1.75799         4.88119
     2012.49828        -3.90521         4.91633
     2012.50102         6.19657         4.98121
     2012.50376         4.30035         4.95238
     2012.50650        -3.70087         4.92715
     2012.51197        -1.53931         5.01636
     2012.51471         3.99847         4.87488
     2012.51716         1.50496         5.50384
     2012.52019        -0.67897         5.28308
     2012.52292         1.54781         5.03978
     2012.52566        -1.47741         4.90913
     2012.53114         3.51915         4.83794
     2012.53336        -0.98459         6.66625
     2012.53667       -10.61224         5.78048
     2012.53935         5.39849         5.29119
     2012.54209        14.52127         5.15242
     2012.54483         0.51905         4.89561
     2012.55030         1.60261         5.14701
     2012.55304         1.68538         4.93075
     2012.55578        -2.18784         4.85326
     2012.55852        -0.97806         4.89291
     2012.56125         1.43572         4.82082
     2012.56399        -0.91750         4.84335
     2012.56947        -2.85394         4.97220
     2012.57221         1.03184         4.88119
     2012.57494        -0.62238         4.84515
     2012.57768         1.34740         4.87488
     2012.58042         3.47618         4.94697
     2012.58316        -1.55904         4.86497
     2012.58863         5.69952         5.15242
     2012.59137         1.22930         4.83343
     2012.59411         1.52008         4.82803
     2012.59685         5.46786         5.11007
     2012.59958         2.33864         4.87218
     2012.60232        -2.62558         5.25244
     2012.60780         0.99698         4.88750
     2012.61054         3.60076         4.82442
     2012.61327         3.40954         4.84875
     2012.61601         2.50032         4.84154
     2012.61875         6.52910         4.82442
     2012.62149         5.17588         4.85236
     2012.62696         6.70944         4.89020
     2012.62970         2.56022         4.81721
     2012.63244         3.84800         4.94156
     2012.63518         7.58278         4.87579
     2012.63791         6.72556         4.95688
     2012.64065        14.65534         6.84196
     2012.64613         5.74990         4.87128
     2012.64887         8.22368         4.80550
     2012.65160        12.14446         4.86407
     2012.65423         9.65112         8.62431
     2012.65708        14.41502         7.56373
     2012.65982         9.82679         5.70839
     2012.66529         9.07835         4.83343
     2012.66803         8.61713         4.91543
     2012.67077         9.99791         4.93346
     2012.67351         4.61269         5.27857
     2012.67624         6.59047         4.92174
     2012.67898        10.32625         4.81091
     2012.68446         7.13781         4.85506
     2012.68720         8.92559         4.82442
     2012.68953         7.30197         7.19338
     2012.69267        13.07915         6.80141
     2012.69541         7.04393         4.90913
     2012.69815         6.20371         4.90192
     2012.70362         2.13527         4.95598
     2012.70636         3.97305         4.89110
     2012.70910         5.18283         4.83974
     2012.71184         8.18261         5.09475
     2012.71457         9.82139         4.78568
     2012.71731         9.55717         4.79108
     2012.72279         9.96773         4.80100
     2012.72553        11.17751         4.90462
     2012.72826         9.53629         4.89200
     2012.73100         4.65707         4.92264
     2012.73374         8.72385         5.17675
     2012.73648         8.36963         4.91543
     2012.74195         9.34719         4.91003
     2012.74469         3.35997         4.86227
     2012.74669        29.91999         7.15734
     2012.75108         0.62645         8.94149
     2012.75290         9.76431         4.95418
     2012.75564         8.67609         4.79469
     2012.76112         5.40665         4.78207
     2012.76386         7.14043         4.86948
     2012.76659         7.23220         4.91814
     2012.76933         9.57998         4.90552
     2012.77207         8.51376         4.99383
     2012.77481         6.10154         4.86948
     2012.78028         9.81510         4.98752
     2012.78302         8.03288         4.92535
     2012.78576        -0.25634         4.90462
     2012.78850        13.44944         4.93616
     2012.79123         5.87222         5.11367
     2012.79397         6.29400         4.95508
     2012.79671         7.84078         4.95598
     2012.79945        10.37356         5.00734
     2012.80219         9.43234         5.03257
     2012.80492         7.46112         4.96770
     2012.80766         4.59390         4.92174
     2012.81040         3.93668         5.04339
     2012.81314         0.31046         4.97220
     2012.81587        -1.59576         4.92264
     2012.81861        -4.61298         5.06772
     2012.82135        -3.56620         4.98572
     2012.82409         1.04158         5.06952
     2012.82683         5.75836         5.04159
     2012.82956        -2.73686         4.91994
     2012.83230         1.55992         4.92805
     2012.83504        -6.45730         5.36958
     2012.83778         1.06848         4.95778
     2012.84052         6.14426         5.04068
     2012.84325         3.14304         6.09766
     2012.84599         0.49982         5.15602
     2012.84873        -1.42740         4.98482
     2012.85147         6.98038         5.01455
     2012.85420        -0.21284         5.07132
     2012.85694        -1.24806         5.08754
     2012.85968        -1.41428         4.95869
     2012.86242        -6.22850         4.96049
     2012.86516        -6.44272         4.96319
     2012.86789       -13.43394         5.14701
     2012.87063        -6.22416         5.05781
     2012.87337        -1.39538         5.06591
     2012.87611         1.33839         4.93526
     2012.87885         2.28417         5.03438
     2012.88158        -1.40505         4.96139
     2012.88432         2.90373         5.01726
     2012.88706        -8.62849         5.13440
     2012.88980         2.63729         5.18576
     2012.89253        -6.01793         4.97581
     2012.89527        -4.03615         4.93976
     2012.89801        -1.16537         5.21189
     2012.90075        -3.33759         5.04519
     2012.90349        -3.69581         5.02987
     2012.90622        -2.68303         4.90642
     2012.90896        -2.39225         4.93976
     2012.91170        -1.20047         4.91183
     2012.91444        -2.69369         5.04159
     2012.91718        -0.57591         5.04699
     2012.91991         4.12487         5.02446
     2012.92265         2.37565         4.94247
     2012.92539        -4.57357         4.90372
     2012.92813        -2.24279         4.90372
     2012.93086        -2.52801         5.11908
     2012.93360         3.46977         5.07943
     2012.93634        -2.58745         4.91453
     2012.93908        -4.90067         5.17675
     2012.94182        -8.63189         4.86497
     2012.94455         4.42589         4.91904
     2012.94729         5.06067         5.07042
     2012.95003         2.74945         5.03257
     2012.95277         9.00123         4.90913
     2012.95551         4.77401         4.86497
     2012.95824         6.69079         4.88299
     2012.96098         0.27957         5.26596
     2012.96372         6.57535         5.07673
     2012.96646         4.35713         4.93436
     2012.96919        -1.67009         4.95959
     2012.97193        -2.69931         5.02807
     2012.97467         2.33947         4.91904
     2012.97741         1.35925         4.92985
     2012.98015         4.54003         4.90102
     2012.98288         2.95180         5.07763
     2012.98562        -3.75942         4.89831
     2012.98836        -0.86064         4.85776
     2012.99110        -1.87486         4.93165
     2012.99384        -1.24008         4.95508
     2012.99657        -1.36330         4.94607
     2012.99931        -5.19052         4.90282
     2013.00205        -4.49274         4.93075
     2013.00479        -5.46296         5.03708
     2013.00752        -7.36518         4.94337
     2013.01026        -9.13940         4.95058
     2013.01300        -4.41062         4.89741
     2013.01574        -4.58984         4.94156
     2013.01848        -8.58706         4.96770
     2013.02121         0.23972         4.97941
     2013.02395        -7.25850         5.03708
     2013.02669         1.51428         5.05690
     2013.02943         3.04206         4.91904
     2013.03216        -1.12316         4.92535
     2013.03490        -7.00538         4.99473
     2013.03764        -5.38460         5.00014
     2013.04038        -9.35282         4.97040
     2013.04312       -10.13604         5.03798
     2013.04585        -6.99326         5.06952
     2013.04859        -8.74148         5.10827
     2013.05133        -8.28170         5.02446
     2013.05407        -6.97592         5.01455
     2013.05681        -3.97914         4.99112
     2013.05954        -3.86636         4.99653
     2013.06228        -5.69558         5.13440
     2013.06502        -3.29680         5.11818
     2013.06776        -2.62002         5.03798
     2013.07049        -4.40824         5.06321
     2013.07323        -6.13746         4.95959
     2013.07597        -6.95868         4.99022
     2013.07871        -4.32690         4.94967
     2013.08145         0.31988         4.98842
     2013.08418        -8.64834         5.17495
     2013.08692        -9.75156         4.96680
     2013.08966       -10.09778         4.97310
     2013.09240        -5.52001         4.97130
