# ================= DQRFIT RESULTS ================
# INPUT FILE: series/V096.rad
# OUTPUT: LDETRENDED
# FILTER FUNCTION: f(t)
# f(t)=+line(t)+annual(t)
# line(t)=+P 1+P 2*t
# annual(t)=+P 3*sin(2*pi*t+P 4)
# heav(t)=(t<0?0:1)
# TOTAL OBSERVATIONS MTOT= 1430
# INITIAL TIME INTERVAL= 2017.8690 - 2010.4175 =  7.4515
# TOTAL OBSERVATIONS AFTER PREFILTER M= 1420
# TIME-SPAN= 2017.8690 - 2010.4175 =  7.4515
# OBSERVATIONS: USED M=  1420 REJECTED MTOT-M=    10 %USED=   99.3007
# N=  4 PARAMETERS
# MAXSIG= 175.00000
# MAXRES=  58.19607
# SCALE FACTOR FOR LENGTHS: SCL=  10.00000
# SCALE FACTOR FOR SIGMAS: SCLSIG=   1.00000
# CHI^2=   1551.475 DOF=  1416 CHI^2/DOF=   1.09567
# RMS=      7.341 SDEV=      7.344 MEAN=   -0.02122
#  P #       PARAMETER +-    SIGMA %error PARAMETER NAME
# P 1 =      7058.04958 +-  130.347   1.85 YZERO                              
# P 2 =        -3.50329 +-    0.065   1.85 SLOPE                              
# P 3 =         8.40223 +-    0.249   2.96 ANNUAL AMPLITUDE                   
# P 4 =        -2.47184 +-    0.033   1.33 ANNUAL PHASE                       
#       T            LDETRENDED       SIG_OBS
     2010.41753         5.06150         6.24488
     2010.42026         1.26009         6.20720
     2010.42300         0.63368         6.15067
     2010.42574        -5.08173         6.16428
     2010.42848        -5.84013         6.17893
     2010.43122        -0.34254         6.15695
     2010.43395         1.68805         6.36525
     2010.43669         2.60064         6.49191
     2010.43943         4.38623         6.26895
     2010.44217        -3.23118         6.12346
     2010.44491         1.49841         6.09101
     2010.44764         0.96401         6.22290
     2010.45038         2.96060         6.26267
     2010.45312        -1.68581         6.18312
     2010.45586        -1.74322         6.22708
     2010.45859         3.06437         6.27209
     2010.46133         3.57396         6.34432
     2010.46407         0.25355         6.18103
     2010.46680        -2.65087         6.13183
     2010.46955        -0.55826         6.19463
     2010.47228        -5.10969         6.14962
     2010.47502        10.59792         6.34223
     2010.47776         2.01851         6.42178
     2010.48050         6.39710         6.31292
     2010.48324         8.29970         6.20196
     2010.48597         6.64429         6.13497
     2010.48871         4.07788         6.19673
     2010.49144         2.21445         6.34641
     2010.49418         4.36404         6.12032
     2010.49692         7.54162         6.19568
     2010.49966         3.07923         6.23755
     2010.50220         7.24612         6.66358
     2010.50513         6.51341         6.16219
     2010.50787        -0.70900         6.31082
     2010.51061         5.63061         6.18312
     2010.51335         7.00320         6.21766
     2010.51609         4.80779         6.23546
     2010.51883         3.19238         6.10776
     2010.52156        15.61296         6.27733
     2010.52430        11.17057         6.13288
     2010.52704        10.91314         6.26791
     2010.52977         6.97573         6.12346
     2010.53251         7.02433         6.20196
     2010.53525         9.92293         6.41026
     2010.53799         8.82653         6.20406
     2010.54073         0.65612         6.12660
     2010.54346         5.29669         6.15800
     2010.54621         3.94130         6.23546
     2010.54894         5.15789         6.17056
     2010.55168         1.53948         6.27942
     2010.55441        13.32806         6.63636
     2010.55716         8.03467         6.06693
     2010.55990         5.44326         6.91166
     2010.56263         8.05683         6.18207
     2010.56537         8.33544         6.21034
     2010.56811         6.82603         6.21348
     2010.57085         2.48462         6.15067
     2010.57358         3.90521         6.30140
     2010.57632         5.22281         6.43643
     2010.57906         3.76240         6.27105
     2010.58179         1.77096         6.35060
     2010.58451         6.17250         6.32338
     2010.58726         6.49414         6.45737
     2010.59000        -0.57027         6.49086
     2010.59274         8.83132         6.41969
     2010.59548        10.38491         6.53797
     2010.59822        14.08850         6.37572
     2010.60095         6.58210         6.27000
     2010.60369         6.94369         6.27105
     2010.60643        10.49528         6.34013
     2010.60917        10.96287         6.29722
     2010.61190         9.27746         6.41969
     2010.61464         5.65305         6.42387
     2010.61738        10.25765         6.28361
     2010.62012         6.98624         6.33804
     2010.62286         8.96083         6.35479
     2010.62559         2.76942         6.39247
     2010.62833         5.81001         6.36944
     2010.63107         8.59460         6.62903
     2010.63381        11.33819         6.38305
     2010.63655        12.80079         6.36839
     2010.63928         8.22238         6.47098
     2010.64202         8.45497         6.41445
     2010.64476         8.68556         6.52331
     2010.64750         6.83915         6.26477
     2010.65023         9.18674         6.41550
     2010.65297         7.37533         6.67823
     2010.65571         4.52693         6.20615
     2010.65845        10.09952         6.31396
     2010.66119         8.35811         6.33804
     2010.66392         8.72970         6.45632
     2010.66666         6.46929         6.40294
     2010.66940         7.94188         6.39980
     2010.67214         6.18748         6.31396
     2010.67488         7.85207         6.35583
     2010.67761        12.90066         6.25221
     2010.68035         7.34625         6.41026
     2010.68309         9.80084         6.39770
     2010.68583         8.95543         6.39561
     2010.68846         6.93764         6.48249
     2010.69131         1.89263         6.42387
     2010.69404         5.93021         6.44271
     2010.69678         3.54580         6.27523
     2010.69952         7.23439         6.49924
     2010.70225         1.74098         6.25116
     2010.70499         3.51157         6.31187
     2010.70773        -2.70984         7.45073
     2010.71047         7.11376         6.54006
     2010.71321         7.64335         6.47307
     2010.71594        -0.46606         6.42073
     2010.71868        12.09553         6.36421
     2010.72142        17.39912         6.46365
     2010.72416         9.21271         6.32862
     2010.72689         4.75231         7.24138
     2010.72963         4.37890         6.58926
     2010.73237         2.72549         6.55995
     2010.73511         6.90708         6.53483
     2010.73785         3.88767         6.69603
     2010.74058         3.11626         6.91061
     2010.74332         5.04485         6.30454
     2010.74606         8.32745         6.50552
     2010.74880        10.38504         6.54215
     2010.75154        11.95763         6.28256
     2010.75427         3.18522         6.33909
     2010.75701         5.25981         6.34327
     2010.75975         6.13740         6.27628
     2010.76249         4.04599         6.24279
     2010.76522         6.74459         6.37886
     2010.76796         6.12018         6.58612
     2010.77070        -1.98723         6.48249
     2010.77344        -2.22364         6.77348
     2010.77618         7.45495         6.31396
     2010.77891        -3.29846         6.28047
     2010.78165         3.28714         6.32862
     2010.78439         9.06473         6.37886
     2010.78713        -1.22268         6.53169
     2010.78987         6.07291         6.26372
     2010.79260         6.50550         6.19463
     2010.79534         3.21409         6.33281
     2010.79808         2.39368         6.33176
     2010.80082         3.76528         6.32024
     2010.80355         2.36487         6.37991
     2010.80629         3.07846         6.47621
     2010.80903         5.92405         6.35897
     2010.81177        -0.06236         6.70126
     2010.81451        11.04423         6.27105
     2010.81723         8.36777         6.35793
     2010.81998         6.00742         6.29512
     2010.82272         2.99901         6.32234
     2010.82546         4.41660         6.43853
     2010.82820        -1.15481         6.36421
     2010.83093         4.60878         6.63531
     2010.83367        -0.10664         6.77662
     2010.83641         1.64696         6.53901
     2010.83915         2.00256         6.37258
     2010.84188         1.43015         6.35269
     2010.84462        10.32874         6.54425
     2010.84736         6.81433         6.25430
     2010.85010         2.83892         6.36839
     2010.85284         9.74251         6.21138
     2010.85559         4.87617         6.32548
     2010.85831        -0.72930         6.21138
     2010.86105        -1.91171         6.28465
     2010.86379       -12.26812         6.24383
     2010.86653        -2.20353         6.16742
     2010.86926        -2.60994         6.27209
     2010.87200        -2.61735         6.25744
     2010.87474         3.02125         6.29617
     2010.87748         1.67184         6.35479
     2010.88021         4.01243         6.32234
     2010.88295         2.24502         6.36107
     2010.88569         2.14361         6.15800
     2010.88843        -0.32180         6.39456
     2010.89117         4.02979         6.59344
     2010.89390         3.34239         6.22604
     2010.89651         2.03353         6.50552
     2010.90485        -1.10025         6.20615
     2010.90759         4.09834         6.15695
     2010.91033         3.01494         6.27523
     2010.91307        -8.06347         6.26581
     2010.91581        -2.68588         6.25535
     2010.91854        -0.26029         6.17161
     2010.92128        -5.66670         6.12136
     2010.92402         0.93589         6.14020
     2010.92676         7.73848         6.14125
     2010.92950         2.07208         6.18207
     2010.93223        -4.35633         6.32129
     2010.93497        -3.91174         6.37677
     2010.93771        -0.21915         6.33281
     2010.94045        -1.29456         6.22394
     2010.94318        -0.95097         6.12032
     2010.94592       -12.66738         6.43853
     2010.94866        -4.98978         6.27419
     2010.95140        12.32281         6.44271
     2010.95414        -2.69960         6.35374
     2010.95687        -3.82901         6.28256
     2010.95961        -3.47142         6.31815
     2010.96235        -1.23283         6.20196
     2010.96509         0.18077         6.21034
     2010.96783        -2.32364         6.18940
     2010.97056        -3.56405         6.31396
     2010.97330         0.76354         6.27628
     2010.97604        -3.64687         6.35793
     2010.97878        -6.30128         6.18103
     2010.98151        -5.27169         6.29303
     2010.98425        -1.31009         6.17998
     2010.98699         1.98950         6.25953
     2010.98973        -2.05691         6.28780
     2010.99247         4.75868         6.49714
     2010.99520         0.19427         6.37991
     2010.99794        -5.62514         6.13706
     2011.00342         0.57705         6.12974
     2011.00616         0.48664         6.24593
     2011.00889         2.45123         6.28256
     2011.01163        -1.35018         6.23964
     2011.01437        -2.52559         6.27523
     2011.01711        -1.23100         6.41131
     2011.01984         0.02360         6.25011
     2011.02258        -8.64281         6.18103
     2011.02532        -3.07422         6.35479
     2011.02806        -5.63963         6.51075
     2011.03353        -9.21645         6.28256
     2011.03627       -12.02586         6.31082
     2011.03901         0.32974         6.38200
     2011.04175        -0.88567         6.24697
     2011.04449        -2.30908         6.20092
     2011.04722        -0.98549         6.34432
     2011.04996        -3.68590         6.37886
     2011.05270        -4.09531         6.33176
     2011.05544        -5.16172         6.42911
     2011.05817         2.13488         6.21034
     2011.06091        -1.31653         6.12241
     2011.06365        -6.28394         6.08682
     2011.06639        -5.58235         6.34641
     2011.06913        -8.66776         6.63113
     2011.07186       -14.34217         6.47098
     2011.07460       -10.35557         6.36316
     2011.07734       -10.87898         6.18521
     2011.08008        -2.95139         6.23441
     2011.08282        -5.34480         6.25221
     2011.08555       -10.69821         6.29722
     2011.08829        -6.60862         6.26058
     2011.09103        -6.64103         6.17056
     2011.09377         0.87957         7.12938
     2011.09650        -6.37084         6.28465
     2011.09924        -5.92825         6.25744
     2011.10198        -5.03666         6.31396
     2011.10472        -4.67407         6.38096
     2011.10746        -7.64948         6.23336
     2011.11019        -3.57889         6.22708
     2011.11293         2.08971         6.43643
     2011.11567         9.78430         6.48982
     2011.11841        -1.11311         6.49924
     2011.12115       -12.29452         6.36839
     2011.12388        -7.50193         6.49296
     2011.12662        -3.34634         6.64997
     2011.12936        -1.56774         6.58193
     2011.13210        -6.96115         6.31501
     2011.13483        -5.56056         6.16219
     2011.13757        -0.01697         6.24488
     2011.14031        -1.93838         6.35269
     2011.14305        -1.55479         6.44585
     2011.14579        -9.37720         6.33490
     2011.14852        -2.98160         6.15486
     2011.15126         0.02399         6.21138
     2011.15400         4.85458         6.17789
     2011.15674         4.19017         6.20092
     2011.15948         2.05576         6.25221
     2011.16221        -4.89265         6.28570
     2011.16495        -4.65406         6.32548
     2011.16769        -8.33746         6.27628
     2011.17043        -4.93787         6.52436
     2011.17316       -15.84428         6.35583
     2011.17590       -12.60169         6.21452
     2011.17864         0.63890         6.23650
     2011.18138        -5.37651         6.17056
     2011.18412        -8.73092         6.35479
     2011.18685         0.70668         6.42073
     2011.18959        -4.22073         6.27942
     2011.19233        -9.75014         6.28989
     2011.19507        -8.67755         6.15277
     2011.19780        -7.28396         6.36421
     2011.20054        -3.67337         6.37153
     2011.20328        -7.53477         6.51389
     2011.20602        -4.05718         6.35269
     2011.20876        -3.55959         6.24593
     2011.21149        -9.03600         6.25744
     2011.21423        -4.21141         6.29198
     2011.21697        -3.94682         6.53587
     2011.21971        -0.58223         6.47516
     2011.22245        -1.68763         6.28047
     2011.22518         2.94696         6.16533
     2011.22792        -1.29145         6.18731
     2011.23066        -2.02386         6.17684
     2011.23340         0.79373         6.21766
     2011.23613        -0.16568         6.15381
     2011.23887        -8.25109         6.20301
     2011.24161        -3.94949         6.19673
     2011.24435        -1.07090         6.21452
     2011.24709        -9.85431         6.25639
     2011.24982        -4.17972         6.21557
     2011.25256        -1.27413         6.23755
     2011.25530        -8.72354         6.50656
     2011.25804        -5.14094         6.39770
     2011.26078        -4.81835         6.51285
     2011.26351        -9.69776         6.21243
     2011.26625        -7.65417         6.28465
     2011.26899         1.62342         6.20824
     2011.27173        -6.86899         6.38096
     2011.27446         2.85760         6.54425
     2011.27720        -2.36880         6.47830
     2011.27994        -3.18621         6.24593
     2011.28268        -9.90362         6.27105
     2011.28542        -7.00703         6.25744
     2011.28815       -10.53644         6.16637
     2011.29089         1.52915         6.12660
     2011.29363        -1.61826         6.19568
     2011.29637        -1.62866         6.30350
     2011.29911        -5.55807         6.19568
     2011.30184        -1.48648         6.44795
     2011.30458        -1.58089         6.19254
     2011.30732         2.68470         6.21452
     2011.31006         0.33129         6.16742
     2011.31279        -5.70011         6.14753
     2011.31553         0.26248         6.21348
     2011.31827        -1.95493         6.23022
     2011.32101        -3.13834         6.30559
     2011.32375        -7.79775         6.18835
     2011.32648       -13.46316         6.17370
     2011.32922        -8.57357         6.16114
     2011.33196       -13.12097         6.39666
     2011.33470       -10.49738         6.28465
     2011.33744        -6.85679         6.37258
     2011.34017        -7.00620         6.41654
     2011.34291         1.10439         6.35165
     2011.34565        -4.24202         6.29094
     2011.34839        -7.58943         6.24907
     2011.35112        -2.40083         6.26163
     2011.35386        -1.80824         6.35269
     2011.35660        -8.73265         6.36630
     2011.35934       -13.27306         6.24907
     2011.36208       -13.08347         6.24697
     2011.36481        -7.17188         6.32548
     2011.36755       -11.19128         6.37677
     2011.37029        -5.65169         6.39666
     2011.37303        -7.83110         6.41759
     2011.37577        -2.30751         6.44690
     2011.37850        -8.31892         6.38933
     2011.38124        -3.02533         6.37572
     2011.38398        -7.99174         6.30245
     2011.38672        -9.31114         6.41654
     2011.38945        -0.38255         6.53587
     2011.39219        -2.00696         6.39666
     2011.39493       -10.98737         6.40922
     2011.39767        -8.59878         6.37782
     2011.40041        -4.37419         6.41131
     2011.40314        -4.13860         6.29512
     2011.40588        -1.10100         6.34537
     2011.40862        -0.82941         6.29826
     2011.41136        -7.84882         6.42073
     2011.41410        -5.12723         6.37991
     2011.41683        -2.61164         6.38724
     2011.41957        -6.12605         6.42911
     2011.42231        -7.25445         6.28884
     2011.42505        -1.84286         6.34013
     2011.42778        -1.16627         6.57356
     2011.43052        -0.78968         6.53692
     2011.43326        -3.47309         6.41759
     2011.43600        -5.76650         6.37467
     2011.43874        -2.95691         6.40712
     2011.44147        -4.00031         6.33909
     2011.44421        -1.90872         6.36316
     2011.44695        -5.90613         6.45946
     2011.44969        -5.13954         6.32443
     2011.45243        -9.69195         6.37572
     2011.45516        -1.00136         6.41236
     2011.45790        -0.72177         6.39142
     2011.46064        -2.04817         6.41131
     2011.46338        -4.29558         6.36735
     2011.46611        -3.45199         6.34223
     2011.46885         3.44460         6.36316
     2011.47141         5.11656         7.17439
     2011.47433         2.40578         6.40503
     2011.47707        -3.91563         6.45737
     2011.47980         1.77297         6.39142
     2011.48254         0.85856         6.30978
     2011.48528         4.36715         6.44585
     2011.48802         6.85874         6.36735
     2011.49076         7.95033         6.37363
     2011.49349         0.51792         6.35374
     2011.49623         4.57152         6.42597
     2011.49897         6.01911         6.31815
