# ================= DQRFIT RESULTS ================
# INPUT FILE: series/V102.rad
# OUTPUT: LDETRENDED
# FILTER FUNCTION: f(t)
# f(t)=+line(t)+annual(t)
# line(t)=+P 1+P 2*t
# annual(t)=+P 3*sin(2*pi*t+P 4)
# heav(t)=(t<0?0:1)
# TOTAL OBSERVATIONS MTOT= 1704
# INITIAL TIME INTERVAL= 2017.9329 - 2010.4175 =  7.5153
# TOTAL OBSERVATIONS AFTER PREFILTER M= 1651
# TIME-SPAN= 2017.9329 - 2010.4175 =  7.5153
# OBSERVATIONS: USED M=  1651 REJECTED MTOT-M=    53 %USED=   96.8897
# N=  4 PARAMETERS
# MAXSIG= 175.00000
# MAXRES=  43.40185
# SCALE FACTOR FOR LENGTHS: SCL=  10.00000
# SCALE FACTOR FOR SIGMAS: SCLSIG=   1.00000
# CHI^2=   2961.648 DOF=  1647 CHI^2/DOF=   1.79821
# RMS=      9.149 SDEV=      9.150 MEAN=    0.18366
#  P #       PARAMETER +-    SIGMA %error PARAMETER NAME
# P 1 =      9055.25654 +-  166.515   1.84 YZERO                              
# P 2 =        -4.49490 +-    0.083   1.84 SLOPE                              
# P 3 =         7.58779 +-    0.298   3.93 ANNUAL AMPLITUDE                   
# P 4 =        -2.51867 +-    0.045   1.80 ANNUAL PHASE                       
#       T            LDETRENDED       SIG_OBS
     2010.41753         0.14904         9.00061
     2010.42026         2.54330         7.74680
     2010.42300         0.32065         7.75753
     2010.42574        -5.52404         7.69852
     2010.42849        -6.00667         7.82726
     2010.43122        -2.62143         7.67841
     2010.43669        -9.67181         7.97611
     2010.43943         0.27749         7.95867
     2010.44217        -3.36320         7.51883
     2010.44491        -4.67190         7.53895
     2010.44764        -2.25659         7.59259
     2010.45038        -0.91628         7.69316
     2010.45308        -3.77917         8.67207
     2010.45590        -7.36148         7.91576
     2010.45859         4.70664         9.65769
     2010.46133         0.10194         7.84201
     2010.46407        -1.30575         7.64891
     2010.46670        -7.63991         7.90906
     2010.47013        -0.53351         9.84944
     2010.47227        -8.14892         7.73339
     2010.47498         7.17030         8.92149
     2010.48059         0.58449         9.03279
     2010.48319         4.31920         7.63282
     2010.48597         1.75170         7.48665
     2010.48871         4.05698         8.89333
     2010.49144         2.26729         8.01902
     2010.49421         4.09070         7.55906
     2010.49692         1.07088         7.60466
     2010.49966        -2.05779         7.65025
     2010.50220         5.39662        13.28636
     2010.50513        -2.85818         9.16421
     2010.50787         6.51513        13.27563
     2010.51053         2.62107         8.14641
     2010.51350         3.28943         8.32878
     2010.51608         3.82605         7.81251
     2010.51883        -3.29662         7.63282
     2010.52156        11.59466         7.84067
     2010.52430         4.43297         7.59393
     2010.52704         4.83627         7.89699
     2010.52977         4.40956         7.67573
     2010.53251        -0.82711         7.62075
     2010.53525         3.07221         7.80714
     2010.53799         5.20052         7.71998
     2010.54073        -2.75217         7.63282
     2010.54346        -0.95389         7.74680
     2010.54620         2.41242         7.66500
     2010.54894        -1.00825         7.62343
     2010.55168         0.57405         7.68646
     2010.55441         5.00734         8.10886
     2010.55716         4.00167         7.65025
     2010.55990         4.94397         8.26173
     2010.56263         2.89126         7.71328
     2010.56537         5.87858         7.62075
     2010.56810         3.39387         7.70523
     2010.57084         1.74118         7.83128
     2010.57358         4.11750         8.06327
     2010.57633         2.02383         9.86554
     2010.57902         1.17492         9.43374
     2010.58182        -3.31149         8.54066
     2010.58451         1.03262         8.10350
     2010.58726         1.54299         8.06997
     2010.59000        -1.70070         8.14775
     2010.59274         1.44361         7.83664
     2010.59548         7.07191         7.71730
     2010.59822         7.19222         7.81519
     2010.60095         4.64652         7.77496
     2010.60369         4.06483         7.63818
     2010.60630         7.27054         7.99756
     2010.60903         3.92582         8.38242
     2010.61190         4.37475         7.85005
     2010.61454         1.83259         8.22955
     2010.61723         3.50568         8.64391
     2010.62012         3.03267         7.79373
     2010.62286         6.90198         7.87151
     2010.62550         2.61388         8.02170
     2010.62821         0.27805        10.05193
     2010.63107        11.07189         9.09448
     2010.63380         9.54118         7.79239
     2010.63656         9.86659         7.78971
     2010.63928         7.90481         7.88224
     2010.64202         1.68612         7.95867
     2010.64476         0.69543         8.13434
     2010.64750         4.86373         7.76021
     2010.65023        11.88704         7.95197
     2010.65297         7.00634         8.03511
     2010.65571         6.25465         7.59795
     2010.65845         5.45496         7.66366
     2010.66119         4.75326         7.72400
     2010.66392         8.99757         7.83396
     2010.66666         7.21988         7.71864
     2010.66940         0.87418         7.97879
     2010.67214         2.39849         8.21346
     2010.67402         5.79895        11.86090
     2010.67762        12.36814         7.90235
     2010.68019         1.75270         9.38010
     2010.68293         3.64601         8.14909
     2010.68567         8.40532         8.07802
     2010.68841         3.85562         8.14239
     2010.69114         0.89691         8.26710
     2010.69383         4.51298         8.78471
     2010.69679        -0.33971         8.05522
     2010.69958         7.36685         9.19505
     2010.70225         2.94986        11.64635
     2010.70499         1.20317         8.23625
     2010.70773        -4.41153         8.26978
     2010.71047         6.09578         7.81251
     2010.71321        11.92708        10.04389
     2010.71594         4.64539         8.46824
     2010.71868         8.87770        10.62050
     2010.72142         8.18900         9.50347
     2010.72416         7.78831         8.46958
     2010.72689         6.36062        11.24003
     2010.72963       -11.80108        18.80446
     2010.73237         3.79323        11.74156
     2010.73508         0.92341        10.44886
     2010.73897        15.28291        21.20480
     2010.74058        -5.47085         8.19200
     2010.74327        -7.12178        14.36450
     2010.74606         3.25676        15.97635
     2010.74880        10.47707        11.48141
     2010.75150         5.64320        12.46568
     2010.75349        -6.24282        13.47409
     2010.75755        -0.30660        27.46983
     2010.75975         0.46429         9.15482
     2010.76244         2.84141        14.19286
     2010.76523        -5.88705        17.11081
     2010.76796        17.98121         9.76228
     2010.77070        -7.49048         8.04852
     2010.77344        -3.98618         8.19871
     2010.77618         2.83513         7.82994
     2010.77877        -2.86520         8.24430
     2010.78156         0.40234         9.24467
     2010.78439         5.75005         9.45252
     2010.78713        -1.64564        10.16591
     2010.78987         7.92766         7.63416
     2010.79260         3.67397         7.78703
     2010.79534        -0.08072         7.70121
     2010.79800         1.22824         7.96001
     2010.80082         4.64089         7.69450
     2010.80355         2.97819         7.91710
     2010.80629        -0.00750         8.55406
     2010.80903         3.26681         7.92113
     2010.81177        -3.33389         8.09813
     2010.81451         7.87242         8.02840
     2010.81723         5.38766         7.67305
     2010.81998         5.35703        12.32488
     2010.82272         0.53834         7.74680
     2010.82546         1.17165         8.11020
     2010.82820        -2.47005         7.75216
     2010.83093         5.52926         8.50311
     2010.83361        -0.76369         8.40924
     2010.83915        -3.88382         9.94063
     2010.84172         2.06174         8.89333
     2010.84462         7.14679         8.52725
     2010.84736         5.22010         7.69852
     2010.85010        -0.83960         7.83664
     2010.85284         7.41871         7.65695
     2010.85559         4.49610         7.77094
     2010.85831         1.74332         7.78301
     2010.86105        -5.43337         7.67573
     2010.86379       -11.24107         7.68511
     2010.86653        -5.44576         7.67305
     2010.86926        -6.52345         7.71462
     2010.87200        -1.89615         7.70255
     2010.87474         4.28216         7.78435
     2010.87748        -0.42353         7.77898
     2010.88021         0.09677         7.70657
     2010.88295        -0.33592         7.84067
     2010.88569        -1.68761         7.65427
     2010.88843         0.65969         7.93051
     2010.89117         5.90000         7.98281
     2010.89390         2.91930         7.60734
     2010.89664         0.34661         7.66232
     2010.89938         2.96592         7.62075
     2010.90212         0.87022         7.70523
     2010.90485        -4.89847         7.60197
     2010.90759         0.86584         7.54297
     2010.91033         1.88614         7.71730
     2010.91307       -10.60755         7.62879
     2010.91581        -4.63624         7.87017
     2010.91854        -3.15094         7.61404
     2010.92128        -5.37763         7.64086
     2010.92402        -2.72933         7.59795
     2010.92676         2.65798         7.67707
     2010.92950        -1.01271         7.61002
     2010.93223        -4.10141         7.82860
     2010.93497        -8.23510         7.72266
     2010.93771        -8.16979         7.71462
     2010.94045        -1.65749         7.67573
     2010.94318         2.67682         7.63013
     2010.94592       -17.39687         7.76289
     2010.94866        -7.28557         7.64891
     2010.95140         3.38574         7.78837
     2010.95414        -8.81796         7.80580
     2010.95687        -8.25265         7.53761
     2010.95961        -3.50234         7.79239
     2010.96235        -1.13404         7.69048
     2010.96509         0.82727         7.62477
     2010.96783        -5.41242         7.56979
     2010.97056        -6.60612         7.66768
     2010.97330        -4.13481         7.65293
     2010.97604        -6.72350         7.64489
     2010.97878        -5.85120         7.64489
     2010.98151        -9.65089         7.65293
     2010.98425        -5.46359         7.62477
     2010.98699        -2.15328         7.64086
     2010.98973        -6.34997         7.78971
     2010.99247         5.52133         7.88090
     2010.99520         2.66564         7.71596
     2010.99794        -5.58505         7.56979
     2011.00342        -0.95744         7.59259
     2011.00616        -2.02313         7.55772
     2011.00889         0.22317         7.72400
     2011.01163        -0.29952         7.61538
     2011.01437        -6.29422         7.63818
     2011.01711        -9.74691         7.89565
     2011.01984        -3.23960         7.59661
     2011.02258        -6.03830         7.54968
     2011.02532        -3.99099         7.78032
     2011.02806        -1.75568         8.00158
     2011.03080         4.46562         7.71328
     2011.03353       -10.07007         7.70523
     2011.03627       -10.13877         7.63818
     2011.03901        -8.20446         7.73875
     2011.04175        -3.18915         7.86615
     2011.04449        -1.52785         7.56309
     2011.04722        -5.40254         7.66232
     2011.04996        -6.25823         7.91040
     2011.05270        -4.06993         7.60063
     2011.05544        -5.17262         7.72400
     2011.05817         2.24169         7.63282
     2011.06091        -1.26601         7.61941
     2011.06365        -8.09070         7.52017
     2011.06639        -4.82140         7.58320
     2011.06913       -10.78509         8.14775
     2011.07186       -15.45178         7.84201
     2011.07460       -11.82648         7.73473
     2011.07734        -8.47917         7.54297
     2011.08008        -6.58586         7.67841
     2011.08282        -9.10056         7.62879
     2011.08555       -15.72025         7.78435
     2011.08829        -4.94094         7.75753
     2011.09103        -8.55464         7.64757
     2011.09377        -2.09833         8.96977
     2011.09650        -3.04103         7.73205
     2011.09924       -11.12272         7.62477
     2011.10198        -0.99741         7.76557
     2011.10472        -6.43011         7.67170
     2011.10746        -8.99280         7.52554
     2011.11019        -4.93749         7.52956
     2011.11293         1.57681         7.79910
     2011.11567         2.16012         7.77496
     2011.11841        -6.12157         7.91978
     2011.12115        -5.29027         7.75619
     2011.12388        -7.15896         7.79642
     2011.12662         0.06534         8.07131
     2011.12936         0.87065         8.04852
     2011.13210        -9.55404         7.62075
     2011.13483        -5.92474         7.54163
     2011.13757        -4.09343         7.53090
     2011.14018        -3.17670         7.79373
     2011.80953         7.95797        22.98025
     2011.81108         4.31793         9.57589
     2011.81382        -2.53276         8.16518
     2011.81656        -5.38445         8.07802
     2011.81922         2.74249        13.77045
     2011.82203         0.80616         7.99488
     2011.82463         4.92285         8.25369
     2011.82752        -4.32319         8.05388
     2011.83025        -4.91992         9.11593
     2011.83299         2.04538         9.00865
     2011.83572        -2.62831         7.93990
     2011.83847       -10.08298        12.80093
     2011.84120         9.34730         8.21748
     2011.84394        10.46861         8.13166
     2011.84668         3.60092         8.38108
     2011.84941        -0.61478         8.07802
     2011.85199       -10.55318        17.54931
     2011.85490        -6.24010         8.38510
     2011.85763         0.18214         8.73778
     2011.86015        21.26647        18.28550
     2011.86347         2.14742         9.63623
     2011.86590        36.53132        52.59831
     2011.87166         8.75721         9.17225
     2011.87405        -4.29902         8.26173
     2011.87679        -0.58271         8.18798
     2011.87953         4.39959         7.84335
     2011.88227         2.83390         7.81117
     2011.88501         7.14021         7.83799
     2011.88774        -0.57649         8.05120
     2011.89048        -1.96218         7.90503
     2011.89322        -7.76788         8.09009
     2011.89596        -6.80357         7.85408
     2011.89869         7.28374         8.13836
     2011.90151        -6.78261         8.23760
     2011.90417       -10.63465        15.19054
     2011.90691        -2.62934         7.90772
     2011.90965         5.54796         7.85676
     2011.91238         2.36727         8.04315
     2011.91512         1.48858         7.99488
     2011.91786        -2.80812         7.88894
     2011.92060        -5.93281         7.88224
     2011.92334        -4.31051         8.07131
     2011.92607        -9.10220         7.93588
     2011.92881        -5.19689         7.99756
     2011.93155         0.85041         8.04986
     2011.93429         0.83472         7.86615
     2011.93702         0.66403         7.98281
     2011.93976         1.14233         8.08070
     2011.94250         5.65762         8.02304
     2011.95143         4.11078        11.84481
     2011.95345         5.44886         8.17725
     2011.95619         2.31617         8.29526
     2011.95893        -2.44952         7.97074
     2011.96167         3.84078         8.58625
     2011.96434         0.92881         8.73510
     2011.96715        11.58044         8.38644
     2011.96988         6.49770         8.60234
     2011.97262        -1.40399         7.94660
     2011.97532         2.66214         8.07131
     2011.97809         0.78362         8.08070
     2011.98088         4.19114         8.45215
     2011.98354        10.27213         8.41997
     2011.98630         2.59450         8.69889
     2011.98906         8.57691        10.85652
     2011.99178         2.01715         9.22455
     2011.99456        13.09963        10.19407
     2011.99726         2.50179         9.36535
     2012.00275        -1.90654        11.92393
     2012.00547        -0.42131         8.96574
     2012.00821         3.90699         8.88126
     2012.01095        20.38130         8.60234
     2012.01368         6.68060         8.21212
     2012.01642         5.63291         7.88090
     2012.01916         7.54422         8.15848
     2012.02183        11.87320         9.40558
     2012.02466         4.73496         8.37303
     2012.02737         3.23914         8.43874
     2012.03011         2.02344         8.29928
     2012.03289         1.49792         7.88358
     2012.03559         1.71506         8.40254
     2012.03833        -4.09964         8.30330
     2012.04106        -5.40533         8.53261
     2012.04380         4.21797         8.68280
     2012.04654         1.45228         7.85944
     2012.04925         2.73046         8.03377
     2012.05198       -32.20226         8.16786
     2012.05473        12.92009         8.30598
     2012.05750         8.57255         8.31001
     2012.06020         1.04871         9.37742
     2012.06294         3.36601         8.67878
     2012.06571         5.61045         9.13605
     2012.06844        -5.86627        10.32013
     2012.07118        -1.53696         8.58759
     2012.07392         4.27834         8.41729
     2012.07666         0.49565         7.82860
     2012.07939         3.88596         8.76057
     2012.08213         3.27526         8.02974
     2012.08487        -1.69543         8.45886
     2012.08760        -3.04617         7.98549
     2012.09037        -1.40871         8.84237
     2012.09296         4.06095         8.44679
     2012.09585         5.42192         7.92247
     2012.09878         3.61308         9.40961
     2012.10132         4.21854         8.67341
     2012.10409         2.26197         8.03243
     2012.10672        -3.84919         8.65464
     2012.10954         3.56446         8.24832
     2012.11225         1.37263         8.26978
     2012.11498         2.72194         8.08338
     2012.11772         2.77325         8.36096
     2012.12046        10.31455         7.85005
     2012.12312         1.79450         8.25637
     2012.12600         0.75746         9.58125
     2012.12867         1.59847         9.54236
     2012.13141        -0.07622         8.23089
     2012.13415         3.04708         8.04584
     2012.13689         5.34039         7.94795
     2012.13963         4.01770         8.59698
     2012.14221         1.82332         8.74180
     2012.14514        -0.56552         8.81824
     2012.14784        -4.19238         8.19871
     2012.15058        -0.88508         7.83128
     2012.15331        -1.59177         7.85005
     2012.15605        -1.15346         8.16384
     2012.15879        -0.96816         9.51957
     2012.16146        -0.97415         9.06229
     2012.16448         0.58244         9.10386
     2012.16700        -1.99524         7.91308
     2012.16974         0.00307        12.24844
     2012.17248         5.16237         8.00561
     2012.17522         3.50868         7.86078
