# ================= DQRFIT RESULTS ================
# INPUT FILE: series/WABR.rad
# OUTPUT: LDETRENDED
# FILTER FUNCTION: f(t)
# f(t)=+line(t)+annual(t)+jumps(t)
# line(t)=+P 1+P 2*t
# annual(t)=+P 3*sin(2*pi*t+P 4)
# jumps(t)=+P 5*heav(t-2016.1533  )+P 6*heav(t-2018.0001  )
# heav(t)=(t<0?0:1)
# TOTAL OBSERVATIONS MTOT= 2143
# INITIAL TIME INTERVAL= 2021.2457 - 2015.0034 =  6.2423
# TOTAL OBSERVATIONS AFTER PREFILTER M= 2124
# TIME-SPAN= 2021.2457 - 2015.0034 =  6.2423
# OBSERVATIONS: USED M=  2124 REJECTED MTOT-M=    19 %USED=   99.1134
# N=  6 PARAMETERS
# MAXSIG= 175.00000
# MAXRES=  39.49572
# SCALE FACTOR FOR LENGTHS: SCL=  10.00000
# SCALE FACTOR FOR SIGMAS: SCLSIG=   1.00000
# CHI^2=   2283.742 DOF=  2118 CHI^2/DOF=   1.07825
# RMS=      6.087 SDEV=      6.087 MEAN=    0.07958
#  P #       PARAMETER +-    SIGMA %error PARAMETER NAME
# P 1 =      1112.28653 +-  365.403  32.85 YZERO                              
# P 2 =        -0.57868 +-    0.181  31.33 SLOPE                              
# P 3 =         4.72928 +-    0.177   3.74 ANNUAL AMPLITUDE                   
# P 4 =        -3.09452 +-    0.053   1.71 ANNUAL PHASE                       
# P 5 =        -3.73579 +-    0.467  12.50 OFFSET 2016.1533                   
# P 6 =        55.89606 +-    0.571   1.02 OFFSET 2018.0001                   
#       T            LDETRENDED       SIG_OBS
     2015.00342        -9.60154         5.87936
     2015.00616       -11.11995         5.83056
     2015.00889        -7.15337         5.98943
     2015.01163       -18.10578         5.90117
     2015.01437       -10.18120         5.90325
     2015.01711        -4.71761         6.07666
     2015.01984         1.08497         5.87106
     2015.02258         3.45455         6.18361
     2015.02532         2.11114         6.00086
     2015.02806         0.88372         5.84925
     2015.03080         1.51431         5.85860
     2015.03353        -4.57511         5.92921
     2015.03627         0.49448         5.86690
     2015.03901        -1.47394         6.01955
     2015.04175        -4.55336         6.03201
     2015.04449       -16.56077         5.93025
     2015.04722       -10.54619         6.25734
     2015.04996         5.62440         5.90740
     2015.05270        -3.56302         5.98528
     2015.05544       -13.74843         5.91363
     2015.05817         0.58015         5.98840
     2015.06091       -17.88327         5.91882
     2015.06365         4.97732         6.04447
     2015.06639         3.69590         5.93232
     2015.06913         1.76549         5.93544
     2015.07186        -8.97793         6.03720
     2015.07460         0.52966         6.08808
     2015.07734        -1.34376         6.04862
     2015.08008        -3.81317         5.98113
     2015.08282         4.51241         5.91467
     2015.08555       -20.01701         5.98943
     2015.08829        -4.97342         5.87833
     2015.09103         4.96616         5.89286
     2015.09377        -7.38125         5.97074
     2015.09650       -16.90867         6.21061
     2015.09924         0.07392         6.16492
     2015.10198         2.45750         6.02370
     2015.10472         2.35208         5.98009
     2015.10746       -17.46533         6.00397
     2015.11019        -7.29675         6.14831
     2015.11293        -2.00316         6.12546
     2015.11567         1.56642         6.03824
     2015.11841        -4.36599         5.95621
     2015.12115        -3.51341         6.13792
     2015.12388        -4.74783         6.06420
     2015.12662        -6.03324         5.98736
     2015.12936         2.25734         5.99878
     2015.13210        -1.45507         5.97490
     2015.13483       -11.10449         6.01955
     2015.13757        -4.21290         6.03824
     2015.14031        -8.95332         5.96451
     2015.14305         4.76727         6.05381
     2015.14579        -4.31815         6.01851
     2015.14852        -3.29357         5.91571
     2015.15126        -0.46498         5.93544
     2015.15400        -5.21440         5.91986
     2015.15674        -1.59081         5.88767
     2015.15948         6.38877         5.96867
     2015.16221        -2.14464         5.91155
     2015.16495         4.34194         5.91571
     2015.16769        -4.25048         5.90013
     2015.17043         1.28211         5.89494
     2015.17316        -7.96731         5.99878
     2015.17590        -8.08972         6.12235
     2015.17864        -2.18014         5.96763
     2015.18138         0.74845         6.02682
     2015.18412         1.56403         5.97905
     2015.18685         2.95961         5.91259
     2015.18959        -7.42380         6.03616
     2015.19233        -3.19522         6.11196
     2015.19507         1.76937         5.89286
     2015.19780        -7.40805         5.90117
     2015.20054         0.31354         5.90948
     2015.20328       -19.18988         6.12235
     2015.20602        -3.20929         6.19400
     2015.20876        -1.62371         5.98840
     2015.21149        -9.25413         5.94894
     2015.21423       -16.42554         6.03201
     2015.21697        -4.40396         6.07666
     2015.21971        -1.00737         5.99255
     2015.22245         0.24721         6.02266
     2015.22518        -6.61820         6.00813
     2015.22792        -2.46062         5.98009
     2015.23066        -5.44104         6.02474
     2015.23340        -3.97745         6.07251
     2015.23613         4.14113         6.33833
     2015.23887       -12.08428         6.23969
     2015.24161        -6.13170         6.26876
     2015.24435        -0.24911         6.26253
     2015.24709         3.76947         6.04551
     2015.24982         0.86105         5.96970
     2015.25256        -3.72936         5.84614
     2015.25530         0.20422         5.88560
     2015.25804        -5.19519         5.84094
     2015.26078        -2.61161         5.92817
     2015.26351         4.09198         5.87729
     2015.26625        -3.25144         5.90221
     2015.26899        -9.75885         5.98528
     2015.27173         1.86273         6.22515
     2015.27446         2.64831         6.17323
     2015.27720        -4.13810         5.90636
     2015.27994        -7.57952         6.01747
     2015.28268        -6.61693         5.93648
     2015.28542        -3.26435         5.99566
     2015.28815        -8.59676         6.12546
     2015.29089        -9.29418         5.90117
     2015.29363         1.86840         6.01228
     2015.29637        -7.01401         5.90532
     2015.29911        -4.10643         5.92713
     2015.30184         5.89016         6.08704
     2015.30458        -0.76326         5.96140
     2015.30732        -2.45967         5.72049
     2015.31006         0.55091         5.85548
     2015.31279        -2.21051         5.84302
     2015.31553        -8.15692         5.80045
     2015.31827        -4.50134         5.94271
     2015.32101        -3.11775         5.70907
     2015.32375        -5.22817         5.87625
     2015.32648         2.81742         5.99566
     2015.32922        -5.06500         5.90429
     2015.33196        -4.38341         5.92505
     2015.33470        -2.53083         5.83471
     2015.33744        -0.20325         5.79214
     2015.34017       -15.35666         6.00709
     2015.34291        -5.89408         5.80356
     2015.34565        -1.50249         5.76514
     2015.34839        -1.49891         5.81810
     2015.35112       -11.75532         5.74230
     2015.35386        -3.83874         5.77033
     2015.35660       -10.77916         5.79214
     2015.35934       -11.49257         5.86067
     2015.36208       -16.69399         5.98840
     2015.36481       -24.82640         5.71841
     2015.36755        -7.80182         5.78591
     2015.37029        -1.20323         5.81810
     2015.37303       -23.90565         5.91571
     2015.37577       -14.20907         5.85444
     2015.37850       -12.48048         5.85860
     2015.38124       -12.50890         5.70284
     2015.38398       -13.31131         5.71011
     2015.38672       -13.81873         5.88560
     2015.38945        -3.76214         5.94686
     2015.39219        -2.58456         5.76203
     2015.39493        -9.91897         5.79422
     2015.39767        -8.71739         5.73814
     2015.40041        -6.73981         5.89183
     2015.40314        -7.00722         5.97178
     2015.40588       -14.67464         5.79214
     2015.40862        -1.52305         5.97801
     2015.41136        -3.35647         5.79214
     2015.41410        -1.22888         5.80979
     2015.41683       -10.03330         6.06420
     2015.41957        -7.45472         5.79733
     2015.42231       -13.11913         5.70907
     2015.42505       -19.58255         6.01332
     2015.42778        -7.81496         5.77137
     2015.43052        -1.89938         5.91675
     2015.43326        -5.98979         5.82018
     2015.43600        -2.01621         5.86067
     2015.43874        -8.53963         5.69765
     2015.44147        -3.86004         6.06939
     2015.44421        -8.87346         5.99359
     2015.44695        -8.82687         5.68830
     2015.44969         0.17771         5.73918
     2015.45243       -14.65770         5.89909
     2015.45516        -5.37912         5.70595
     2015.45790        -1.35053         5.95517
     2015.46064       -10.58995         5.91467
     2015.46338        -2.80037         6.00293
     2015.46611        -4.25578         5.70699
     2015.46885        -2.65120         5.96036
     2015.47159        -2.84561         5.81291
     2015.47433        -8.23603         6.14415
     2015.47707        -3.16044         5.93648
     2015.47980         1.26714         5.95932
     2015.48254        -6.68828         5.89806
     2015.48528        -5.84869         5.70803
     2015.48802        -2.69511         5.88767
     2015.49076        -7.17552         5.99982
     2015.49349         6.31206         6.30303
     2015.49623         5.62665         6.38610
     2015.49897        -8.70677         6.07770
     2015.50171        -0.49219         5.83368
     2015.50444         7.21840         5.91675
     2015.50718        -0.02102         5.83056
     2015.50992         3.22857         5.77345
     2015.51266        -4.48885         5.74541
     2015.51540         1.43574         5.73503
     2015.51813        11.04932         5.82641
     2015.52087         2.85791         5.90532
     2015.52361         0.77149         6.01747
     2015.52635        -3.35793         5.79318
     2015.52908         3.83666         5.79941
     2015.53182         6.47624         5.81083
     2015.53456         6.22383         5.95828
     2015.53730        -1.47759         5.96347
     2015.54004        -1.61300         5.88560
     2015.54277        -4.93842         5.98632
     2015.54551         1.37316         5.93544
     2015.54825        10.71575         6.02474
     2015.55099         1.72933         6.16077
     2015.55373        15.11292         6.22411
     2015.55646         6.46250         5.96140
     2015.55920        -0.39891         5.83264
     2015.56194        12.31867         6.03305
     2015.56468         6.59125         5.89494
     2015.56741         7.33984         6.01228
     2015.57015         6.79642         6.05797
     2015.57289         0.48601         5.98113
     2015.57563         0.80259         5.85756
     2015.57837         4.60218         5.97282
     2015.58110         8.99776         5.91155
     2015.58384         7.35135         6.03512
     2015.58658         7.89693         6.12131
     2015.58932        13.91451         6.22723
     2015.59206         6.01210         5.97178
     2015.59479        -2.45232         5.99982
     2015.59753        10.59627         6.09120
     2015.60027         5.53585         6.07251
     2015.60301         9.64144         6.19088
     2015.60574         1.24402         6.20127
     2015.60848         7.11260         6.04239
     2015.61122         8.71319         6.00397
     2015.61396         8.78477         5.83575
     2015.61670         5.58036         5.94686
     2015.61943        17.63394         6.03720
     2015.62217         8.74953         5.90117
     2015.62491        14.57011         5.99255
     2015.62765         9.82269         5.80252
     2015.63039        14.71428         5.83679
     2015.63312        12.60586         6.01332
     2015.63586        16.70945         6.03512
     2015.63860         8.99203         5.85341
     2015.64134         8.15662         5.90117
     2015.64407        12.34120         5.78799
     2015.64681         3.47279         5.98840
     2015.64955         6.74037         5.85133
     2015.65229         4.66195         5.87936
     2015.65503        24.80754         5.95724
     2015.65776         9.10912         5.90013
     2015.66050        11.82671         5.97074
     2015.66324        10.75129         5.78279
     2015.66598        -3.10012         6.16492
     2015.66872        10.77046         6.23865
     2015.67145        11.46404         5.83575
     2015.67419         5.63163         5.75268
     2015.67693         4.22421         5.88767
     2015.67967         7.23180         5.87106
     2015.68240         0.04938         5.96970
     2015.68514        -1.50503         5.88144
     2015.68788        14.54255         5.92194
     2015.69062         0.41313         5.79318
     2015.69336        -1.24728         5.99566
     2015.69609         9.04830         5.82329
     2015.69883        11.15289         6.06212
     2015.70157        13.96047         5.78902
     2015.70431        12.65706         5.86690
     2015.70705         8.18964         5.86067
     2015.70978         6.44623         5.88040
     2015.71252         8.33681         5.88767
     2015.71526        12.61139         5.84717
     2015.71800         7.50598         5.98113
     2015.72073         5.42956         5.92713
     2015.72347         9.14315         5.97386
     2015.72621         6.57073         5.89598
     2015.72895         7.78632         5.94790
     2015.73169         9.95690         5.92298
     2015.73442        11.69748         5.85029
     2015.73716        10.18307         5.79422
     2015.73990        14.40265         5.93232
     2015.74264         5.97624         5.96659
     2015.74538         9.75282         6.12962
     2015.74811         3.88741         5.97074
     2015.75085         7.20399         5.83575
     2015.75359         5.66857         5.84406
     2015.75633        15.27816         5.96763
     2015.75906        10.56174         5.78383
     2015.76180         4.62933         5.90429
     2015.76454         2.17091         5.91571
     2015.76728         6.79350         5.78072
     2015.77002         2.24208         6.09847
     2015.77275        15.58367         5.94998
     2015.77549        24.13725         6.14727
     2015.77823        16.04083         5.90221
     2015.78097         8.17342         5.83368
     2015.78371         9.00500         5.85133
     2015.78644         7.72059         5.76099
     2015.78918         2.53517         5.91467
     2015.79192         6.58976         5.77345
     2015.79466        -3.42266         5.81083
     2015.79739         2.68992         5.87106
     2015.80013         4.44451         6.05278
     2015.80287         0.86909         5.95828
     2015.80561         6.88368         5.87313
     2015.80835        -2.72874         5.72153
     2015.81108        -0.90215         5.76099
     2015.81382         9.54843         5.89286
     2015.81656        -4.99999         5.98943
     2015.81930         8.96460         5.95101
     2015.82203        11.82818         5.89183
     2015.82477        -9.20323         6.10158
     2015.82751         2.48035         6.00293
     2015.83025         4.87594         6.29057
     2015.83299         8.13952         6.09223
     2015.83572         5.95211         5.96970
     2015.83846        -0.26031         6.10158
     2015.84120         4.37027         5.98113
     2015.84394        -0.24514         5.95724
     2015.84668         2.69644         6.17011
     2015.84941         5.84103         6.02578
     2015.85215       -14.14439         6.08289
     2015.85763         2.40278         5.92609
     2015.86031         1.24333         6.24488
     2015.86310         6.09595         5.93440
     2015.86584        13.80053         5.85860
     2015.86858        -8.61388         6.01643
     2015.87132         3.45970         6.04758
     2015.87405         5.31529         5.89909
     2015.87679       -13.35913         6.11923
     2015.87953        -2.86655         6.14727
     2015.88227        11.02504         5.91052
     2015.88501        -5.31438         5.77137
     2015.88774        -2.69779         5.97490
     2015.89048         4.15979         5.87625
     2015.89322         7.06538         5.94167
     2015.89596        -4.20404         5.92609
     2015.89869        10.06055         5.85860
     2015.90143         1.34213         5.83160
     2015.90417         0.25671         5.86483
     2015.90691        -0.26670         5.91467
     2015.90965         4.74988         5.88248
     2015.91238         7.88747         5.84925
     2015.91512         7.70205         5.90532
     2015.91786         6.82364         5.95413
     2015.92060        -2.36478         6.08289
     2015.92334       -14.23820         6.01539
     2015.92607        -1.89761         5.95621
     2015.92881        -2.92603         5.95309
     2015.93155         7.16056         6.21373
     2015.93429        -1.72386         6.31964
     2015.93702       -11.44227         6.39960
     2015.93976        -9.67869         6.20853
     2015.94250        -5.75311         6.22100
     2015.94524         4.67648         6.02889
     2015.94798        11.06506         6.14000
     2015.95071        12.33065         5.83264
     2015.95345         5.22323         5.89598
     2015.95619         6.07782         6.02889
     2015.95893         4.38340         6.05070
     2015.96167        -0.42901         6.08393
     2015.96440         4.59457         5.91259
     2015.96714         2.91915         5.92713
     2015.96988         0.26874         5.87729
     2015.97262       -15.99668         5.87210
     2015.97535       -16.39309         5.91571
     2015.97809        -2.96351         5.93648
     2015.98083        -2.34792         5.90636
     2015.98357       -12.15334         5.84717
     2015.98631       -13.55076         5.95932
     2015.98904       -11.93317         5.90740
     2015.99178        -9.76459         5.92921
     2015.99452        -2.81100         5.92402
     2015.99726        -8.86042         5.95828
     2016.00000       -15.42283         5.89183
     2016.00273        -9.76725         5.94374
     2016.00547        -3.17867         6.00189
     2016.00821         8.93792         6.06108
     2016.01095        12.13650         6.04239
     2016.01368        -0.72091         6.71838
     2016.01642         5.36967         6.13792
     2016.01916         4.78926         6.28330
     2016.02190         5.56284         6.02785
     2016.02464        17.31443         5.84406
     2016.02737        22.03901         5.81083
     2016.03011        13.84359         5.76410
     2016.03285        -3.45282         6.02785
     2016.03833        18.86235         6.12235
     2016.04106         7.39393         6.01851
     2016.04380        12.59652         6.06004
     2016.04654         4.02910         6.10366
     2016.04928        20.44668         5.98736
     2016.05201        17.04327         5.90325
     2016.05749        -3.66256         5.94998
     2016.06023        -3.06598         5.83887
     2016.06297        -6.17339         5.71426
     2016.07118        20.70236         6.04862
     2016.07392        -4.79506         6.09431
     2016.07666         9.82953         6.16388
