# ================= DQRFIT RESULTS ================
# INPUT FILE: series/WACO.rad
# OUTPUT: LDETRENDED
# FILTER FUNCTION: f(t)
# f(t)=+line(t)+annual(t)
# line(t)=+P 1+P 2*t
# annual(t)=+P 3*sin(2*pi*t+P 4)
# heav(t)=(t<0?0:1)
# TOTAL OBSERVATIONS MTOT= 2918
# INITIAL TIME INTERVAL= 2011.5097 - 2002.3299 =  9.1798
# TOTAL OBSERVATIONS AFTER PREFILTER M= 2889
# TIME-SPAN= 2011.5097 - 2002.3299 =  9.1798
# OBSERVATIONS: USED M=  2889 REJECTED MTOT-M=    29 %USED=   99.0062
# N=  4 PARAMETERS
# MAXSIG= 175.00000
# MAXRES=  25.05803
# SCALE FACTOR FOR LENGTHS: SCL=  10.00000
# SCALE FACTOR FOR SIGMAS: SCLSIG=   1.00000
# CHI^2=   2659.253 DOF=  2885 CHI^2/DOF=   0.92175
# RMS=      5.564 SDEV=      5.565 MEAN=    0.00135
#  P #       PARAMETER +-    SIGMA %error PARAMETER NAME
# P 1 =      2155.51456 +-   79.600   3.69 YZERO                              
# P 2 =        -1.06851 +-    0.040   3.71 SLOPE                              
# P 3 =         3.17159 +-    0.145   4.58 ANNUAL AMPLITUDE                   
# P 4 =        -2.57518 +-    0.055   2.12 ANNUAL PHASE                       
#       T            LDETRENDED       SIG_OBS
     2002.32991        -2.32181         5.95249
     2002.33264        -6.48688         5.78352
     2002.33538         4.06204         5.96017
     2002.33812        -4.06003         5.81232
     2002.34086        -3.71910         5.78160
     2002.34360       -10.06018         5.99761
     2002.34633       -11.71226         5.95153
     2002.34907        -0.50933         5.76431
     2002.35181        -4.69341         5.75759
     2002.35455        -4.47848         5.75567
     2002.35729        -6.61855         5.79024
     2002.36003        -5.77763         5.84304
     2002.36276       -12.53570         6.03218
     2002.36550        11.23822         5.81904
     2002.36824        -1.74485         5.87760
     2002.37097        -0.90593         5.78544
     2002.37371        -3.63200         5.93425
     2002.37645        -9.66407         5.84112
     2002.37919        -1.85015         5.78352
     2002.38193         0.17777         5.74415
     2002.38466         0.22670         5.74319
     2002.38740        -0.61838         5.70863
     2002.39014        -3.65545         5.71823
     2002.39288        -7.85853         5.81232
     2002.39562        -4.23659         5.79120
     2002.39836        -6.93467         5.63566
     2002.40109         8.02925         5.69327
     2002.40383        -3.51282         5.78256
     2002.40657         8.04810         5.88144
     2002.40930        -0.19497         5.76719
     2002.41204         1.73995         5.84880
     2002.41478         0.83288         6.00817
     2002.41752         1.55181         6.11282
     2002.42026        -6.44527         6.16659
     2002.42299        -1.07635         6.14739
     2002.42573       -15.42442         5.95345
     2002.42847        -3.08749         5.70287
     2002.43121        -3.14457         6.12146
     2002.43395        -2.20064         6.13490
     2002.44763         1.40398         5.96209
     2002.45037         4.87891         6.13106
     2002.45311         2.66284         5.69231
     2002.45585        -0.80824         5.74415
     2002.45859         8.55568         5.75087
     2002.46132         0.94161         5.84304
     2002.46406         0.26154         5.86992
     2002.46680         4.27846         5.73455
     2002.46954        -3.73961         5.95153
     2002.47228         5.02732         5.86416
     2002.47502         2.66024         5.64334
     2002.47775         5.90716         5.62510
     2002.48117         6.60182         7.92065
     2002.48323         3.77601         6.22611
     2002.48596        -0.11106         6.26452
     2002.48870         8.17486         6.11378
     2002.49144        -0.15521         5.96785
     2002.49418         1.06572         6.07730
     2002.49692         0.54764         6.03794
     2002.49965         4.67457         5.94481
     2002.50239        -0.22551         6.01585
     2002.50513         1.35042         5.98705
     2002.50787         0.20034         5.88048
     2002.51061        -0.34673         5.77679
     2002.51335         3.78820         5.76335
     2002.51608         6.93412         5.94769
     2002.51882        -6.49296         6.16563
     2002.52156         6.62497         5.91505
     2002.52429         2.17089         5.77679
     2002.52703        -1.02418         5.84784
     2002.52977        -6.76025         6.02354
     2002.53525         4.46360         6.08978
     2002.53798         2.01952         5.81328
     2002.54072         7.50245         5.95825
     2002.54346        -3.35863         6.27220
     2002.54620         4.32230         5.92945
     2002.54894        -1.46377         5.76815
     2002.55168         4.04615         5.89776
     2002.55441        -1.53593         5.83728
     2002.55715         3.02100         6.07442
     2002.55989         3.74092         5.97169
     2002.56262         1.17985         5.80368
     2002.56536         2.78678         6.03794
     2002.56810         2.70770         5.82960
     2002.57084         5.56863         6.00337
     2002.57357        -0.20345         5.90065
     2002.57631        -2.65952         5.87184
     2002.57905        -1.59460         5.81712
     2002.58179         2.38533         5.82672
     2002.58453        -0.51375         6.04562
     2002.59360        11.56194        10.01266
     2002.59548        -1.72404         5.76335
     2002.59822        -8.18912         6.04562
     2002.60095         0.88081         5.89873
     2002.60369        -3.42727         5.93233
     2002.60643         1.68366         5.91793
     2002.60917        -3.42842         5.87472
     2002.61190        -4.10849         5.90161
     2002.61464        -0.23157         6.15699
     2002.61738         8.37836         6.32500
     2002.62012        -3.53672         5.96881
     2002.62286         7.57321         6.14355
     2002.62559         3.56713         6.09746
     2002.62833         3.10606         6.37972
     2002.63107         3.83299         6.28180
     2002.63381        -2.35109         5.81808
     2002.63655        -5.91416         5.83344
     2002.63928        -5.27124         5.80176
     2002.64202        -6.05131         5.96305
     2002.64476        -1.17238         6.04178
     2002.64750         1.48654         6.04370
     2002.65023        -4.18254         5.94673
     2002.65297        -5.73361         5.92465
     2002.65571        -2.85869         6.03890
     2002.65845         5.87924         6.06962
     2002.68309         0.40557         6.08306
     2002.68583         9.73150         6.09458
     2002.68856         8.92142         6.14739
     2002.69130         5.02734         5.94193
     2003.00342        -1.41816         6.21459
     2003.00616        -8.33923         6.20691
     2003.00889        -4.58731         6.07346
     2003.01163        -5.07538         6.11090
     2003.01437        -3.79546         5.89488
     2003.01711        -3.91153         5.94001
     2003.01984         3.34039         5.76719
     2003.02258         1.06132         5.82192
     2003.02532         0.12125         5.87664
     2003.02806        -3.20083         5.83344
     2003.03080        -2.16490         5.77295
     2003.03353        -4.68898         5.79504
     2003.03627        -7.82805         5.75759
     2003.03901        -3.89913         5.92465
     2003.04175        -5.64620         5.88816
     2003.04449        -5.93328         5.77007
     2003.04722         1.24365         5.76815
     2003.04997        -4.90342         5.94673
     2003.05270         0.01850         5.77199
     2003.05544         0.13042         5.88048
     2003.05817         9.14835         6.03218
     2003.06091         9.15428         5.90833
     2003.06365        -0.87580         5.82864
     2003.06639        -1.23287         5.95345
     2003.06913         8.47006         6.11474
     2003.07186        -2.98002         5.93233
     2003.07460         0.58190         5.96305
     2003.07734        -2.56017         5.92657
     2003.08008        -1.24925         5.89873
     2003.08282        -1.43132         5.94769
     2003.08555        -3.14840         6.08210
     2003.08830         0.67553         5.80848
     2003.09103        -4.90155         5.98801
     2003.09377         1.93138         5.99281
     2003.09650         3.15731         5.87952
     2003.09924         0.88723         5.97745
     2003.10198        -0.76984         5.90161
     2003.10472        -3.39192         5.78736
     2003.10746         3.05101         5.91025
     2003.11019         2.83593         6.03890
     2003.11293        -1.82714         6.08882
     2003.11567         1.54778         5.98897
     2003.11841        -1.59429         6.08306
     2003.12115        -5.41037         5.90833
     2003.12389        -3.87743         5.99089
     2003.12663         2.48849         5.94961
     2003.12936         1.24141         6.14259
     2003.13210        -4.55566         6.03026
     2003.13757        -1.08081         5.72879
     2003.14031         7.93911         5.68079
     2003.14305        -2.33996         5.97649
     2003.14579         1.60097         5.76719
     2003.14852         1.78489         5.71631
     2003.15126        -1.53419         5.72591
     2003.15400         8.35674         5.59438
     2003.15674         3.20066         5.93329
     2003.15948         6.83259         5.66255
     2003.16221         0.96452         5.87184
     2003.16495         3.60444         5.85264
     2003.16769         3.98737         5.74319
     2003.17043         8.91529         5.72687
     2003.17316         6.83122         5.68847
     2003.17590         2.27214         5.69423
     2003.17864         2.84707         5.96881
     2003.18138         6.50199         5.95249
     2003.18412        -0.62608         5.66159
     2003.18685         1.22784         5.69807
     2003.18959         3.33077         5.68463
     2003.19233        -8.23930         5.88816
     2003.19507         6.31062         5.93233
     2003.19780         3.25655         5.93425
     2003.20055         8.17548         5.77391
     2003.20329         1.25440         5.88240
     2003.20602        -2.67168         5.96113
     2003.20876         1.87125         5.88048
     2003.21149        -2.02283         5.71823
     2003.21423         7.21510         6.02738
     2003.21697         9.32702         5.80272
     2003.21971         1.68595         5.96401
     2003.22245        -2.36312         5.74703
     2003.22518        -1.56820         5.67023
     2003.22792         4.75073         6.02642
     2003.23066        -3.11635         5.80560
     2003.23340       -10.15042         6.05714
     2003.23613        -9.06950         5.77487
     2003.23887        -3.01357         5.90545
     2003.24162        -4.14064         5.65486
     2003.24709         3.68520         5.89104
     2003.24982         6.83813         5.68175
     2003.25256         6.51005         5.85744
     2003.25530        -3.94502         5.85744
     2003.25804         0.43091         5.64718
     2003.26078        -1.09216         5.72591
     2003.26351         0.39776         5.65871
     2003.26625         1.25068         5.68559
     2003.26899         3.37861         5.86608
     2003.27173         6.90753         5.93233
     2003.27446        -2.76454         5.68751
     2003.27721         4.07739         5.65871
     2003.27995         1.43131         5.53101
     2003.28268         4.01723         5.51373
     2003.28542         4.60816         5.53293
     2003.28815         6.09408         5.52909
     2003.29089         3.25501         5.67791
     2003.29363         0.85594         5.64430
     2003.29637        -0.20913         5.55310
     2003.29911         2.70779         5.53678
     2003.30184         3.03271         5.54254
     2003.30458         4.88864         5.64430
     2003.30732         7.38356         5.61166
     2003.31006         2.30549         5.53870
     2003.31279         5.37941         5.46861
     2003.31554        -3.87866         5.59150
     2003.31828         8.27727         5.47149
     2003.32101         6.50019         5.62222
     2003.32375         8.00812         5.48205
     2003.32648        -0.09696         5.59534
     2003.32922         2.55497         5.60590
     2003.33196        -0.06211         5.61262
     2003.33470        -1.03318         5.51757
     2003.33744        -2.42125         5.51181
     2003.34017         2.69167         5.52909
     2003.34291         4.92559         5.48781
     2003.34565        -0.60648         5.46573
     2003.34839         5.86144         5.58190
     2003.35112         2.10937         5.63086
     2003.35387         4.61830         5.45421
     2003.35661         8.71923         5.46189
     2003.35934         8.01915         5.42349
     2003.36208         4.30007         5.45325
     2003.36481         3.67300         5.54542
     2003.36755         2.16592         5.58670
     2003.37029         5.04485         5.51085
     2003.37303        -8.03122         5.63182
     2003.37577        -0.16430         5.39756
     2003.37850        -1.19138         5.42061
     2003.38124        -0.46645         5.48013
     2003.38398         5.45047         5.46477
     2003.38672        -3.52560         5.58862
     2003.38945         5.43832         5.64526
     2003.39219         1.45325         5.61742
     2003.39493         0.73418         5.51469
     2003.39767         6.34410         5.51181
     2003.40041         3.43403         5.74319
     2003.40314         3.99995         5.88720
     2003.40588         9.67588         5.84112
     2003.40862        -1.83620         5.83824
     2003.41136         2.62573         5.48493
     2003.41410        -0.23634         5.47821
     2003.41683         3.57058         5.64910
     2003.41957         7.58850         5.57998
     2003.42231         9.51543         5.51181
     2003.42505         8.36536         5.47341
     2003.42778        10.16128         5.65871
     2003.43053        11.58521         5.55214
     2003.43326         2.23513         5.88912
     2003.43600         8.14806         5.95633
     2003.43874         8.16399         5.88720
     2003.44148         9.85991         5.88144
     2003.44421         5.76583         5.62222
     2003.44695        11.82276         5.64430
     2003.44969         2.70469         5.43885
     2003.45243         1.13061         5.43885
     2003.45791         1.94047         5.65967
     2003.46064        -1.59061         5.57614
     2003.46338         3.83731         5.56462
     2003.46611         6.38124         5.42445
     2003.46886         5.44817         5.56654
     2003.47159         4.10609         5.50509
     2003.47433         8.34701         5.48781
     2003.47707         3.39094         5.55790
     2003.47980        11.40186         5.66927
     2003.48254        -1.19721         5.58958
     2003.48528         3.55071         5.68367
     2003.48802         3.11464         5.62414
     2003.49076         9.40157         5.76143
     2003.49349        -0.15551         5.61646
     2003.49623        -5.86558         5.57806
     2003.49897         0.11934         5.56750
     2003.50171        -4.60373         5.76527
     2003.50444        -2.02681         5.73167
     2003.50718         1.58012         5.67119
     2003.50992         3.15904         5.54542
     2003.51266         5.87797         5.64910
     2003.51540        -1.57311         5.59534
     2003.51813         7.25782         5.57806
     2003.52087         7.80774         5.61358
     2003.52361         5.51267         5.82288
     2003.52635         6.18360         5.73551
     2003.52908         4.66052         5.61070
     2003.53182        -4.93455         5.66447
     2003.53456         4.65837         5.83440
     2003.53730        -1.33570         5.71727
     2003.54277        -0.15585         5.57422
     2003.54552        -1.14392         5.56462
     2003.54825        -9.16500         5.71247
     2003.55099         1.37892         5.70095
     2003.55373        -4.32015         5.58478
     2003.55646         5.78678         5.53582
     2003.56468         2.35356         5.58766
     2003.56742        -0.95152         5.57998
     2003.57015         2.95240         5.61070
     2003.57289         5.91633         5.76239
     2003.57563        -0.18675         5.58478
     2003.57837         4.93018         5.67791
     2003.58110         1.36910         5.85168
     2003.58385         6.13003         6.03602
     2003.58658         7.13796         6.13490
     2003.58932         3.54488         6.08210
     2003.61122         5.46128         5.48013
     2003.61396         2.22621         5.48013
     2003.61670         0.28013         5.47245
     2003.61943         4.54506         5.71343
     2003.63039         9.34576         5.56558
     2003.63313         8.75969         5.42637
     2003.63587         6.14562         5.45517
     2003.63860        12.51954         5.58958
     2003.64134         0.27647         5.47821
     2003.64408         6.29139         5.48493
     2003.64681         5.57331         5.61166
     2003.64955        -1.76976         6.13970
     2003.65230         3.54917         5.75951
     2003.65776         3.60002         5.95057
     2003.66051         3.73595         5.83056
     2003.66324         8.38387         5.94385
     2003.66598         4.90979         5.99665
     2003.66872         3.56572         5.74895
     2003.67145        10.32564         5.79888
     2003.67419        11.73357         5.96113
     2003.67693         7.20249         5.91601
     2003.67967         4.38042         5.84688
     2003.68241        11.84235         6.13586
     2003.68514         3.37327         5.89680
     2003.68788         4.49620         6.01009
     2003.69061         9.74712         5.92465
     2003.69336        10.56805         6.05138
     2003.69609         0.99197         5.95633
     2003.69884         6.93390         5.84592
     2003.70157         9.25783         6.04370
     2003.70431         6.36875         5.87664
     2003.70705         4.86067         5.61550
     2003.70978         5.38360         5.46765
     2003.71252         5.06052         5.63758
     2003.71526        17.99745         5.56558
     2003.71800         4.51237         5.50605
     2003.72073        10.46830         5.52429
     2003.72347         2.39423         5.57518
     2003.72621         5.26915         5.57998
     2003.72895         4.37408         5.57998
     2003.73169         4.79400         5.61358
     2003.73717         3.77586         5.51949
     2003.73990         4.52678         5.47053
     2003.74264         6.39170         6.07730
     2003.74538         6.64263         6.04850
     2003.74811         1.53355         6.07058
     2003.75085         7.25648         6.02738
     2003.75359        11.29140         5.85840
     2003.75633         4.24034         5.93041
     2003.75907         8.99726         6.08306
     2003.76180         8.31518         6.24819
     2003.76454         6.69011         6.34804
     2003.76728        14.80504         6.45269
     2003.77002        11.01596         6.37684
     2003.77275        11.91288         6.09554
     2003.77549         7.43980         6.10418
     2003.77823         3.61274         6.24627
     2003.78097         7.68766         5.97937
     2003.78371         9.90558         6.08882
     2003.78918         7.81244         5.95153
     2003.79192         5.48536         6.23955
     2003.79466         3.27829         6.00529
     2003.79740         8.02422         6.02066
     2003.80013         3.22314         6.06290
     2003.80287        -0.75894         5.91985
