# ================= DQRFIT RESULTS ================
# INPUT FILE: series/WACS.rad
# OUTPUT: LDETRENDED
# FILTER FUNCTION: f(t)
# f(t)=+line(t)+annual(t)
# line(t)=+P 1+P 2*t
# annual(t)=+P 3*sin(2*pi*t+P 4)
# heav(t)=(t<0?0:1)
# TOTAL OBSERVATIONS MTOT= 2204
# INITIAL TIME INTERVAL= 2021.2457 - 2015.0034 =  6.2423
# TOTAL OBSERVATIONS AFTER PREFILTER M= 2202
# TIME-SPAN= 2021.2457 - 2015.0034 =  6.2423
# OBSERVATIONS: USED M=  2202 REJECTED MTOT-M=     2 %USED=   99.9093
# N=  4 PARAMETERS
# MAXSIG= 175.00000
# MAXRES=  18.03231
# SCALE FACTOR FOR LENGTHS: SCL=  10.00000
# SCALE FACTOR FOR SIGMAS: SCLSIG=   1.00000
# CHI^2=   1621.473 DOF=  2198 CHI^2/DOF=   0.73770
# RMS=      4.897 SDEV=      4.898 MEAN=    0.00682
#  P #       PARAMETER +-    SIGMA %error PARAMETER NAME
# P 1 =      2994.32307 +-  112.072   3.74 YZERO                              
# P 2 =        -1.48557 +-    0.056   3.74 SLOPE                              
# P 3 =         5.99444 +-    0.142   2.38 ANNUAL AMPLITUDE                   
# P 4 =        -2.75547 +-    0.031   1.13 ANNUAL PHASE                       
#       T            LDETRENDED       SIG_OBS
     2015.00342        -3.75571         4.76860
     2015.00616       -12.81365         4.67841
     2015.00889       -10.78158         4.77804
     2015.01163        -5.43751         4.82185
     2015.01437        -8.88745         4.78663
     2015.01711        -5.42738         4.80037
     2015.01984         0.79769         4.78749
     2015.02258        -2.47524         4.87166
     2015.02532        -0.65318         4.81755
     2015.02806        -2.96211         4.79780
     2015.03080        -5.39804         4.76860
     2015.03353        -5.68997         4.93522
     2015.03627        -2.55591         4.75657
     2015.03901        -0.63684         4.80209
     2015.04175         6.53223         4.83044
     2015.04449        -7.28171         4.86307
     2015.04722         4.89636         4.95841
     2015.04996        -2.87557         4.79780
     2015.05270        -7.83350         4.70074
     2015.05544        -9.17944         4.72823
     2015.05817        -1.47437         4.77804
     2015.06091        -2.64330         4.71534
     2015.06365         2.93077         5.01510
     2015.06639        -0.86217         4.72222
     2015.06913        -5.16010         4.71792
     2015.07186        -3.70303         4.81240
     2015.07460        -3.71597         4.75657
     2015.07734       -10.79190         4.70418
     2015.08008       -11.89183         4.70246
     2015.08282        -4.77276         4.70676
     2015.08555        -2.82770         4.78148
     2015.08829        -0.00563         4.81068
     2015.09103        -2.48856         4.74111
     2015.09377        -4.61849         4.77461
     2015.09650         1.00357         4.83387
     2015.09924         9.76564         4.81755
     2015.10198         6.40871         4.73682
     2015.10472        -1.84623         4.77461
     2015.10746         4.33984         4.73939
     2015.11019        -6.84009         4.85878
     2015.11293        -5.87502         4.76774
     2015.11567         1.04904         4.93866
     2015.11841        -6.52989         4.72909
     2015.12115        -0.45282         4.76087
     2015.12388        -7.91175         4.73252
     2015.12662       -10.63269         4.73682
     2015.12936        -3.61162         4.70761
     2015.13210        -8.62055         4.76945
     2015.13483        -0.69949         4.81498
     2015.13757        -5.19442         4.79866
     2015.14031        -4.19735         4.71191
     2015.14305        -5.71828         4.69902
     2015.14579        -7.16622         4.74970
     2015.14852        -3.07515         4.75571
     2015.15126        -2.13308         4.75399
     2015.15400        -5.06701         4.71792
     2015.15674         2.53005         4.79179
     2015.15948         2.01612         4.72307
     2015.16221         1.60619         4.75228
     2015.16495         2.47325         4.75657
     2015.16769        -2.62768         4.73510
     2015.17043        -1.39661         4.74111
     2015.17316        -2.45154         4.86136
     2015.17590        -5.43048         4.87596
     2015.17864        -2.32741         4.70676
     2015.18138         0.22766         4.71964
     2015.18412         0.57372         4.69215
     2015.18685         1.69479         4.76001
     2015.18959         4.10886         4.90602
     2015.19233         2.07593         4.87080
     2015.19507        -1.84101         4.74283
     2015.19780        -2.27994         4.72909
     2015.20054        -3.69487         4.76602
     2015.20328        -6.68880         4.68614
     2015.20602        -7.12174         4.84761
     2015.20876        -1.73467         4.72737
     2015.21149        -9.28960         4.74369
     2015.21423        -7.83054         4.89228
     2015.21697        -3.43247         4.85019
     2015.21971        -4.75140         4.70332
     2015.22245        -3.54033         4.72393
     2015.22518        -3.17627         4.71534
     2015.22792        -5.14920         4.69473
     2015.23066        -5.91513         4.71620
     2015.23340         4.22594         4.81068
     2015.23613        -3.61700         4.91203
     2015.23887        -0.44693         4.94982
     2015.24161         3.99514         4.94639
     2015.24435         3.59720         4.96185
     2015.24709         0.03727         4.86222
     2015.24982        -3.98366         4.73166
     2015.25256        -4.40959         4.74712
     2015.25530        -8.05953         4.68356
     2015.25804        -2.91646         4.69559
     2015.26078         0.40461         4.71277
     2015.26351        -1.12532         4.69988
     2015.26625         2.04174         4.75399
     2015.26899        -9.60519         4.69645
     2015.27173         2.99388         4.80725
     2015.27446        -2.67306         4.85019
     2015.27720        -3.50399         4.69645
     2015.27994        -8.63192         4.68786
     2015.28268        -0.08185         4.72479
     2015.28542        -7.20079         4.82958
     2015.28815        -9.17972         4.83215
     2015.29089        -3.03565         4.75228
     2015.29363        -5.30158         4.69645
     2015.29637        -3.65352         4.69215
     2015.29911        -1.63945         4.73080
     2015.30184         3.91662         4.86823
     2015.30458        -3.82332         4.67326
     2015.30732        -6.33825         4.63375
     2015.31006        -5.08018         4.61743
     2015.31279        -3.03711         4.62001
     2015.31553        -7.18905         4.65436
     2015.31827        -6.79598         4.60798
     2015.32101        -1.67991         4.63718
     2015.32375        -9.73984         4.63976
     2015.32648        -6.48378         4.69988
     2015.32922        -2.18871         4.80896
     2015.33196        -2.10464         4.63203
     2015.33470        -1.75958         4.61657
     2015.33744        -5.01951         4.52553
     2015.34017        -7.20044         4.71019
     2015.34291        -7.38437         4.62001
     2015.34565        -7.19431         4.61657
     2015.34839        -2.10324         4.65350
     2015.35112        -4.87617         4.59596
     2015.35386        -1.79211         4.62860
     2015.35660        -1.83304         4.68099
     2015.35934        -3.27997         4.69902
     2015.36208        -3.66690         4.66725
     2015.36481        -3.41684         4.54786
     2015.36755        -0.93877         4.56933
     2015.37029        -4.27070         4.57534
     2015.37303        -6.54863         4.61485
     2015.37577        -5.35757         4.57277
     2015.37850        -7.27150         4.75743
     2015.38124        -6.24543         4.55645
     2015.38398        -6.46937         4.55645
     2015.38672        -0.72930         4.61056
     2015.38945        -4.22323         4.60712
     2015.39219        -4.82416         4.62344
     2015.39493        -1.17210         4.59510
     2015.39767        -6.99603         4.54185
     2015.40041        -7.59896         4.57534
     2015.40314        -2.79489         4.76258
     2015.40588        -5.47383         4.65780
     2015.40862        -7.30076         4.62688
     2015.41136        -1.48569         4.62258
     2015.41410         1.24637         4.67841
     2015.41683        -2.67856         4.61485
     2015.41957        -0.75849         4.65694
     2015.42231        -0.36042         4.61657
     2015.42505        -7.64236         4.70074
     2015.42778        -4.59929         4.68528
     2015.43052         0.39778         4.62001
     2015.43326        -6.19115         4.61485
     2015.43600         1.56791         4.66381
     2015.43874         2.65998         4.58307
     2015.44147        -2.05095         4.80209
     2015.44421        -1.23189         4.58909
     2015.44695        -5.12682         4.64320
     2015.44969        -3.48375         4.62516
     2015.45243         1.43432         4.70074
     2015.45516         3.82738         4.60541
     2015.45790         3.02445         4.79522
     2015.46064         2.10152         4.72995
     2015.46338         6.23559         4.83130
     2015.46611         4.54365         4.65179
     2015.46885         4.60472         4.63375
     2015.47159         4.94079         4.68099
     2015.47433        -2.86915         4.73939
     2015.47707         9.13192         4.84418
     2015.47980         1.96999         4.71019
     2015.48254         5.06206         4.61485
     2015.48528         6.57912         4.70160
     2015.48802         1.69719         4.64320
     2015.49076        -4.81974         4.68356
     2015.49349         6.57333         4.73768
     2015.49623         3.32239         4.78663
     2015.49897         1.97946         4.72909
     2015.50171         3.88453         4.61743
     2015.50444         2.83359         4.57620
     2015.50707         1.46949         4.78148
     2015.51100        -2.09366        12.31229
     2015.51266         8.75080         4.60283
     2015.51540         5.87486         4.59768
     2015.51813         9.23893         4.71449
     2015.52087         9.19400         4.60626
     2015.52361        12.21907         4.75915
     2015.52635         4.62913         4.66639
     2015.52908        10.21520         4.62430
     2015.53182         5.25127         4.61314
     2015.53456         5.76833         4.63031
     2015.53730         8.17540         4.68099
     2015.54004         5.12447         4.77976
     2015.54277         5.73854         4.72393
     2015.54551        10.60260         4.72651
     2015.54825         8.02367         4.84074
     2015.55099         6.65974         4.69387
     2015.55373         9.24380         4.73768
     2015.55646        11.75887         4.74455
     2015.55920        11.26494         4.68271
     2015.56194        13.04901         4.77117
     2015.56468         8.51907         4.76602
     2015.56741         8.54814         4.71363
     2015.57015         4.20421         4.91976
     2015.57289         6.61828         4.84847
     2015.57563         5.55934         4.68099
     2015.57837         6.73741         4.66381
     2015.58110        10.41548         4.68185
     2015.58384        16.04054         4.80295
     2015.58658        14.79961         4.88455
     2015.58932        14.14868         4.81412
     2015.59206         3.88575         4.73338
     2015.59479         6.30381         4.72651
     2015.59753        15.38888         4.74798
     2015.60027        12.28295         4.84418
     2015.60301         6.80902         4.98504
     2015.60574        11.47008         4.77031
     2015.60848        12.39115         4.69645
     2015.61122        12.46222         4.71620
     2015.61396        17.19828         4.74111
     2015.61670        10.99435         4.73424
     2015.61943         9.39442         4.60455
     2015.62217         8.56749         4.59338
     2015.62491        13.36355         4.61314
     2015.62765        11.43462         4.66209
     2015.63039        13.37669         4.65007
     2015.63312        21.77276         4.78921
     2015.63586         9.57682         4.66639
     2015.63860         8.21089         4.61657
     2015.64134         8.66596         4.57706
     2015.64407        17.94602         4.70074
     2015.64681         6.16309         4.67583
     2015.64955        12.05316         4.65522
     2015.65229         8.02523         4.64062
     2015.65503        17.00729         4.67841
     2015.65776         2.30936         4.81841
     2015.66050        13.09943         4.87424
     2015.66324         1.95350         4.74798
     2015.66598        10.59556         4.80467
     2015.66872        13.70563         4.79350
     2015.67145        10.60370         4.63203
     2015.67419         7.43376         4.59424
     2015.67693        10.62583         4.58737
     2015.67967        19.09790         4.71191
     2015.68240         4.66697         4.57448
     2015.68514         3.49903         4.63547
     2015.68788         7.69010         4.58909
     2015.69062        11.89817         4.64749
     2015.69336         6.65924         4.78491
     2015.69609        11.19230         4.65522
     2015.69883        20.92437         4.73768
     2015.70157        12.14444         4.63031
     2015.70431        14.46950         4.62860
     2015.70705        10.83257         4.60884
     2015.70978        15.79764         4.64749
     2015.71252         9.09671         4.64577
     2015.71526        10.31477         4.55645
     2015.71800        15.09484         4.63890
     2015.72073        17.33791         4.63203
     2015.72347         5.28597         4.59252
     2015.72621        10.21204         4.63890
     2015.72895        -1.81189         4.62516
     2015.73169         5.01218         4.55129
     2015.73442         9.01724         4.67326
     2015.73716         7.35131         4.61314
     2015.73990         9.64138         4.68700
     2015.74264         7.16945         4.75314
     2015.74538        12.18151         4.73166
     2015.74811         2.68958         4.77890
     2015.75085         3.69665         4.65608
     2015.75359         6.09371         4.69215
     2015.75633         7.74578         4.62430
     2015.75906         7.79185         4.60970
     2015.76180         9.02292         4.62688
     2015.76454         4.48198         4.62001
     2015.76728         9.98605         4.71449
     2015.77002        19.19512         4.82099
     2015.77275        13.02519         4.82442
     2015.77549        20.96225         4.75829
     2015.77823        15.04532         4.67154
     2015.78097         6.54339         4.68442
     2015.78371         9.89945         4.63375
     2015.78644        14.08152         4.66553
     2015.78918         3.19359         4.62688
     2015.79192        17.36866         4.68271
     2015.79466         7.69372         4.67755
     2015.79739        12.40479         4.70246
     2015.80013         4.55486         4.77633
     2015.80287        -2.52407         4.75142
     2015.80561         7.99999         4.65264
     2015.80835         6.30906         4.63718
     2015.81108         3.92013         4.72479
     2015.81382         6.90819         4.86995
     2015.81656         2.59926         4.82185
     2015.81930         0.94933         4.71706
     2015.82203         8.82739         4.84074
     2015.82477         4.78346         4.72995
     2015.82751         9.64753         4.89056
     2015.83025         8.36460         4.78491
     2015.83299        12.42067         4.85277
     2015.83572         6.57173         4.74884
     2015.83846         0.96880         4.72909
     2015.84120        -3.74813         4.72651
     2015.84394         1.33893         4.71363
     2015.84668         1.55200         4.71620
     2015.84941         4.72407         4.81669
     2015.85215         5.06614         4.74025
     2015.85763        -0.04873         4.69902
     2015.86031         3.04725         4.84246
     2015.86310        -2.50859         4.70246
     2015.86584         6.54247         4.72393
     2015.86858        -2.93346         4.71792
     2015.87132         1.92261         4.71363
     2015.87405        -4.38233         4.66553
     2015.87679        -2.68426         4.73338
     2015.87953         0.45381         4.86307
     2015.88227         4.56688         4.68271
     2015.88501        -9.40706         4.66209
     2015.88774        -6.80099         4.65780
     2015.89048         3.58908         4.69301
     2015.89322         4.73214         4.69129
     2015.89596         6.02521         4.69044
     2015.89869         4.85828         4.67154
     2015.90143        -2.85265         4.67240
     2015.90417        -4.85059         4.60025
     2015.90691        -2.64152         4.63117
     2015.90965        -0.79345         4.68442
     2015.91238        -2.68838         4.76258
     2015.91512        -1.21632         4.71706
     2015.91786        -1.41125         4.64234
     2015.92060         7.85682         4.72823
     2015.92334         0.76088         4.68872
     2015.92607        -7.44205         4.68700
     2015.92881        -3.41998         4.70246
     2015.93155        -1.27991         4.92491
     2015.93429         6.78415         4.89142
     2015.93702         4.03522         4.88798
     2015.93976         2.13029         4.88798
     2015.94250        -0.25364         4.84074
     2015.94524        -0.99358         4.81240
     2015.94798         8.12549         4.88197
     2015.95071         4.52856         4.67326
     2015.95345        -2.90238         4.63547
     2015.95619        -3.09631         4.70933
     2015.95893        -1.64124         4.83473
     2015.96167         5.67483         4.84418
     2015.96440         2.42689         4.64406
     2015.96714         5.63696         4.73166
     2015.96988         2.15003         4.68271
     2015.97262        12.05510         4.69473
     2015.97535         5.03916         4.69731
     2015.97809         2.99823         4.69817
     2015.98083         0.93930         4.69044
     2015.98357        -7.79164         4.71105
     2015.98631        -8.71657         4.71620
     2015.98904        -1.20350         4.66725
     2015.99178        -4.80843         4.68356
     2015.99452        -3.00637         4.68614
     2015.99726        -2.65630         4.68442
     2016.00000        -5.48623         4.64749
     2016.00273        -1.84316         4.69731
     2016.00547        -3.60110         4.71706
     2016.00821       -15.37603         4.71191
     2016.01095         7.05904         4.70676
     2016.01368        -1.09990         4.73596
     2016.01642        -2.37583         4.77203
     2016.01916        -4.08776         4.86995
     2016.02190         0.46131         4.79350
     2016.02464        -3.52463         4.70246
     2016.02737        -2.26556         4.76945
     2016.03011        -1.04749         4.65866
     2016.03285         3.19858         4.74541
     2016.03559        -5.24736         4.64406
     2016.03833        -0.88629         4.78234
     2016.04106        -4.51222         4.76602
     2016.04380        -0.00616         4.72995
     2016.04654         2.11391         4.63117
     2016.04928        -0.60302         4.62774
     2016.05201        -3.59295         4.63804
     2016.05475        -0.81889         4.65179
     2016.05749         0.88918         4.68872
     2016.06023        -2.40375         4.59166
     2016.06297        -6.16968         4.60884
     2016.06570        -2.53262         4.71620
     2016.06844        -6.50955         4.87596
     2016.07118        -4.96848         4.77547
     2016.07392        -0.97142         4.77890
     2016.07666        -3.93035         4.81927
