# ================= DQRFIT RESULTS ================
# INPUT FILE: series/WAEV.rad
# OUTPUT: LDETRENDED
# FILTER FUNCTION: f(t)
# f(t)=+line(t)+annual(t)
# line(t)=+P 1+P 2*t
# annual(t)=+P 3*sin(2*pi*t+P 4)
# heav(t)=(t<0?0:1)
# TOTAL OBSERVATIONS MTOT= 2170
# INITIAL TIME INTERVAL= 2021.2457 - 2015.0007 =  6.2450
# TOTAL OBSERVATIONS AFTER PREFILTER M= 2167
# TIME-SPAN= 2021.2457 - 2015.0007 =  6.2450
# OBSERVATIONS: USED M=  2167 REJECTED MTOT-M=     3 %USED=   99.8617
# N=  4 PARAMETERS
# MAXSIG= 175.00000
# MAXRES=  45.01303
# SCALE FACTOR FOR LENGTHS: SCL=  10.00000
# SCALE FACTOR FOR SIGMAS: SCLSIG=   1.00000
# CHI^2=   1572.594 DOF=  2163 CHI^2/DOF=   0.72704
# RMS=      4.855 SDEV=      4.856 MEAN=    0.06884
#  P #       PARAMETER +-    SIGMA %error PARAMETER NAME
# P 1 =      4361.88122 +-  113.256   2.60 YZERO                              
# P 2 =        -2.16461 +-    0.056   2.59 SLOPE                              
# P 3 =         8.00397 +-    0.143   1.78 ANNUAL AMPLITUDE                   
# P 4 =        -2.64950 +-    0.022   0.83 ANNUAL PHASE                       
#       T            LDETRENDED       SIG_OBS
     2015.00068        -7.39564         4.87982
     2015.00342       -11.69971         4.79882
     2015.00616       -14.37078         4.83974
     2015.00889       -11.56186         4.75363
     2015.01163        -8.82993         4.82354
     2015.01437       -10.42800         4.72293
     2015.01711       -10.20308         5.11089
     2015.01984        -7.39715         4.80649
     2015.02258        -4.32122         4.93269
     2015.02532        -7.35430         4.85595
     2015.02806        -8.85637         4.89517
     2015.03080        -2.57844         4.79882
     2015.03353       -11.88652         4.86362
     2015.03627        -4.65959         4.80223
     2015.03901         3.74533         4.92927
     2015.04175         3.55326         4.73146
     2015.04449        -1.47381         4.76130
     2015.04722        -2.64089         4.98470
     2015.04995        -5.81299         4.72719
     2015.05270        -5.49203         4.77921
     2015.05544        -6.05511         4.70502
     2015.05817        -1.93418         4.76642
     2015.06017        -3.01986         6.97738
     2015.06365         3.02167         5.09128
     2015.06639         1.65560         4.79711
     2015.06913        -5.96148         4.92757
     2015.07186        -3.22255         4.98981
     2015.07460        -1.59662         4.91648
     2015.07734       -11.88270         4.60952
     2015.08008       -13.50077         4.71099
     2015.08282        -4.26084         4.75874
     2015.08829         3.68101         4.87044
     2015.09103         3.98194         5.06314
     2015.09285        -1.98111         8.54629
     2015.09622        -0.51283         5.77086
     2015.09924        -1.23229         4.87556
     2015.10198         3.80364         5.17825
     2015.10472        -2.75743         5.04950
     2015.10746        -5.65251         5.19019
     2015.11019       -13.14358         4.82951
     2015.11293        -5.04965         4.86618
     2015.11567        -3.39473         5.46475
     2015.11841        -9.34880         5.13392
     2015.12115         0.72513         5.20810
     2015.12388        -6.74695         4.90455
     2015.12662        -8.23602         4.98811
     2015.12936        -4.95010         4.99152
     2015.13210        -6.47117         4.78262
     2015.13483        -5.69124         4.79370
     2015.13757        -8.49932         5.22259
     2015.14031        -7.24239         5.06911
     2015.14305        -5.15446         4.72975
     2015.14579        -7.06154         4.68797
     2015.14852        -8.50061         4.84401
     2015.15126        -4.88068         4.70161
     2015.15400        -9.58976         4.75021
     2015.15674        -1.47683         4.91052
     2015.15948        -0.29790         4.77835
     2015.16221        -2.41698         5.19104
     2015.16495        -2.27605         4.62999
     2015.16769        -7.03313         4.71696
     2015.17044        -3.92518         4.92331
     2015.17316        -3.60127         4.80223
     2015.17590        -7.99735         4.83207
     2015.17864        -5.26142         4.83974
     2015.18138        -7.21349         4.87385
     2015.18412         0.00243         4.66580
     2015.18685        -3.08064         4.60270
     2015.18959         5.00729         4.77921
     2015.19233        -2.28779         4.84657
     2015.19507        -0.33986         4.77750
     2015.19780        -0.68494         4.76556
     2015.20054        -4.16301         4.88664
     2015.20328        -6.68608         4.57627
     2015.20602        -7.54416         4.87044
     2015.20876        -4.37623         4.68115
     2015.21149        -5.34430         4.64363
     2015.21423        -9.30138         5.01198
     2015.21697         1.10655         4.88067
     2015.21971        -4.77352         4.85253
     2015.22245        -7.11860         4.94377
     2015.22520         1.06137         4.71696
     2015.22792        -4.83775         4.64278
     2015.23066        -1.76782         4.62402
     2015.23340        -6.48989         4.95912
     2015.23614        -0.35796         5.08446
     2015.23887        -0.23404         4.90114
     2015.24161         0.10889         4.86277
     2015.24435        -6.93419         4.86191
     2015.24709        -6.41126         4.80820
     2015.24982        -3.65233         4.68797
     2015.25256        -4.75741         4.78773
     2015.25530        -7.25648         4.67347
     2015.25804        -8.46456         4.68456
     2015.26078        -2.84663         4.72208
     2015.26351        -2.97370         4.69650
     2015.26625        -1.44478         4.66921
     2015.26899        -1.33485         4.64875
     2015.27173         6.85208         4.79796
     2015.27446         1.58700         4.78091
     2015.27720         0.32993         4.67006
     2015.27994        -3.02114         4.76556
     2015.28268        -6.90722         4.69991
     2015.28542        -8.77929         4.72719
     2015.28815        -8.82536         4.95230
     2015.29089        -5.08144         4.66068
     2015.29363        -2.11651         4.70758
     2015.29637        -4.15159         4.71867
     2015.29911         1.18934         4.66751
     2015.30184         1.87727         4.72293
     2015.30458        -4.26481         4.63255
     2015.30732        -5.02488         4.52937
     2015.31006        -2.56095         4.68712
     2015.31279        -5.53903         4.60867
     2015.31553        -7.54510         4.61635
     2015.31827       -10.76417         4.57542
     2015.32101        -6.45225         4.59929
     2015.32375        -6.52432         4.56177
     2015.32648        -6.01640         4.69650
     2015.32922        -1.44047         4.64278
     2015.33196        -0.71554         4.58480
     2015.33470        -4.33262         4.65045
     2015.33744        -2.68469         4.70758
     2015.34017        -4.83176         4.51744
     2015.34291        -5.96084         4.53619
     2015.34565        -3.37491         4.57201
     2015.34839        -5.66498         4.52170
     2015.35112        -5.76706         4.79711
     2015.35386        -2.37213         4.84145
     2015.35660        -2.46821         4.54387
     2015.35934        -0.61128         4.80308
     2015.36208        -2.27635         4.66239
     2015.36481        -1.79043         4.76130
     2015.36754        -1.92752         4.70843
     2015.37029        -2.13357         4.68371
     2015.37303        -4.73865         4.66836
     2015.37577        -5.72372         4.68626
     2015.37850        -7.22779         4.76471
     2015.38124        -3.69287         4.62999
     2015.38398        -3.71594         4.64193
     2015.38672        -3.19702         4.73487
     2015.38945        -3.61809         4.56945
     2015.39219         2.10784         4.70929
     2015.39493        -3.15224         4.67603
     2015.39767        -4.58831         4.58224
     2015.40041        -3.16338         4.57798
     2015.40314        -7.50646         4.66410
     2015.40588        -2.12553         4.67689
     2015.40862         0.17440         4.60867
     2015.41136         0.67332         4.55069
     2015.41410        -1.19175         4.77835
     2015.41684        -1.10880         4.63596
     2015.41957        -3.13090         4.82610
     2015.42231         0.89903         4.61549
     2015.42505        -5.67405         4.62743
     2015.42778        -1.37812         4.58053
     2015.43051         0.54679         4.52596
     2015.43326        -2.92627         4.57286
     2015.43600         5.79666         4.66665
     2015.43874         3.87659         4.65898
     2015.44147        -4.44649         4.91052
     2015.44421        -0.82556         4.71440
     2015.44695        -0.79063         4.55751
     2015.44969        -2.13571         4.62487
     2015.45243        -0.52578         4.65045
     2015.45516        -0.61886         4.59929
     2015.45790         1.66807         4.70161
     2015.46064         6.92400         4.72122
     2015.46338         5.40392         4.84742
     2015.46611         5.56785         4.62061
     2015.46885         3.81378         4.59588
     2015.47159         5.37770         4.61976
     2015.47433         5.68163         4.77665
     2015.47706         7.93754         4.83548
     2015.47980        -0.04452         4.61038
     2015.48254         2.31841         4.60952
     2015.48528         0.06433         4.62317
     2015.48802         3.31226         4.53023
     2015.49076         8.93719         4.65642
     2015.49349         2.53511         4.65131
     2015.49623         9.02604         4.64960
     2015.49897         4.16597         4.63937
     2015.50171         6.37289         4.61038
     2015.50444        11.63882         4.65557
     2015.50718         3.86175         4.56177
     2015.50992         4.24367         4.76300
     2015.51266         3.78360         4.66239
     2015.51540         3.60152         4.51147
     2015.51813         6.20545         4.60270
     2015.52087        13.16038         4.53619
     2015.52361         9.10330         4.67092
     2015.52635         4.76523         4.53619
     2015.52908         7.54116         4.65983
     2015.53182        10.45008         4.68626
     2015.53456         5.17501         4.66921
     2015.53730        15.02194         4.75533
     2015.54004         7.91486         4.68030
     2015.54277         5.71879         4.71867
     2015.54551        18.86572         4.76471
     2015.54825        17.28364         4.78176
     2015.55099         9.62757         4.65898
     2015.55355         9.62112         4.91904
     2015.55646         9.11042         4.69479
     2015.55920        22.41435         4.71014
     2015.56195        15.26330         4.64363
     2015.56468         8.14020         4.60441
     2015.56741         5.01313         4.62231
     2015.57015         7.96505         4.73231
     2015.57289        10.67998         4.70332
     2015.57563        13.95191         4.59077
     2015.57837        10.79183         4.64107
     2015.58110        11.57876         4.66751
     2015.58384        11.05868         4.65813
     2015.58658        11.05461         4.74766
     2015.58932         8.76754         4.69053
     2015.59206        13.27346         4.65898
     2015.59479        11.96839         4.60867
     2015.59753        16.00632         4.79541
     2015.60027        16.17724         4.81416
     2015.60301        16.61917         5.01966
     2015.60574        12.54010         4.66239
     2015.60848        14.38102         4.68371
     2015.61122        15.79695         4.68541
     2015.61396        14.64287         4.61038
     2015.61670        10.41580         4.55154
     2015.61943        12.31673         4.63937
     2015.62217        12.06365         4.61720
     2015.62491        18.97558         4.65472
     2015.62765        10.74851         4.54302
     2015.63039        12.99943         4.53023
     2015.63312        12.75536         4.70247
     2015.63586        22.09129         4.59929
     2015.63860        10.15021         4.48503
     2015.64134        16.43414         4.53449
     2015.64407        13.70706         4.49953
     2015.64681        11.09799         4.60015
     2015.64955        14.49592         4.65898
     2015.65229         9.73684         4.57286
     2015.65503        20.04377         4.68712
     2015.65776        15.59970         4.85765
     2015.66050         9.37462         4.85253
     2015.66324        19.85955         4.54984
     2015.66598        17.67948         4.75533
     2015.66872        22.89240         4.92586
     2015.67145        13.82033         4.57115
     2015.67419         8.37126         4.64107
     2015.67693        11.74618         4.54557
     2015.67967        11.38111         4.54472
     2015.68240         6.76703         4.55154
     2015.68514        12.18596         4.64193
     2015.68788         9.53289         4.56519
     2015.69062        11.47781         4.60015
     2015.69335         7.98372         4.74936
     2015.69609         9.54267         4.52085
     2015.69883        11.03159         4.66665
     2015.70157        13.76552         4.54813
     2015.70431        11.35445         4.57371
     2015.70705        13.49737         4.50891
     2015.70978        12.43230         4.56774
     2015.71252         6.84522         4.54472
     2015.71526        12.47615         4.56604
     2015.71800        21.57408         4.71270
     2015.72073        21.78899         4.71696
     2015.72347         8.84793         4.57627
     2015.72621         3.84386         4.52852
     2015.72895         8.97278         4.67177
     2015.73169         4.97471         4.55751
     2015.73442        11.69064         4.59332
     2015.73716        10.86256         4.51488
     2015.73990         7.00149         4.69479
     2015.74264         9.07941         4.68030
     2015.74538        12.59234         4.76642
     2015.74811         7.32027         4.63937
     2015.75085         6.39019         4.48162
     2015.75359         0.50112         4.63596
     2015.75633         6.96805         4.52937
     2015.75906        10.24097         4.50806
     2015.76180         8.40990         4.67262
     2015.76454         5.81483         4.54898
     2015.76728         6.87075         4.62487
     2015.77002        10.62668         4.86703
     2015.77275        11.67761         4.72890
     2015.77549        16.84853         4.65131
     2015.77823        14.40846         4.73487
     2015.78097        10.42638         4.60526
     2015.78371         9.18931         4.59247
     2015.78644        10.65824         4.59759
     2015.78918         6.58916         4.58480
     2015.79192        12.17109         4.57030
     2015.79466         9.98202         4.60952
     2015.79739        11.14794         4.63937
     2015.80013         7.89987         4.81331
     2015.80287         3.23980         4.71440
     2015.80561         6.78672         4.62317
     2015.80835         6.39365         4.60697
     2015.81108         3.19357         4.58394
     2015.81382        11.09750         4.62573
     2015.81656         3.90143         4.64107
     2015.81930         7.12636         4.56689
     2015.82203         7.47928         4.65642
     2015.82477         7.12121         4.76983
     2015.82751        14.03813         4.73146
     2015.83025        11.11406         4.63852
     2015.83299        14.07299         4.81672
     2015.83572         6.36291         4.65386
     2015.83846        -3.28316         4.78262
     2015.84120        -5.53024         4.85936
     2015.84394        -0.79831         4.77579
     2015.84668        -3.86038         4.81672
     2015.84941         6.75554         4.74766
     2015.85215         1.12047         4.85253
     2015.85763        -2.05968         4.72293
     2015.86031         2.44113         4.98385
     2015.86310         3.84018         4.65557
     2015.86584         6.22210         4.74680
     2015.86858        -6.44797         4.86703
     2015.87132        -2.16205         4.86106
     2015.87405        -1.90612         4.72293
     2015.87679        -0.18919         4.84571
     2015.87953        -2.37227         4.76471
     2015.88227        -2.32234         4.66751
     2015.88501       -10.95841         4.60526
     2015.88774        -7.56849         4.61123
     2015.89048         0.88944         4.58565
     2015.89322        -0.85263         4.67177
     2015.89596         1.18829         4.64960
     2015.89869        -1.01078         4.60782
     2015.90143        -8.30185         4.57883
     2015.90417        -8.01493         4.55922
     2015.90691        -3.47600         4.57371
     2015.90965        -6.14108         4.57371
     2015.91238        -9.20415         4.61635
     2015.91512        -0.72822         4.60270
     2015.91786        -2.83630         4.55410
     2015.92060         0.81363         4.65472
     2015.92334        -1.67444         4.60015
     2015.92607        -9.63852         4.60441
     2015.92881       -10.04759         4.61805
     2015.93155        -6.78466         4.78176
     2015.93429        -3.71774         4.75448
     2015.93702         4.66519         4.77068
     2015.93976         5.53611         4.78347
     2015.94250         0.24904         4.68797
     2015.94524        -7.02803         4.66665
     2015.94798         0.75689         4.70332
     2015.95071         1.96482         4.55069
     2015.95345        -5.53225         4.58480
     2015.95619        -3.32433         4.65642
     2015.95893        -5.98540         4.87556
     2015.96167         4.05453         4.81246
     2015.96440        -3.44855         4.57456
     2015.96714         3.83038         4.63766
     2015.96988         2.91930         4.56519
     2015.97262         7.61123         4.57883
     2015.97535         1.66116         4.64789
     2015.97809         1.72808         4.59418
     2015.98083        -5.66699         4.58736
     2015.98357       -11.95706         4.60611
     2015.98631       -10.58314         4.63169
     2015.98904        -8.82621         4.64107
     2015.99178        -9.80628         4.58565
     2015.99452        -6.78636         4.61976
     2015.99726        -8.28343         4.61379
     2016.00000        -9.48951         4.59162
     2016.00273       -12.17058         4.60441
     2016.00547        -7.18765         4.63169
     2016.00821        -7.22573         4.58650
     2016.01095        -1.15180         4.66324
     2016.01368        -8.08487         4.66921
     2016.01642        -9.85495         4.69820
     2016.01916        -5.44402         4.81416
     2016.02190        -3.10009         4.66239
     2016.02464        -4.83217         4.63766
     2016.02737        -5.76924         4.62828
     2016.03011        -7.75631         4.66580
     2016.03285        -5.02139         4.61549
     2016.03559        -5.36246         4.57371
     2016.03833        -2.55354         4.67603
     2016.04106        -3.22161         4.64448
     2016.04380        -8.19268         4.64278
     2016.04654        -4.66076         4.56689
     2016.04928        -4.16683         4.56604
     2016.05201        -6.28890         4.57542
     2016.05475        -2.27898         4.57115
     2016.05749        -6.99505         4.60356
     2016.06023        -7.52912         4.60611
     2016.06297        -8.54820         4.52085
     2016.06570        -7.46927         4.63766
     2016.06844        -6.68635         4.73998
     2016.07118        -7.12342         4.70673
     2016.07392        -9.99349         4.74510
     2016.07666        -4.27557         4.74936
