# ================= DQRFIT RESULTS ================
# INPUT FILE: series/WAOY.rad
# OUTPUT: LDETRENDED
# FILTER FUNCTION: f(t)
# f(t)=+line(t)
# line(t)=+P 1+P 2*t
# heav(t)=(t<0?0:1)
# TOTAL OBSERVATIONS MTOT=  401
# INITIAL TIME INTERVAL= 2016.6538 - 2015.0034 =  1.6504
# TOTAL OBSERVATIONS AFTER PREFILTER M=  401
# TIME-SPAN= 2016.6538 - 2015.0034 =  1.6504
# OBSERVATIONS: USED M=   401 REJECTED MTOT-M=     0 %USED=  100.0000
# N=  2 PARAMETERS
# MAXSIG= 175.00000
# MAXRES=  17.34863
# SCALE FACTOR FOR LENGTHS: SCL=  10.00000
# SCALE FACTOR FOR SIGMAS: SCLSIG=   1.00000
# CHI^2=    385.826 DOF=   399 CHI^2/DOF=   0.96698
# RMS=      6.132 SDEV=      6.140 MEAN=   -0.00354
#  P #       PARAMETER +-    SIGMA %error PARAMETER NAME
# P 1 =     -1789.95930 +- 1085.643  60.65 YZERO                              
# P 2 =         0.88595 +-    0.539  60.79 SLOPE                              
#       T            LDETRENDED       SIG_OBS
     2015.00342         1.40381         5.84406
     2015.00616       -12.03362         5.89225
     2015.00889        -6.39304         6.15874
     2015.01163        -6.01447         6.51078
     2015.01437        -3.45690         6.22659
     2015.01711         1.79568         6.31509
     2015.01984         1.90125         6.22364
     2015.02258         7.12783         6.37802
     2015.02532        -2.81360         6.09187
     2015.02806         0.77298         6.18332
     2015.03080         4.62155         6.11645
     2015.03353         0.98913         5.94141
     2015.03627         1.81270         5.92568
     2015.03901         4.72027         5.99943
     2015.04175         7.43085         6.20495
     2015.04449         0.60242         6.22659
     2015.04728        13.99195         6.59239
     2015.04996         5.33057         5.95911
     2015.05270        -5.24285         5.97976
     2015.05544        -5.24528         6.05253
     2015.05817        -1.98970         6.04172
     2015.06091        -1.16613         5.96010
     2015.06365        14.97344         6.65533
     2015.06639         6.70902         6.12825
     2015.06913        -3.63341         6.09678
     2015.07186        -8.43283         6.10268
     2015.07460         6.83174         5.99845
     2015.07734       -12.68068         6.08400
     2015.08008        -0.98311         5.87946
     2015.08282         1.30347         6.10760
     2015.08555        -2.04096         6.12727
     2015.08829        11.03761         6.38982
     2015.09103         7.11119         6.01025
     2015.09377         5.29576         6.12038
     2015.09650        -1.75366         6.55404
     2015.09924         1.47291         6.44096
     2015.10198        10.89849         6.34557
     2015.10472         2.90206         6.48029
     2015.10746         7.67963         6.13317
     2015.11019        -5.83479         6.41441
     2015.11293         1.34178         6.34361
     2015.11567        -3.73764         6.45276
     2015.11841        -7.87107         6.04762
     2015.12115        -2.86749         6.08597
     2015.12388         4.12508         6.05450
     2015.12662        -5.17634         6.03188
     2015.12936        -0.29677         6.05647
     2015.13210        -2.63020         6.11940
     2015.13483        -4.72262         6.12432
     2015.13757         2.97895         6.00533
     2015.14031        -3.74647         5.92470
     2015.14305        -1.15590         5.87455
     2015.14579        -1.98432         6.17447
     2015.14852        -2.02375         6.13218
     2015.15126         1.10183         5.98075
     2015.15400         0.48640         6.08793
     2015.15674         8.08397         6.38196
     2015.15948         5.17155         6.19610
     2015.16221         0.63212         6.01812
     2015.16495         5.65770         6.00730
     2015.16769         3.90727         5.86471
     2015.17043         7.20985         5.91585
     2015.17316        -1.16658         6.15087
     2015.17590        -4.15200         6.22560
     2015.17864         1.22257         5.95125
     2015.18138         2.51514         5.90700
     2015.18412         5.31372         5.96305
     2015.18685         3.06629         6.05253
     2015.18959         4.16787         6.41736
     2015.19233         0.67944         6.26592
     2015.19507         1.61802         6.00140
     2015.19780        -1.23641         6.40359
     2015.20054         4.79216         6.40261
     2015.20328        -4.45426         6.17152
     2015.20602        -5.22169         6.22855
     2015.20876         4.91089         6.03680
     2015.21149        -4.39854         6.03385
     2015.21423        -4.08996         6.26592
     2015.21800       -15.48430        12.87306
     2015.21971         1.74919         5.98173
     2015.22245         2.30976         6.06827
     2015.22518         2.07033         6.16267
     2015.22792         6.90891         6.13710
     2015.23066        -1.64852         6.12235
     2015.23340        -3.36494         6.12432
     2015.23613         2.15063         6.12432
     2015.23887        -3.83079         6.18332
     2015.24161         5.38078         6.24527
     2015.24435        -1.03064         6.39966
     2015.24709        -1.34407         6.15185
     2015.24982        -0.38550         6.11448
     2015.25256         1.17808         5.96501
     2015.25530        -3.08635         5.92273
     2015.25804        -4.00377         5.97386
     2015.26078        -0.82220         6.03680
     2015.26351         0.90638         6.07908
     2015.26625         1.83495         6.18725
     2015.26899        -5.07747         5.96108
     2015.27173         0.06710         6.04073
     2015.28895         8.18384         9.99086
     2015.29089         0.86012         5.93256
     2015.29363        -2.56431         5.83423
     2015.29637        -4.37773         5.99058
     2015.29911         3.06784         6.08990
     2015.30184         7.64042         6.02107
     2015.30458        -0.36001         5.90601
     2015.30732         3.57157         5.76539
     2015.31006        -8.85286         5.80866
     2015.31279        -4.65028         5.82243
     2015.31553        -5.12771         5.93945
     2015.31827        -7.57414         5.89716
     2015.32101        -0.19056         6.08892
     2015.32375        -3.60899         5.94731
     2015.32648        -5.67341         5.99648
     2015.32922        -1.55584         6.07023
     2015.33196        -2.91726         5.93945
     2015.33470         1.27931         5.83030
     2015.33744        -2.14811         5.79489
     2015.34017        -0.64654         6.11645
     2015.34291        -6.72797         5.86373
     2015.34565        -2.63839         5.94535
     2015.34839         2.24718         5.94830
     2015.35112         0.79076         5.94731
     2015.35386         3.76333         5.93846
     2015.35660        -9.38809         6.03877
     2015.35934         2.37648         6.08695
     2015.36208         4.28306         6.02992
     2015.36481         4.82163         5.99157
     2015.36755         1.76520         6.02598
     2015.37029        -3.35122         5.99550
     2015.37303        -2.79265         5.93551
     2015.37577        -0.16307         5.97780
     2015.37850        -1.11450         6.10760
     2015.38124        -1.30792         6.01812
     2015.38398        -2.07235         6.00140
     2015.38672         0.88622         5.91781
     2015.38945        11.48880         6.14890
     2015.39219         1.66737         6.00337
     2015.39493        -0.15205         6.11547
     2015.39767        -4.77848         6.06630
     2015.40041         0.80110         5.85390
     2015.40314         2.25067         6.28264
     2015.40588        -0.36375         6.17054
     2015.40862         5.20382         6.17054
     2015.41136         2.17239         6.12923
     2015.41410        -1.33603         6.11350
     2015.41683        -0.04346         6.09285
     2015.41957         2.86112         5.89618
     2015.42231         3.18069         6.08007
     2015.42505        -2.23873         6.28264
     2015.42778         3.09884         6.18627
     2015.43052        10.91942         5.97190
     2015.77275        11.64022         6.14398
     2015.77549         6.65779         6.04958
     2015.77823        -3.61263         5.91880
     2015.78097         5.63994         6.16955
     2015.78371        11.90351         6.04073
     2015.78644        11.59209         5.87356
     2015.78918         8.44866         5.86570
     2015.79192         3.46824         6.05450
     2015.79466        11.85981         6.12628
     2015.79739        14.79039         6.11940
     2015.80013        11.91096         6.27182
     2015.80287        -1.98146         6.25609
     2015.80561         3.08611         5.91290
     2015.80835        -2.98432         5.89520
     2015.81108         3.57126         6.08007
     2015.81382        11.76883         6.06827
     2015.81656        -1.73259         6.40261
     2015.81930         3.18198         6.14890
     2015.82203         3.37156         6.23445
     2015.82477         5.40213         6.47242
     2015.82751        14.02170         6.26199
     2015.82985        17.34863         8.22181
     2015.93702        10.76768         6.59829
     2015.93976        -1.29774         6.53044
     2015.94250         1.41883         6.31705
     2015.94524         2.58340         6.22757
     2015.94798         5.26298         6.45374
     2015.95071         6.56355         5.78309
     2015.95345        -3.42287         5.85586
     2015.95619        -1.39830         6.13415
     2015.95893        -5.68872         6.26297
     2015.96167         8.94085         6.48422
     2015.96440        -0.07957         5.95420
     2015.96714         2.02300         5.93945
     2015.96988        -1.51843         6.06040
     2015.97262        11.55815         6.07908
     2015.97535         4.29772         6.09875
     2015.97809         1.34430         6.03582
     2015.98083         2.12587         6.00042
     2015.98357       -17.46955         5.98567
     2015.98631        -6.88098         6.29542
     2015.98904        -7.24241         6.08302
     2015.99178        -3.57183         6.07810
     2015.99452        -0.60726         6.15283
     2015.99726        -1.70168         5.94141
     2016.00000        -8.15811         5.82145
     2016.00273        -3.53853         5.85881
     2016.00547        -8.66896         5.76343
     2016.00821        -0.94338         6.02697
     2016.01095         7.41419         6.13317
     2016.01368        -7.97624         6.14595
     2016.01642         0.41934         6.34951
     2016.01916         4.40591         6.40359
     2016.02190         5.19949         6.48226
     2016.02464        -1.93494         6.18234
     2016.02737        -2.28236         6.09580
     2016.02960       -21.70133         8.14511
     2016.12594        -7.62268         6.27182
     2016.12867         1.62089         6.05843
     2016.13141        -3.65754         6.07318
     2016.13415        -0.61396         6.02402
     2016.13689        -5.22239         6.09383
     2016.13963       -12.34081         6.07318
     2016.14236       -12.71824         6.11842
     2016.14510       -10.75866         5.88438
     2016.14784       -13.39409         5.97288
     2016.15058        -7.33151         5.82931
     2016.15331        -8.19094         6.03385
     2016.15605        -2.27337         6.18627
     2016.15879        -9.96979         6.17742
     2016.16153       -12.52922         6.14398
     2016.16427        -5.05264         6.20594
     2016.16700        -3.55807         6.32099
     2016.16974        -9.68749         6.15480
     2016.17248       -10.01592         6.16169
     2016.17522        -7.30335         6.13218
     2016.17796         7.57123         6.21282
     2016.18069         0.96880         6.08990
     2016.18343       -13.09262         6.27969
     2016.18617        -2.37605         6.09187
     2016.18891       -10.58547         6.15382
     2016.19164        -1.97090         5.91585
     2016.19438         3.93768         5.98665
     2016.19712        -4.58075         5.92863
     2016.19986        -4.51518         5.96403
     2016.20260       -10.38260         6.01910
     2016.20533       -11.42303         6.21774
     2016.20807       -10.33945         6.08793
     2016.21629        -8.14073         5.87160
     2016.21902        -1.62515         6.22954
     2016.22176        -7.92158         5.89028
     2016.22450       -14.04701         5.84996
     2016.22724        -9.78543         5.97091
     2016.22997        -2.70986         5.85390
     2016.23271        -5.89828         5.88045
     2016.23545        -5.50871         5.90011
     2016.23819       -10.84413         5.74474
     2016.24093        -4.91856         5.84308
     2016.24366        -5.29698         5.82046
     2016.24640        -3.65941         5.76539
     2016.24914        -5.57684         5.83423
     2016.25188        -3.10226         5.84701
     2016.25462        -5.39269         5.77129
     2016.25735        -5.22411         5.95813
     2016.26009       -13.66554         5.81555
     2016.26283       -11.52596         5.95715
     2016.26557        -2.46239         5.84210
     2016.26830        -6.58682         5.87258
     2016.27104        -6.17924         5.94436
     2016.27378        -3.46967         5.85488
     2016.27652        -5.27009         5.90110
     2016.27926         0.68648         5.96895
     2016.28199        -3.37494         6.08990
     2016.28473        -4.37537         5.93846
     2016.28747         0.71721         5.97681
     2016.29021       -12.09122         6.04958
     2016.29295        -5.61265         5.93748
     2016.29568        -5.20207         5.87258
     2016.29842        -4.66750         5.90306
     2016.30116        -1.59692         5.95125
     2016.30390       -10.07435         5.98173
     2016.30663        -0.89277         6.05352
     2016.30937        -8.59820         6.20200
     2016.31211        -2.88662         5.76638
     2016.31485        -3.33305         5.97288
     2016.31759        -5.45648         5.80079
     2016.32032        -4.50090         5.86078
     2016.32306        -6.87833         5.81260
     2016.32580        -7.91275         5.87651
     2016.32854        -1.78718         5.86865
     2016.33128        -6.44560         5.81653
     2016.33401        -0.96403         5.89618
     2016.33675        -0.77845         5.88340
     2016.33949         1.78212         5.85881
     2016.34223         0.40269         5.97190
     2016.34496        -2.49673         5.96010
     2016.34770         3.67384         5.92961
     2016.35044         2.82942         6.08007
     2016.35318        -6.77601         5.73983
     2016.35592        -7.40143         6.01320
     2016.35865        -6.56186         5.72606
     2016.36139        -3.42329         5.80473
     2016.36413         5.25829         5.76244
     2016.36687         1.03986         5.92371
     2016.36961         9.62844         5.92273
     2016.37234         5.49201         5.85881
     2016.37508         2.74759         5.79489
     2016.37782        -5.48584         5.96993
     2016.38056         0.13074         6.08007
     2016.38329         3.44831         5.81456
     2016.38603         4.90188         6.01025
     2016.38877        12.02346         5.89815
     2016.39151         3.35503         5.76048
     2016.39425        -5.99239         5.89520
     2016.39698         6.09018         5.86078
     2016.39972        10.55776         6.05253
     2016.40246        -3.95967         6.04762
     2016.40520         2.86191         5.86668
     2016.40794       -10.12152         5.97780
     2016.41067        -2.77895         5.99845
     2016.41341        -5.31837         5.83521
     2016.41615        -2.69480         5.85586
     2016.41889        -2.37122         5.99353
     2016.42162         7.07335         5.95715
     2016.42436        -7.45407         5.92470
     2016.42710         4.85550         5.99845
     2016.42984        -1.98992         5.80178
     2016.43258         0.54365         5.93453
     2016.43531         9.86922         5.96698
     2016.43805        14.76780         5.93846
     2016.44079         2.07737         5.99058
     2016.44353        -5.30405         6.06925
     2016.44626        -1.56448         5.89913
     2016.44900         6.92410         5.95518
     2016.45174         7.43067         6.07318
     2016.45448         6.09024         5.88930
     2016.45722        -0.66718         5.84210
     2016.45995         4.35839         5.78211
     2016.46269        -4.12503         6.05253
     2016.46543        -0.26146         5.89225
     2016.46817         5.88212         5.80079
     2016.47091         4.38769         5.81653
     2016.47364        -4.20173         5.86570
     2016.47638         4.74584         6.00828
     2016.47912         8.53741         5.95518
     2016.48186         7.71599         5.96403
     2016.48459         2.37656         5.81653
     2016.48733         2.98114         5.79883
     2016.49007        -0.77529         6.02697
     2016.49281        -3.39071         5.90798
     2016.49555        -0.39914         5.95420
     2016.49828         5.12544         5.86570
     2016.50102         6.19101         5.98468
     2016.50376        -2.11142         6.13710
     2016.50650         8.04916         6.14202
     2016.50924         0.46673         5.93158
     2016.51197         5.39631         5.75654
     2016.51471        10.44988         5.83325
     2016.51745         0.33046         5.95715
     2016.52019        -4.23497         5.87848
     2016.52292        -8.78740         5.94535
     2016.52566         0.36218         5.78211
     2016.52840         5.15875         5.70148
     2016.53114        -1.02267         5.71623
     2016.53388         0.91190         5.76441
     2016.53661        -1.19352         6.01418
     2016.53935         0.74005         5.91585
     2016.54209        12.18363         5.84701
     2016.54483         6.81220         5.89028
     2016.54757        -1.90023         5.92961
     2016.55030         1.99635         6.22167
     2016.55304        11.13992         5.83128
     2016.55578        12.28350         6.13317
     2016.55852         3.27007         5.88340
     2016.56125         1.58265         5.68968
     2016.56399         2.67822         5.87061
     2016.56673        -4.37720         6.06335
     2016.56947         0.96037         6.19217
     2016.57221         4.03294         5.70541
     2016.57494         1.61952         5.83325
     2016.57768         2.96209         5.79588
     2016.58042         1.73867         5.89126
     2016.58316         5.37024         5.82046
     2016.58590         2.73182         5.78604
     2016.58863         2.32239         5.68673
     2016.59137         3.76397         5.83816
     2016.59411        10.35254         5.98665
     2016.59685         2.64111         5.91978
     2016.59958         8.49169         5.72901
     2016.60232         7.12326         5.71918
     2016.60506         9.62984         5.86275
     2016.60780        -0.95059         5.68279
     2016.61054         2.56699         5.66411
     2016.61327        -4.43044         5.80178
     2016.61601         0.96713         5.60904
     2016.61875         9.25271         5.61494
     2016.62149         2.87628         5.74376
     2016.62423         3.96486         5.76834
     2016.62696         0.01143         5.72409
     2016.62970         2.95801         5.76736
     2016.63244         3.92458         5.85193
     2016.63518         7.31216         5.66608
     2016.63791         9.94873         5.78408
     2016.64065        14.17330         5.79686
