# ================= DQRFIT RESULTS ================
# INPUT FILE: series/WASQ.rad
# OUTPUT: LDETRENDED
# FILTER FUNCTION: f(t)
# f(t)=+line(t)+annual(t)
# line(t)=+P 1+P 2*t
# annual(t)=+P 3*sin(2*pi*t+P 4)
# heav(t)=(t<0?0:1)
# TOTAL OBSERVATIONS MTOT= 2070
# INITIAL TIME INTERVAL= 2021.2457 - 2015.0034 =  6.2423
# TOTAL OBSERVATIONS AFTER PREFILTER M= 2069
# TIME-SPAN= 2021.2457 - 2015.0034 =  6.2423
# OBSERVATIONS: USED M=  2069 REJECTED MTOT-M=     1 %USED=   99.9517
# N=  4 PARAMETERS
# MAXSIG= 175.00000
# MAXRES=  40.01468
# SCALE FACTOR FOR LENGTHS: SCL=  10.00000
# SCALE FACTOR FOR SIGMAS: SCLSIG=   1.00000
# CHI^2=   1571.358 DOF=  2065 CHI^2/DOF=   0.76095
# RMS=      4.988 SDEV=      4.989 MEAN=    0.02664
#  P #       PARAMETER +-    SIGMA %error PARAMETER NAME
# P 1 =      2963.94745 +-  121.443   4.10 YZERO                              
# P 2 =        -1.47067 +-    0.060   4.09 SLOPE                              
# P 3 =         4.01934 +-    0.150   3.72 ANNUAL AMPLITUDE                   
# P 4 =         3.07184 +-    0.053   1.71 ANNUAL PHASE                       
#       T            LDETRENDED       SIG_OBS
     2015.00342        -2.03964         4.63465
     2015.00616        -9.02961         4.62942
     2015.00889        -6.86859         4.72886
     2015.01163        -3.77456         4.74369
     2015.01437        -4.90153         4.72276
     2015.01711        -2.96351         4.81261
     2015.01984         0.46652         4.69223
     2015.02258         0.04255         4.86233
     2015.02532         0.12257         4.71142
     2015.02806        -1.54440         4.72625
     2015.03080         2.00063         4.68438
     2015.03353        -3.30335         4.71927
     2015.03627         1.32368         4.68699
     2015.03901         2.52571         4.79516
     2015.04175         6.76773         4.70444
     2015.04449        -2.84424         4.72101
     2015.04722        -4.06922         4.82395
     2015.04996         1.21481         4.71927
     2015.05270        -2.31916         4.72886
     2015.05544        -4.39114         4.72974
     2015.05817         3.03989         4.71055
     2015.06091        -2.32108         4.72014
     2015.06365        10.58594         5.15107
     2015.06639         2.91597         4.71491
     2015.06913         2.50100         4.67740
     2015.07186        -0.68198         4.73410
     2015.07460        -1.89795         4.66431
     2015.07734        -9.14092         4.65908
     2015.08008        -7.59790         4.68263
     2015.08282        -3.40687         4.69310
     2015.08555        -0.91884         4.76027
     2015.08829         0.71418         4.74980
     2015.09103         6.45821         4.65908
     2015.09377         1.39123         4.66344
     2015.09650        -5.70274         4.77771
     2015.09924        -7.15771         4.84925
     2015.10198        -7.81469         4.75242
     2015.10472        -1.71266         4.73759
     2015.10746        -0.47663         4.74021
     2015.11019        -6.55561         4.78731
     2015.11293        -1.65158         4.80650
     2015.11567        -1.31855         4.82569
     2015.11841        -3.46353         4.72538
     2015.12115        -0.70050         4.75416
     2015.12388         0.76653         4.66519
     2015.12662        -2.24345         4.73584
     2015.12936        -2.29642         4.73235
     2015.13210         0.39561         4.74718
     2015.13483        -4.30837         4.79080
     2015.13757        -5.19134         4.73933
     2015.14031        -0.95232         4.73672
     2015.14305        -4.19029         4.67740
     2015.14579        -1.97226         4.66170
     2015.14852        -3.62324         4.71491
     2015.15126        -4.12821         4.65210
     2015.15400        -0.56018         4.68001
     2015.15674        -0.80516         4.69223
     2015.15948         1.83287         4.66082
     2015.16221        -1.30610         4.68699
     2015.16495         1.18792         4.65733
     2015.16769        -1.27505         4.68263
     2015.17043         0.60798         4.66431
     2015.17316         0.70600         4.77859
     2015.17590        -3.15597         4.80476
     2015.17864        -1.71994         4.66780
     2015.18138         1.79408         4.64687
     2015.18412         0.36011         4.65472
     2015.18685        -0.67187         4.66257
     2015.18959        12.22116         4.82395
     2015.19233        -5.17181         4.78644
     2015.19507        -2.12979         4.63989
     2015.19780        -4.72676         4.72712
     2015.20054        -6.22873         4.66955
     2015.20328        -5.60171         4.63116
     2015.20602        -1.05268         4.84139
     2015.20876        -3.11465         4.70793
     2015.21149        -8.08463         4.71316
     2015.21423        -1.60960         4.82482
     2015.21697        -5.98757         4.73497
     2015.21971        -0.93355         4.75416
     2015.22245         2.22648         4.70182
     2015.22518        -2.06649         4.65559
     2015.22792        -0.95647         4.65646
     2015.23066         2.75356         4.73148
     2015.23340         9.65858         4.86669
     2015.23613         4.67161         4.85535
     2015.23887         4.36364         4.89024
     2015.24161        -0.48934         4.88414
     2015.24435        -0.50031         4.90246
     2015.24709        -1.67328         4.78557
     2015.24982        -4.13826         4.68961
     2015.25256         2.29077         4.66693
     2015.25530        -1.59820         4.65559
     2015.25804        -6.03118         4.65646
     2015.26078         4.82685         4.68176
     2015.26351         2.02888         4.69135
     2015.26625         4.14590         4.66780
     2015.26899         2.32993         4.67565
     2015.27173         4.60496         4.77510
     2015.27572        10.35083        16.07954
     2015.27720         3.72901         4.65210
     2015.27994         2.39103         4.69921
     2015.28268        -5.25594         4.66606
     2015.28542        -4.46691         4.81348
     2015.28815        -6.92689         4.79778
     2015.29089         2.95714         4.73584
     2015.29363        -2.13383         4.72014
     2015.29637        -5.42381         4.69921
     2015.29911        -0.50678         4.71229
     2015.30184         4.29425         4.83442
     2015.30458         1.47227         4.66519
     2015.30732        -0.50670         4.64425
     2015.31006        -8.62767         4.62593
     2015.31279        -0.24665         4.62157
     2015.31553        -8.24062         4.55353
     2015.31827        -4.02259         4.55266
     2015.32101        -2.11657         4.71665
     2015.32375        -7.65754         4.58755
     2015.32648        -4.14552         4.66606
     2015.32922        -9.05649         4.67391
     2015.33196         3.80354         4.54917
     2015.33470        -1.92744         4.57097
     2015.33744        -3.35441         4.59976
     2015.34017        -7.37938         4.60151
     2015.34291        -7.21936         4.61285
     2015.34565        -1.64033         4.59365
     2015.34839        -4.12130         4.56574
     2015.35112        -1.77128         4.54219
     2015.35386        -3.30725         4.58319
     2015.35660        -4.37422         4.60238
     2015.35934        -6.00820         4.63989
     2015.36208        -2.54317         4.63116
     2015.36481        -3.17815         4.54742
     2015.36755        -1.56912         4.54132
     2015.37029         0.61091         4.54132
     2015.37303        -4.61307         4.55091
     2015.37577        -3.88704         4.56836
     2015.37850        -7.86301         4.70270
     2015.38124        -1.15299         4.52474
     2015.38398        -5.08096         4.58929
     2015.38672        -4.75993         4.54655
     2015.38945        -4.46891         4.54044
     2015.39219         0.92612         4.56923
     2015.39493        -0.60785         4.54480
     2015.39767        -4.58783         4.51253
     2015.40041        -0.28980         4.56661
     2015.40314        -4.10777         4.68874
     2015.40588        -3.52075         4.61023
     2015.40862         0.60928         4.70270
     2015.41136         2.47630         4.59017
     2015.41410         2.43833         4.65036
     2015.41683        -3.80964         4.57446
     2015.41957        -3.79662         4.59453
     2015.42231         1.60541         4.56836
     2015.42505        -3.47156         4.74195
     2015.42778         0.32346         4.54917
     2015.43052         0.09849         4.59802
     2015.85763         3.29062         4.68350
     2015.86031        -4.14244         4.91031
     2015.86310         4.33967         4.69484
     2015.86584        -0.74030         4.74108
     2015.86858        -3.73928         4.73323
     2015.87132         3.16875         4.68350
     2015.87405        -2.99922         4.70618
     2015.87679        -7.51220         4.76027
     2015.87953         1.15783         4.76725
     2015.88227         6.92586         4.70793
     2015.88501        -3.10812         4.66693
     2015.88774        -3.85709         4.69135
     2015.89048         3.48194         4.68089
     2015.89322         6.24596         4.69746
     2015.89596         7.77399         4.70182
     2015.89869         4.47002         4.67042
     2015.90143         0.86104         4.68263
     2015.90417        -3.25593         4.64861
     2015.90691        -1.91690         4.65472
     2015.90965         2.49412         4.66170
     2015.91238         6.06715         4.80388
     2015.91512         5.35317         4.72712
     2015.91786         3.94520         4.67740
     2015.92060        -4.64877         4.80214
     2015.92334         9.59825         4.65995
     2015.92607        -1.64272         4.70357
     2015.92881        -8.86669         4.74457
     2015.93155        -1.19067         5.04814
     2015.93429         1.59436         4.84663
     2015.93702        -3.22361         5.04465
     2015.93976         4.20541         4.87367
     2015.94250         6.80244         4.89024
     2015.94524         1.65247         4.77423
     2015.94798         5.14549         4.83093
     2015.95071         6.34052         4.64250
     2015.95345        -1.28746         4.63814
     2015.95619         3.74357         4.76289
     2015.95893         1.52960         4.90682
     2015.96167        -0.67838         4.93037
     2015.96440         5.91665         4.68699
     2015.96714         1.25768         4.69659
     2015.96988         4.39870         4.67304
     2015.97262         4.02273         4.69048
     2015.97535         7.23176         4.68438
     2015.97809         4.23278         4.67653
     2015.98083        -0.43719         4.67914
     2015.98357        -7.99816         4.67391
     2015.98631        -2.90714         4.79778
     2015.98904        -8.10611         4.70008
     2015.99178        -3.54508         4.67653
     2015.99452        -0.56806         4.79516
     2015.99726        -5.26603         4.68699
     2016.00000         0.08099         4.70182
     2016.00273         0.63102         4.71578
     2016.00547        -8.15195         4.70793
     2016.00821        -3.35993         4.71404
     2016.01095         2.49510         4.76027
     2016.01368         2.28513         4.75503
     2016.01642         0.08915         4.78731
     2016.01916        -3.76582         5.04465
     2016.02190         0.75921         4.81959
     2016.02464        -1.07577         4.76376
     2016.02737        -4.57474         4.69048
     2016.03011         0.47029         4.74108
     2016.03285        -3.86069         4.62942
     2016.03559        -5.36566         4.64687
     2016.03833        -0.86363         4.76637
     2016.04106        -1.58261         4.72799
     2016.04380        -2.21458         4.85012
     2016.04654         0.30144         4.63989
     2016.04928         1.09547         4.62855
     2016.05201        -3.19750         4.66082
     2016.05475        -8.82948         4.65908
     2016.05749        -8.29145         4.63465
     2016.06023        -1.81742         4.74369
     2016.06297        -2.36840         4.58929
     2016.06570        -6.52337         4.71055
     2016.06844        -2.08834         4.82133
     2016.07118        -5.30232         4.76812
     2016.07392        -2.93029         4.78382
     2016.07666         0.64374         4.86233
     2016.07939         1.93076         4.83965
     2016.08213        -1.72021         4.95392
     2016.08487        -2.64418         4.80040
     2016.08761        -4.32716         4.71665
     2016.09034        -8.88713         4.73497
     2016.09308        -0.56511         4.86146
     2016.09582       -11.58108         4.72625
     2016.09856       -17.15505         4.96178
     2016.10130       -12.89903         4.72450
     2016.10403        -7.18800         5.53140
     2016.10677        -9.21297         4.72363
     2016.10951        -7.16595         4.90507
     2016.11225        -4.80992         4.75329
     2016.11498       -11.79589         4.98707
     2016.11772       -11.90287         4.93386
     2016.12046       -10.49684         4.86844
     2016.12320        -8.41281         4.70618
     2016.12594        -5.95779         4.69746
     2016.12867         2.69724         4.69310
     2016.13141         5.50827         4.70793
     2016.13415        -3.63971         4.71840
     2016.13689        -5.93068         4.63291
     2016.13963        -3.19466         4.75329
     2016.14236        -7.05063         4.63989
     2016.14510        -7.31360         4.63465
     2016.14784        -6.48358         4.68176
     2016.15058        -6.78055         4.64687
     2016.15331        -1.64352         4.75591
     2016.15605        -3.24550         4.59714
     2016.15879       -10.85747         4.80912
     2016.16153        -7.56644         4.73846
     2016.16427        -7.71942         4.83180
     2016.16700       -12.50939         4.68612
     2016.16974       -18.96536         4.93473
     2016.17248        -6.15334         4.79603
     2016.17522        -2.32631         4.80563
     2016.17796        -0.23028         4.89286
     2016.18069         3.71474         4.74369
     2016.18343        -6.19723         4.82133
     2016.18617        -2.60321         4.66955
     2016.18891        -6.49918         4.69048
     2016.19164        -3.81415         4.69746
     2016.19438         3.15287         4.67129
     2016.19712        -3.37410         4.62506
     2016.19986        -1.29607         4.72276
     2016.20260        -7.61005         4.71316
     2016.20533        -5.90802         4.83354
     2016.20807        -4.48999         4.74631
     2016.21629        -0.47691         4.61634
     2016.21902        -0.57689         4.68263
     2016.22176        -5.69186         4.55876
     2016.22450        -5.88284         4.56574
     2016.22724       -11.53681         4.58144
     2016.22997        -5.55878         4.70095
     2016.23271        -5.47076         4.62331
     2016.23545        -8.13073         4.70531
     2016.23819        -4.21070         4.59802
     2016.24093        -2.25968         4.62419
     2016.24366        -7.59565         4.57359
     2016.24640        -0.41862         4.57534
     2016.24914        -2.72660         4.56574
     2016.25188        -0.33957         4.65646
     2016.25462        -2.91254         4.67129
     2016.25735       -11.63552         4.64250
     2016.26009       -10.18049         4.63814
     2016.26283        -9.33346         4.61023
     2016.26557        -0.93544         4.61634
     2016.26830        -2.56941         4.61982
     2016.27104        -3.59739         4.59453
     2016.27378        -3.28436         4.57621
     2016.27652        -4.16733         4.61895
     2016.27926        -2.74831         4.64425
     2016.28199        -7.72728         4.59627
     2016.28473        -2.25625         4.69310
     2016.28747       -11.81323         4.59627
     2016.29021        -9.91920         4.62331
     2016.29295        -6.69217         4.61895
     2016.29568        -0.83015         4.67827
     2016.29842        -2.69112         4.71578
     2016.30116        -7.25909         4.71491
     2016.30390        -5.36707         4.73061
     2016.30663        -1.68004         4.67391
     2016.30937        -2.38001         4.65123
     2016.31211        -4.94599         4.66955
     2016.31485        -3.64196         4.64250
     2016.31759        -2.71694         4.63029
     2016.32032        -1.40291         4.66780
     2016.32306        -9.94388         4.62244
     2016.32580        -5.87286         4.65297
     2016.32854        -5.68083         4.63204
     2016.33128        -8.12280         4.67740
     2016.33401        -0.01578         4.76986
     2016.33675        -0.52375         4.74282
     2016.33949        -2.66372         4.67478
     2016.34223        -3.21870         4.64948
     2016.34496        -4.01067         4.75678
     2016.34770        -7.06464         4.71055
     2016.35044        -0.45062         4.81348
     2016.35318        -2.73559         4.62593
     2016.35592       -11.07656         4.62157
     2016.35865       -12.09554         4.68438
     2016.36139        -5.37851         4.65733
     2016.36413        -6.29549         4.64774
     2016.36687         7.15154         4.68089
     2016.36961         5.12957         4.60761
     2016.37234         5.80459         4.61023
     2016.37508        -3.21638         4.62244
     2016.37782       -13.58035         4.65995
     2016.38056         1.03667         4.65123
     2016.38329         3.05470         4.59365
     2016.38603        -4.68127         4.60761
     2016.38877         9.14375         4.65908
     2016.39151        -1.14822         4.62157
     2016.39425        -3.78619         4.58493
     2016.39698         8.45083         4.73846
     2016.39972         7.40586         4.62331
     2016.40246       -11.12811         4.66257
     2016.40520        -0.92709         4.60674
     2016.40794       -10.20206         4.63116
     2016.41067        -9.51604         4.62419
     2016.41341        -5.00701         4.63727
     2016.41615        -5.17198         4.66344
     2016.41889         0.57704         4.67391
     2016.42162         3.52607         4.71142
     2016.42436        -4.37790         4.65733
     2016.42710         2.97612         4.64861
     2016.42984        -2.68985         4.70444
     2016.43258        -4.99782         4.61285
     2016.43531         2.41220         4.71840
     2016.43805         2.50923         4.65123
     2016.44079        -5.79274         4.65908
     2016.44353        -7.41772         4.57883
     2016.44626       -12.37069         4.63291
     2016.44900        -7.31166         4.62419
     2016.45174        14.18136         4.67827
     2016.45448        -1.98761         4.60587
     2016.45722         2.39541         4.62244
     2016.45995         8.27244         4.62070
     2016.46269        -0.94453         4.61285
     2016.46543        -3.88551         4.63553
     2016.46817         2.95652         4.68001
     2016.47091         1.56055         4.65472
     2016.47364        -2.22843         4.63291
     2016.47638         3.64460         4.62506
     2016.47912        -1.47237         4.75155
     2016.48186        -1.77935         4.63291
     2016.48459         4.55268         4.69746
     2016.48733         1.20271         4.58755
     2016.49007         4.53073         4.59714
     2016.49281         3.48476         4.63204
     2016.49555        -2.97921         4.69223
     2016.49828        -4.46219         4.68263
     2016.50102         0.89284         4.65559
     2016.50376         7.84086         4.79778
