# ================= DQRFIT RESULTS ================
# INPUT FILE: series/WEBG.rad
# OUTPUT: LDETRENDED
# FILTER FUNCTION: f(t)
# f(t)=+line(t)+annual(t)+jumps(t)
# line(t)=+P 1+P 2*t
# annual(t)=+P 3*sin(2*pi*t+P 4)
# jumps(t)=+P 5*heav(t-2016.2204  )
# heav(t)=(t<0?0:1)
# TOTAL OBSERVATIONS MTOT= 2794
# INITIAL TIME INTERVAL= 2022.3272 - 2014.5818 =  7.7454
# TOTAL OBSERVATIONS AFTER PREFILTER M= 2779
# TIME-SPAN= 2022.3272 - 2014.5818 =  7.7454
# OBSERVATIONS: USED M=  2779 REJECTED MTOT-M=    15 %USED=   99.4631
# N=  5 PARAMETERS
# MAXSIG= 175.00000
# MAXRES=  33.14088
# SCALE FACTOR FOR LENGTHS: SCL=  10.00000
# SCALE FACTOR FOR SIGMAS: SCLSIG=   1.00000
# CHI^2=   5640.972 DOF=  2774 CHI^2/DOF=   2.03352
# RMS=      8.467 SDEV=      8.458 MEAN=    0.43134
#  P #       PARAMETER +-    SIGMA %error PARAMETER NAME
# P 1 =      3136.32231 +-  200.968   6.41 YZERO                              
# P 2 =        -1.55312 +-    0.100   6.42 SLOPE                              
# P 3 =         3.68157 +-    0.222   6.04 ANNUAL AMPLITUDE                   
# P 4 =        -2.50265 +-    0.068   2.71 ANNUAL PHASE                       
# P 5 =       -10.84759 +-    0.577   5.32 OFFSET 2016.2204                   
#       T            LDETRENDED       SIG_OBS
     2014.58179        -2.77352         8.17819
     2014.58453        -0.94127         8.08978
     2014.58726         0.01798         8.38354
     2014.59000         1.70123         8.00564
     2014.59274         4.11049         8.05983
     2014.59548         5.14774         8.24664
     2014.59822         0.70499         8.16250
     2014.60095        -0.45076         8.26090
     2014.60369        -1.63951         8.10974
     2014.60643         1.00175         8.03274
     2014.60917        -1.15900         8.13256
     2014.61190         0.09425         8.53184
     2014.61464        -9.04650         8.30510
     2014.61738         1.95876         8.23238
     2014.62012         5.84101         8.13398
     2014.62286         2.38426         7.98853
     2014.62559         1.36451         8.06839
     2014.62833         6.22176         8.06696
     2014.63107        10.40302         8.18960
     2014.63381         8.53527         8.28371
     2014.63655         3.99952         8.10974
     2014.63928        -0.76023         8.07694
     2014.64202        -0.66597         8.06981
     2014.64476         1.68828         8.07124
     2014.64750         2.76753         8.00992
     2014.65023         1.45178         8.04985
     2014.65297         5.92503         8.10118
     2014.65571         3.70129         8.06268
     2014.65845         6.26754         8.37498
     2014.66119        13.66279         8.34075
     2014.66392         5.69404         7.98853
     2014.66666         5.25530         8.04700
     2014.66940         3.47955         8.04414
     2014.67214         3.29180         8.48906
     2014.67488        -1.65595         8.06126
     2014.67761         2.90330         8.06268
     2014.68035         4.24856         7.93006
     2014.68309        -3.46319         7.95145
     2014.68583        -4.13094         8.06411
     2014.68856         0.96331         8.02561
     2014.69130        -0.59243         7.98996
     2014.69404        -0.23118         8.06126
     2014.69678         0.28607         7.96714
     2014.69952         6.94232         7.88871
     2014.70225         6.83257         7.91010
     2014.70499         1.52583         7.95288
     2014.70773         3.58108         7.94147
     2014.71047         2.20533         8.22240
     2014.71321         7.82958         7.93149
     2014.71594         7.04384         7.98425
     2014.71868         5.23709         7.98710
     2014.72142         8.18234         7.87017
     2014.72416         2.89059         7.99566
     2014.72689         4.01984         8.14824
     2014.72963        -1.95390         8.53041
     2014.73237        -0.29865         9.96926
     2014.73511        -1.04440         7.99994
     2014.73785         0.50385         7.94290
     2014.74058         1.29611         8.59031
     2014.74332         1.18136         8.29797
     2014.74606        -0.65938        14.31860
     2014.74880         1.73786         7.99709
     2014.75154        -1.89789         8.23808
     2014.75427        -3.54763         8.12257
     2014.75592        -1.22507        17.99772
     2014.76005        10.49334        14.89757
     2014.76249         6.17212         8.03987
     2014.76522         0.11538         7.96001
     2014.76792        10.19357         8.22240
     2014.77002         2.96482        10.71507
     2014.79340        10.62514        13.64267
     2014.79534         3.29915         8.03844
     2014.79808         6.38640         8.29227
     2014.80082         9.97465         8.10689
     2014.80355         5.63691         8.14111
     2014.80629         1.26716         8.13256
     2014.80903         8.51741         8.22525
     2014.81177         8.86966         8.00279
     2014.81451        11.92591         8.11117
     2014.81724         9.11417         7.98853
     2014.81998         6.29042         8.01135
     2014.82272         3.89267         8.47195
     2014.82546         5.31392         8.21099
     2014.82820         3.96118         7.92864
     2014.83093         6.99143         8.17962
     2014.83367         4.15168         8.12115
     2014.83641        -0.11307         8.11259
     2014.83915        -2.61882         8.92542
     2014.84188        -0.69656         8.33790
     2014.84462        -7.26231         8.19815
     2014.84736         4.39194         8.26660
     2014.85010        -0.69881         8.12115
     2014.85284         0.61745         8.06981
     2014.85557        10.77370         8.45484
     2014.85831         6.06395         8.01562
     2014.86105         3.61220         7.98996
     2014.86379         1.70145         8.07694
     2014.86653         6.44471         8.07409
     2014.86926        19.73796         8.22097
     2014.87200         2.20621         7.97570
     2014.87474         1.67946         7.99994
     2014.87748        -0.36828         8.09120
     2014.88021         3.31197         8.09120
     2014.88295         3.13222         8.16678
     2014.88569         2.12447         8.45198
     2014.88843         8.29072         8.42204
     2014.89117         7.84698         8.55893
     2014.89390        -3.78777         8.57462
     2014.89664         6.90048         8.26660
     2014.89938        -0.60427         8.33362
     2014.90212        -3.99601         8.80849
     2014.90485        -7.18076         8.37641
     2014.90759        -0.92551         9.26766
     2014.91033         1.62174         7.99138
     2014.91307         6.54199         8.05270
     2014.91581         7.28425         8.06411
     2014.91854         6.07950         7.96286
     2014.92128        -1.12125         8.06553
     2014.92402        -1.23200         8.11972
     2014.92676        -3.76274         8.17819
     2014.92950        -3.35249         9.15929
     2014.93223        -9.34324         8.04414
     2014.93497        -1.06599         8.08978
     2014.93771        -1.42474         8.35644
     2014.94045        -3.93248         8.27801
     2014.94316        -1.35627         8.68870
     2014.94601        -5.19984         8.33790
     2014.94866        -5.53573         7.98425
     2014.95140        -2.10247         7.91723
     2014.95414         3.82678         7.89869
     2014.95687         3.17803         7.98283
     2014.95862         6.99575        14.88473
     2014.96273         0.67912         9.56998
     2014.96509        -1.99821         8.10404
     2014.96783       -10.77596         7.98710
     2014.97056        -7.28971         7.95003
     2014.97330       -13.92446         7.96857
     2014.97604       -15.78820         8.06126
     2014.97878        -6.69695         7.89156
     2014.98151         3.51930         8.10261
     2014.98425        -6.72545         8.02561
     2014.98699        -4.72020         7.95288
     2014.98973       -18.06694         8.03701
     2014.99247        -7.73469         7.97284
     2014.99520        -9.34444         7.88158
     2014.99794        -2.90219         7.81883
     2015.00068        -8.62693         7.81883
     2015.00342       -10.04568         7.90297
     2015.00616       -14.04743         8.05270
     2015.00889        -8.66218         8.05413
     2015.01163        -8.64093         8.11972
     2015.01437        -5.91167         8.10261
     2015.01711        -4.97642         8.09976
     2015.01984         1.44583         8.05127
     2015.02258        -0.26492         8.24236
     2015.02532         3.99934         8.00992
     2015.02806        -5.40741         8.17962
     2015.03080        -1.30916         7.98568
     2015.03353        -3.63691         8.03701
     2015.03627        -0.91166         8.06553
     2015.03901         5.12460         8.28514
     2015.04175         4.24385         8.17534
     2015.04449        -4.07790         8.15537
     2015.04722         0.30835         8.24521
     2015.04996        -6.46640         8.12115
     2015.05270       -10.82714         8.06126
     2015.05544        -0.52489         8.08265
     2015.05817         3.04436         8.13541
     2015.06091        -4.16239         8.12115
     2015.06365         6.23987         8.37641
     2015.06639        -5.41388         7.97997
     2015.06913        -0.45963         8.10118
     2015.07186        -4.22938         8.07266
     2015.07460        -2.75913         8.12970
     2015.07734        -7.42687         7.96857
     2015.08008        -9.62662         7.96571
     2015.08282        -1.17237         7.90439
     2015.08555        -4.74212         8.01420
     2015.08829        -0.77986         8.19530
     2015.09103        -2.01361         7.99138
     2015.09377        -2.32136         7.90725
     2015.09650         0.01489         9.22203
     2015.09924        18.04814        12.08547
     2015.10198        -1.27860         7.96999
     2015.10472        -1.05035         8.05983
     2015.10745        -5.07811         8.33362
     2015.11019        -2.95185         8.20386
     2015.11293        -3.85459         8.32364
     2015.11567        -0.41234         7.97427
     2015.11841        -7.73609         7.95145
     2015.12115        -0.09384         8.00707
     2015.12388        -4.30159         7.93291
     2015.12662        -1.56133         7.90582
     2015.12936        -1.46508         7.90439
     2015.13210         7.94117         8.00136
     2015.13483        -4.84958         7.98710
     2015.13757        -3.72332         8.07266
     2015.14031        -2.35507         7.90154
     2015.14305         0.54918         8.20386
     2015.14579        -2.01757         7.94860
     2015.14852         4.70168         7.97997
     2015.15126        -0.94406         8.07409
     2015.15400        -4.25581         8.08407
     2015.15674        -0.60756         8.01277
     2015.15948         6.15669         7.98425
     2015.16221         6.23895         8.41776
     2015.16495        -1.76180         7.89299
     2015.16769        -1.42855         8.70867
     2015.17043         3.03971         7.98140
     2015.17316         0.91095         8.60029
     2015.17590        -5.91279         8.09833
     2015.17864        -0.90054         7.97142
     2015.18138         4.53471         7.94718
     2015.18412         2.69296         8.12257
     2015.18685         1.73122         8.25805
     2015.18959         3.80047         8.22382
     2015.19233        -7.32828         8.46767
     2015.19507         5.41197         8.05698
     2015.19780        -6.55378         8.03844
     2015.20054        -3.16352         9.31472
     2015.20328        -3.36327         8.36928
     2015.20602        -1.48602         8.19102
     2015.20876        -9.91877         8.06126
     2015.21149       -12.14751         8.12970
     2015.21423        -7.63326         8.60457
     2015.21697        -3.11301         8.18960
     2015.21971        -7.68876         8.32364
     2015.22245         0.38849         8.10689
     2015.22518        -3.30025         8.11117
     2015.22792        -1.87400         7.92151
     2015.23066        -6.55175         8.06839
     2015.23340        -2.27550         8.55323
     2015.23613        -4.15124         8.39494
     2015.23887        -2.92299         8.51045
     2015.24161         0.19926        10.36569
     2015.24435        -2.92249         8.48193
     2015.24709        -4.34324         8.28086
     2015.24982        -2.95598         8.01562
     2015.25256        -1.31074         7.99851
     2015.25530        -1.33048         8.26803
     2015.25804         5.42477         8.02846
     2015.26078         3.72002         8.07694
     2015.26351        -2.80772         8.10831
     2015.26625        -0.12447         8.02275
     2015.26899        -8.54922         8.12828
     2015.27173         7.18903         8.10261
     2015.27446        -1.55971         8.25519
     2015.27720        -3.33946         7.96857
     2015.27994         0.24079         7.99423
     2015.28268        -7.15896         8.22525
     2015.28542        -4.76571         8.23808
     2015.28815        -5.46045         8.37355
     2015.29089        -5.00820         7.98710
     2015.29363        -4.59595         7.90297
     2015.29637        -3.22770         7.93862
     2015.29911        -1.20044         7.97142
     2015.30184         5.87081         7.92721
     2015.30458        -3.99094         7.95145
     2015.30732        -4.05669         7.79602
     2015.31006        -7.24244         7.87587
     2015.31279        -3.07018         7.78889
     2015.31553        -4.94993         7.79317
     2015.31827        -7.13068         7.80172
     2015.32101         2.55457         7.94432
     2015.32375        -7.43317         7.77891
     2015.32648        -5.10992         8.09976
     2015.32922         4.61033         8.01420
     2015.33196        -3.01642         7.80885
     2015.33470        -1.00517         7.72614
     2015.33744        -4.95591         7.91723
     2015.34017        -3.55366         8.20101
     2015.34289        -7.31644         7.88443
     2015.34566        -5.77313         7.88300
     2015.34839         1.11110         7.77891
     2015.35112        -6.02265         7.80030
     2015.35386         0.76260         7.87302
     2015.35660        -5.93315         8.06981
     2015.35934       -11.68390         8.11687
     2015.36208        -5.90564         8.39209
     2015.36481        -2.03139         7.86019
     2015.36755        -0.02314         7.84308
     2015.37029        -1.58189         7.78461
     2015.37303        -1.87763         7.71473
     2015.37577        -4.49338         7.76037
     2015.37850        -6.19713         7.94004
     2015.38124         0.01012         7.80457
     2015.38398        -0.75263         7.75894
     2015.38672        -2.92437         7.77463
     2015.38945        -6.67712         7.73327
     2015.39219        -2.50087         7.79602
     2015.39493         0.31638         7.95858
     2015.39767        -3.12936         8.04129
     2015.40041        -1.92011         9.83522
     2015.40314        -5.12486         7.99566
     2015.40588        -8.09161         7.89441
     2015.40862        -5.37436         7.93719
     2015.41136         2.69790         7.92151
     2015.41410        -8.05685         7.97427
     2015.41683        -8.52360         8.08835
     2015.41957       -10.35435         8.08692
     2015.42231        -2.57509         7.95716
     2015.42505       -10.25584         8.12257
     2015.42778         0.54441         8.06126
     2015.43052        -2.14234         7.86019
     2015.43326        -5.32209         7.79174
     2015.43600        -3.23683         7.85306
     2015.43874        -1.44558         7.80315
     2015.44147        -5.49333         8.24806
     2015.44421        -5.99708         7.93006
     2015.44695        -3.42082         7.80315
     2015.44969        -3.12957         7.77463
     2015.45243        -0.80932         8.05127
     2015.45516        -4.66507         7.90297
     2015.45790        -8.78782         8.48478
     2015.46064         2.52744         8.15395
     2015.46328        -1.10846         8.18960
     2015.46617        -1.78997         8.04414
     2015.46885         1.46019         8.18532
     2015.47159        -0.98755         7.80743
     2015.47433        -0.37830         8.19673
     2015.47707        -5.33505         8.08122
     2015.47980        -1.14380         7.92864
     2015.48254        -5.78455         8.42774
     2015.48528         4.93571         8.18532
     2015.48802        -6.06204         7.91438
     2015.49076        -4.52379         8.16536
     2015.49349         2.23646         8.18532
     2015.49623         0.67071         8.40778
     2015.49897        -2.63703         8.12828
     2015.50171         0.59622         8.09120
     2015.50444         3.29547         8.11259
     2015.50718        -1.17428         7.90867
     2015.50992         3.39898         7.88586
     2015.51266         6.70523         8.03416
     2015.51540         3.87348         7.90154
     2015.51813         4.40673         8.21384
     2015.52087         8.82098         7.97284
     2015.52361         7.69124         8.10118
     2015.52635         3.95349         7.95573
     2015.52908         5.75874         8.00422
     2015.53182         6.53599         7.89299
     2015.53456         7.82325         7.96999
     2015.53730        -0.31350         8.07409
     2015.54004         5.26575         8.09691
     2015.54277         0.58500         8.31223
     2015.54551         8.31325         8.09976
     2015.54825        -0.23349         8.26803
     2015.55099        10.14076         8.14824
     2015.55373        10.34701         8.15537
     2015.55646        12.17626         8.16108
     2015.55920         9.92652         8.12543
     2015.56194         3.57877         8.00564
     2015.56468         5.60702         8.05413
     2015.56741         3.03827        14.24160
     2015.57015        12.80952        14.27155
     2015.57289        14.61878        14.43554
     2015.57563         4.01303        14.23304
     2015.57837         9.08328        14.25586
     2015.58110        12.77353        14.09329
     2015.58384         9.39079        14.28866
     2015.58658        20.39304        15.92430
     2015.58932         8.09529        14.62377
     2015.59206         7.04854        14.55532
     2015.59479         8.96879        14.64659
     2015.59753         6.28705        14.33572
     2015.59992        20.77375        17.52714
     2015.60376       -37.61928        44.21498
     2015.60574         1.32280        15.14141
     2015.60848        20.12206        14.34285
     2015.61122         4.66831        14.78063
     2015.61396        14.43256        15.30255
     2015.61670        20.74581        14.58384
     2015.61943         7.76206        14.23447
     2015.62217        15.33932        14.18884
     2015.62491        18.57757        14.35996
     2015.62765         7.17982        14.05907
     2015.63039         2.28707        14.43982
     2015.63312        17.44433        15.41521
     2015.63586        10.11658        14.77921
     2015.63860        -3.82417        14.45978
     2015.64134        13.97108        14.55818
     2015.64407        16.43933        14.55818
     2015.64681        17.35659        15.27974
     2015.64955        18.29884        14.49258
     2015.65229        11.20509        14.28153
     2015.65503        11.49734        14.52823
     2015.65776        -3.10740        14.60381
     2015.66050         2.52985        17.87223
     2015.66324        11.97810        14.35140
     2015.66598        16.26235        14.44980
