# ================= DQRFIT RESULTS ================
# INPUT FILE: series/WHD5.rad
# OUTPUT: LDETRENDED
# FILTER FUNCTION: f(t)
# f(t)=+line(t)+annual(t)
# line(t)=+P 1+P 2*t
# annual(t)=+P 3*sin(2*pi*t+P 4)
# heav(t)=(t<0?0:1)
# TOTAL OBSERVATIONS MTOT= 3791
# INITIAL TIME INTERVAL= 2019.6712 - 2008.2912 = 11.3800
# TOTAL OBSERVATIONS AFTER PREFILTER M= 3772
# TIME-SPAN= 2019.6712 - 2008.2912 = 11.3800
# OBSERVATIONS: USED M=  3772 REJECTED MTOT-M=    19 %USED=   99.4988
# N=  4 PARAMETERS
# MAXSIG= 175.00000
# MAXRES=  36.12486
# SCALE FACTOR FOR LENGTHS: SCL=  10.00000
# SCALE FACTOR FOR SIGMAS: SCLSIG=   1.00000
# CHI^2=   2584.334 DOF=  3768 CHI^2/DOF=   0.68586
# RMS=      4.863 SDEV=      4.864 MEAN=    0.03577
#  P #       PARAMETER +-    SIGMA %error PARAMETER NAME
# P 1 =      1550.93310 +-   46.344   2.99 YZERO                              
# P 2 =        -0.76900 +-    0.023   2.99 SLOPE                              
# P 3 =         5.26159 +-    0.107   2.03 ANNUAL AMPLITUDE                   
# P 4 =        -2.73056 +-    0.026   0.97 ANNUAL PHASE                       
#       T            LDETRENDED       SIG_OBS
     2008.29118         8.05029         9.24236
     2008.29295         9.59265         4.57232
     2008.29568        10.48375         4.65265
     2008.29842         7.92386         4.69986
     2008.30116         2.77796         4.62201
     2008.30390         5.60907         4.67004
     2008.30663         6.03517         4.63112
     2008.30937         3.94128         4.68164
     2008.31211         3.64838         4.70980
     2008.31485         5.73249         4.63443
     2008.31759         0.22259         4.64686
     2008.32032         1.44570         4.71891
     2008.32306         5.40780         4.72470
     2008.32580         2.56491         4.76611
     2008.32854         5.13802         4.60876
     2008.33128         2.58812         4.64106
     2008.33401         6.22123         4.80918
     2008.33675         7.83133         4.64768
     2008.33949         9.76644         4.59965
     2008.34223         5.56354         4.67584
     2008.34496         1.16865         4.54830
     2008.34770         7.79075         4.56404
     2008.35044         4.95586         4.61953
     2008.35318         5.77196         4.54085
     2008.35592         0.81807         4.64354
     2008.35865         9.19218         4.57066
     2008.36101         4.96398         5.33672
     2008.36418         6.35542         5.67875
     2008.36687        -7.60451         4.67419
     2008.36915       -10.54875         5.58683
     2008.37234        -6.88630         5.06922
     2008.37508        -3.70319         4.53091
     2008.37782        -0.81609         4.55990
     2008.38056         2.28202         4.55824
     2008.38329         3.37212         4.59220
     2008.38603         1.22923         4.54582
     2008.38877         1.11233         4.56570
     2008.39151        -3.69456         4.64934
     2008.39425        -1.79745         4.50193
     2008.39698         0.63065         4.56570
     2008.39972         1.28476         4.56073
     2008.40246         2.05886         4.54830
     2008.40520         0.33097         4.52760
     2008.41067         3.27718         4.50193
     2008.41341        -2.99172         4.54665
     2008.41615         3.17439         4.49116
     2008.41889        -2.27151         4.51352
     2008.42115       -11.84477         5.72016
     2008.42547        13.98056        10.44901
     2008.42710         1.65881         4.54913
     2008.42984         2.82392         4.61290
     2008.43258         1.68002         4.68330
     2008.43531        -2.32787         4.59882
     2008.43805        -1.05077         4.59468
     2008.44079        -5.20966         4.89613
     2008.44900        -8.30335         4.53919
     2008.45174        -4.64824         4.64520
     2008.45448        -1.32814         4.64189
     2008.45722         0.84697         4.55990
     2008.45995        -2.46593         4.55990
     2008.46817        -4.41661         4.64271
     2008.47091        -4.78350         4.66922
     2008.47364        -5.01040         4.61373
     2008.47638         0.21071         4.54582
     2008.47912        -1.49219         4.51932
     2008.48186        -1.85008         4.57398
     2008.48459        -1.91898         4.67253
     2008.48733        -1.54087         4.53919
     2008.49007        -6.40277         4.56735
     2008.49281        -3.77666         4.61207
     2008.49555        -6.13556         4.59220
     2008.49828        -2.90445         4.66756
     2008.50102        -1.07134         4.84479
     2008.50376         0.70476         4.72470
     2008.50650        -3.31613         4.63775
     2008.50924        -4.48403         4.65845
     2008.51197        -6.03492         4.61207
     2008.51471         2.83918         4.54085
     2008.51745         2.04529         4.59054
     2008.52019         7.63739         4.54168
     2008.52292         2.17950         4.70151
     2008.52566         1.80660         4.72470
     2008.52840         4.48871         4.56155
     2008.53114         6.02781         4.58557
     2008.53388         4.65692         4.61042
     2008.53661         4.89803         4.62367
     2008.53935         1.35713         4.55576
     2008.54209         1.24924         4.62284
     2008.54483         2.61534         4.68164
     2008.54757         4.06545         4.64686
     2008.55030         7.10255         4.57729
     2008.55304         7.38966         4.77771
     2008.55578         1.13676         4.68164
     2008.55852         6.61987         4.60048
     2008.56125         1.03697         5.69200
     2008.56283         3.06818        14.32649
     2008.57864         7.58034        10.10366
     2008.58044        10.25173         4.56984
     2008.58316         7.47682         4.67336
     2008.58590        10.20692         4.56238
     2008.58863         7.13503         4.66093
     2008.59080         5.95269         5.99677
     2008.59411         8.43324         4.49613
     2008.59685         5.87634         4.58888
     2008.59958         3.40745         4.78847
     2008.60232         3.34156         4.76280
     2008.60506         9.77366         4.72884
     2008.60780        10.75477         4.64768
     2008.61054        -3.14113         5.12719
     2008.61327         6.98898         4.64768
     2008.61601         7.92708         4.56155
     2008.61875         7.25619         4.60048
     2008.62149         6.41729         4.65431
     2008.62423         9.42640         4.60379
     2008.62696         8.35850         4.65017
     2008.62970        10.61461         4.72470
     2008.63244         9.74071         4.64934
     2008.63518        13.60182         4.73216
     2008.63791         6.08293         4.72636
     2008.64065         8.15703         4.62698
     2008.64339         7.84914         4.63857
     2008.64613        10.65024         4.80835
     2008.64887        11.11635         4.61124
     2008.65160        14.11345         4.63278
     2008.65434         0.80256         4.82077
     2008.65708         2.13966         4.94997
     2008.65982         9.03277         4.81000
     2008.66256         4.58987         4.80338
     2008.66529         9.14898         4.58391
     2008.66803         0.37908         4.64686
     2008.67077        -0.35681         4.71394
     2008.67351         4.46630         4.66425
     2008.67624         2.89040         5.01291
     2008.67898        13.14451         4.74955
     2008.68172         4.46461         4.66425
     2008.68446         8.37772         4.64934
     2008.68720         3.76282         4.70317
     2008.68993         7.42293         4.71228
     2008.69267         9.53003         4.69075
     2008.69541         9.09014         4.78764
     2008.69815         6.45924         4.83485
     2008.70089        12.87535         4.73381
     2008.70362         8.45745         4.68412
     2008.70636        11.68056         4.63526
     2008.70910         8.99367         4.72636
     2008.71184         7.17077         4.87791
     2008.71457         5.57288         4.67501
     2008.71731         3.03498         4.60876
     2008.72005         9.09609         4.66259
     2008.72279         9.13019         4.65928
     2008.72553         2.60830         4.65514
     2008.72826         8.67240         4.68330
     2008.73374         1.36261         4.78847
     2008.73648         7.85572         4.64520
     2008.73921        10.56382         4.69406
     2008.74469         9.31704         4.59799
     2008.74743         9.34214         4.60876
     2008.75017        13.47925         4.66508
     2008.75290         8.43635         4.58060
     2008.75564         7.72646         4.76446
     2008.75838         6.93556         4.69820
     2008.76112        14.90667         4.61124
     2008.76386         6.14177         4.64934
     2008.76659        15.72088         4.77522
     2008.76933         7.67398         4.74375
     2008.77207         5.32709         4.57149
     2008.77481         5.22519         4.54251
     2008.77754         5.13930         4.51600
     2008.78028        10.20041         4.62367
     2008.78273         5.64329         5.01788
     2008.78586         6.56270         4.76197
     2008.78850         3.99472         4.63443
     2008.79123         6.50983         4.67998
     2008.79397         2.99793         4.65265
     2008.79671         7.87604         4.61124
     2008.79945         4.47014         4.51932
     2008.80219         6.53525         4.91435
     2008.80492         4.28835         4.59054
     2008.80766         5.32446         4.60793
     2008.81040         9.35457         4.70814
     2008.81314        11.67267         4.71394
     2008.81587         7.80678         4.60628
     2008.81861         1.55788         4.62035
     2008.82135         1.99099         4.67336
     2008.82409         2.95709         4.75369
     2008.82683        12.16320         4.65348
     2008.82956         1.25830         4.62035
     2008.83230        -0.25259         4.65182
     2008.83504         0.70251         4.66093
     2008.83778         8.37962         4.71808
     2008.84052         3.29572         4.63443
     2008.84325        10.74683         4.58888
     2008.84599         5.04094         4.65182
     2008.84873         1.35904         4.59220
     2008.85420        -2.79375         4.80752
     2008.85694         7.97836         4.67833
     2008.85968         9.02446         4.68909
     2008.86242         3.22457         4.65017
     2008.86516         5.46267         4.69655
     2008.86789         1.53278         4.74955
     2008.87063        -1.22512         4.78433
     2008.87337        -2.11201         4.68992
     2008.87611        -1.26491         4.64603
     2008.87885         0.98220         4.54333
     2008.88158        -1.67269         4.68247
     2008.88432        -0.81959         4.64520
     2008.88706         0.74752         4.71228
     2008.88980        -8.35538         4.88951
     2008.89253         1.42973         4.69820
     2008.89527        -0.60517         4.65182
     2008.89801         2.84694         4.82243
     2008.90075        -7.06696         4.68826
     2008.90349        -3.18685         4.88454
     2008.90622        -5.27475         4.70483
     2008.90896         4.83636         4.65348
     2008.91170         0.83546         4.65348
     2008.91444         6.87757         4.67833
     2008.91718         4.58968         4.66425
     2008.91991        -2.15522         4.75783
     2008.92265         3.73589         4.69820
     2008.92539        -0.66201         4.65762
     2008.92813         0.51510         4.67667
     2008.93086        -6.83780         4.77108
     2008.93360        -7.14969         4.68661
     2008.93634        -3.83459         4.68412
     2008.93908        -2.16248         4.63857
     2008.94182        -3.29638         5.09241
     2008.94410        -2.02362         5.79387
     2008.94735        -4.49012         5.02533
     2008.94877        31.17398        15.23417
     2008.95585         0.32741        13.96044
     2008.95824        -5.89774         4.53340
     2008.96098        -3.48364         4.62946
     2008.96366         1.13942         4.70483
     2008.96646        -3.21643         4.77853
     2008.96919        -7.68732         4.59137
     2008.97193         6.01178         4.64686
     2008.97467         1.20289         4.79096
     2008.97741        -0.16601         4.55162
     2008.98015         2.64510         4.59882
     2008.98288         4.80720         4.65100
     2008.98562        -1.81969         4.57895
     2008.98836         3.31942         4.60131
     2008.99110        -1.76848         4.63443
     2008.99384         0.06263         4.70731
     2008.99657        -6.38327         4.60462
     2008.99931        -3.27716         4.71973
     2009.00205        -4.32106         4.64106
     2009.00479         0.79005         4.55327
     2009.00752         2.61815         4.54665
     2009.01026        -2.09974         4.65845
     2009.01300         7.74536         4.78847
     2009.01574        -1.16753         4.61787
     2009.01848         1.87258         4.68330
     2009.02121         3.53568         4.77771
     2009.02395       -12.84121         4.68495
     2009.02669       -10.40711         4.63112
     2009.02943       -11.43700         4.63443
     2009.03216       -14.18690         4.61042
     2009.03490        -9.97679         4.69489
     2009.03764        -9.62869         4.58888
     2009.04038       -10.99658         4.62367
     2009.04312       -11.39448         4.59799
     2009.04585       -18.09137         4.58143
     2009.04859       -10.18027         4.61456
     2009.05133        -8.69616         4.60213
     2009.05407        -8.26605         4.61621
     2009.05681        -9.32095         4.64851
     2009.05954        -5.94184         4.58640
     2009.06228       -13.13674         4.57398
     2009.06502       -11.35263         4.56570
     2009.06776        -9.82953         4.56984
     2009.07049       -11.51142         4.62532
     2009.07323        -4.99232         4.60876
     2009.07597       -11.29621         4.59965
     2009.07871        -7.75511         4.57398
     2009.08145        -7.36300         4.59882
     2009.08418        -7.62390         4.64520
     2009.08692        -8.26379         4.62284
     2009.08966        -8.10468         4.71642
     2009.09240        -7.16858         4.54416
     2009.09514        -0.97147         4.55659
     2009.09787        -5.13437         4.64768
     2009.10067        -0.85722         5.30939
     2009.10335        -7.58816         4.64520
     2009.10609        -0.29705         4.59468
     2009.10882        -2.29795         4.62118
     2009.11156        -2.96184         4.56818
     2009.11430        -3.44474         4.69323
     2009.11704         0.59637         4.71808
     2009.11978        -5.63653         4.60628
     2009.12251        -1.72642         4.56155
     2009.12525        -4.47131         4.56487
     2009.12799         1.12479         4.63775
     2009.13073        -1.58510         4.62035
     2009.13347        -6.17000         4.60048
     2009.13620       -11.25689         4.60545
     2009.13894        -5.33279         4.61124
     2009.14168        -9.12968         4.65431
     2009.14442        -3.01758         4.61787
     2009.14715        -3.55147         4.76114
     2009.14989        -4.90537         4.76446
     2009.15263        -5.97126         4.62615
     2009.15537        -6.70316         4.70151
     2009.15811        -6.07705         4.67998
     2009.16084        -6.96894         4.59054
     2009.16358         0.82616         4.70566
     2009.16632        -8.80973         4.79841
     2009.16906         1.20237         4.79344
     2009.17180        -3.78752         4.58723
     2009.17453        -7.91042         4.63195
     2009.17727         4.35869         4.73961
     2009.18001        -6.15821         4.72388
     2009.18275        -7.13910         4.66673
     2009.18548        -3.45500         4.63526
     2009.18822        -6.75089         4.58060
     2009.19096        -9.59579         4.60710
     2009.19370        -3.67168         4.72470
     2009.19644        -6.31257         4.64106
     2009.19917        -0.04547         4.65514
     2009.20191        -4.19136         4.65431
     2009.20467        -5.38924         4.61787
     2009.20739        -6.20615         4.57315
     2009.21013       -10.35505         4.62367
     2009.21286        -3.49794         4.61290
     2009.21560        -5.31484         4.63526
     2009.21834        -6.91173         4.56073
     2009.22108        -1.37063         4.57895
     2009.22381       -14.48852         4.59882
     2009.22655        -1.04042         4.73464
     2009.22929        -6.23131         4.55576
     2009.23203        -5.02620         4.59220
     2009.23477        -4.63010         4.65182
     2009.23733        -1.24513         4.93092
     2009.24269         7.12900        44.35838
     2009.24656         9.24997         7.34006
     2009.24846        -2.43757         4.64023
     2009.25119         1.46553         4.77853
     2009.25393        -4.24636         4.79841
     2009.25667        -1.98526         4.72802
     2009.25941        -5.06115         4.61207
     2009.26214        -3.12104         4.76528
     2009.26488        -1.17294         4.63360
     2009.26762         1.13217         4.71891
     2009.27036        -2.01373         4.66673
     2009.27310        -6.09362         4.61456
     2009.27583        -3.14752         4.69820
     2009.27857       -10.22341         4.70234
     2009.28131        -3.59731         4.76942
     2009.28405        -8.47520         4.71311
     2009.28679         0.61790         4.68495
     2009.28952        -6.84199         4.64354
     2009.29226        -8.22689         4.72553
     2009.29500        -4.97078         4.63775
     2009.29774        -5.86567         4.71394
     2009.30047        -4.90757         4.82077
     2009.30321        -1.37846         4.64851
     2009.30595        -1.63736         4.96322
     2009.30869        -2.88925         4.70400
     2009.31143        -3.50415         4.66590
     2009.31416         1.57296         4.67833
     2009.31690        -6.53794         4.60959
     2009.31964        -3.70183         4.64023
     2009.32238         0.10727         4.61539
     2009.32466        -7.13797         6.43570
     2009.32785        -3.91452         4.71559
     2009.33059        -2.33341         4.62450
     2009.33333        -4.17930         4.63526
     2009.33607         2.68880         4.67584
     2009.33880         4.23091         4.53422
     2009.34154        -6.46599         4.64271
     2009.34428        -0.48788         4.67004
     2009.34702        -4.57378         4.63360
     2009.34976        -3.87567         4.56984
     2009.35249        -5.41457         4.55741
     2009.35523        -6.38646         4.60545
     2009.35797        -4.33236         4.74624
     2009.36071         0.39675         4.72470
     2009.36344        -4.22415         4.68081
     2009.36618         0.12196         4.59717
     2009.36892        -4.17893         4.56652
     2009.37166         0.81517         4.71725
     2009.37440        -5.13472         4.66756
     2009.37713        -3.97462         4.62864
     2009.37987        -5.35151         4.73795
     2009.38261         0.06359         4.59551
     2009.38535        -4.01430         4.61042
     2009.38809        -4.06720         4.59882
     2009.39082        -8.10709         4.57977
     2009.39356        -4.78299         4.62284
     2009.39630        -4.30588         4.61704
     2009.39904        -1.83878         4.66011
