# ================= DQRFIT RESULTS ================
# INPUT FILE: series/WIFC.rad
# OUTPUT: LDETRENDED
# FILTER FUNCTION: f(t)
# f(t)=+line(t)+annual(t)
# line(t)=+P 1+P 2*t
# annual(t)=+P 3*sin(2*pi*t+P 4)
# heav(t)=(t<0?0:1)
# TOTAL OBSERVATIONS MTOT= 1098
# INITIAL TIME INTERVAL= 2008.1477 - 2004.6297 =  3.5180
# TOTAL OBSERVATIONS AFTER PREFILTER M= 1090
# TIME-SPAN= 2008.1477 - 2004.6297 =  3.5180
# OBSERVATIONS: USED M=  1090 REJECTED MTOT-M=     8 %USED=   99.2714
# N=  4 PARAMETERS
# MAXSIG= 175.00000
# MAXRES=  52.41080
# SCALE FACTOR FOR LENGTHS: SCL=  10.00000
# SCALE FACTOR FOR SIGMAS: SCLSIG=   1.00000
# CHI^2=   4550.405 DOF=  1086 CHI^2/DOF=   4.19006
# RMS=     13.267 SDEV=     13.273 MEAN=   -0.03786
#  P #       PARAMETER +-    SIGMA %error PARAMETER NAME
# P 1 =     12338.41626 +-  711.252   5.76 YZERO                              
# P 2 =        -6.12110 +-    0.355   5.79 SLOPE                              
# P 3 =        13.89207 +-    0.559   4.02 ANNUAL AMPLITUDE                   
# P 4 =        -2.69220 +-    0.051   1.89 ANNUAL PHASE                       
#       T            LDETRENDED       SIG_OBS
     2004.62971         2.96452        12.33295
     2004.63245        -1.09872        12.13235
     2004.63519       -10.43396        12.21832
     2004.63792        -0.33921        12.24698
     2004.64066        -7.61345        12.65228
     2004.64340        -0.39769        12.43940
     2004.64614       -13.23193        12.78943
     2004.64888        -0.86317        12.66252
     2004.65161       -10.36841        12.27769
     2004.65435       -13.24365        12.30839
     2004.65709       -17.19789        12.54379
     2004.65983        -4.29914        12.55198
     2004.66256        -7.45638        12.61134
     2004.66530         3.67638        12.30225
     2004.66804        -5.52586        12.56426
     2004.67078        -3.36810        12.42507
     2004.67352         2.02766        12.50081
     2004.67625        -8.46358        12.26950
     2004.67899        -7.89383        12.19581
     2004.68173        -3.85607        12.28792
     2004.68447         1.93769        12.22651
     2004.68721        -2.25155        12.33500
     2004.68994        -3.36779        12.08527
     2004.69268        -6.62203        12.13031
     2004.69542        -2.39027        12.72597
     2004.69816         1.06149        12.56631
     2004.70089         6.22824        12.68299
     2004.70468        -3.48957        27.25327
     2004.70637       -10.87324        12.79147
     2004.70911        -4.87748        12.21832
     2004.71185         4.80628        12.35547
     2004.71458        -7.74396        12.30020
     2004.71732        -2.97420        12.22037
     2004.72006       -22.50445        12.07504
     2004.72280        -6.23669        12.12826
     2004.72554       -16.93193        12.15692
     2004.72827        -3.29017        12.43735
     2004.73101         1.83459        12.25108
     2004.73375        -2.57265        12.39027
     2004.73649        -0.38989        11.99316
     2004.73922        -0.73013        12.08527
     2004.74196         3.45362        12.24698
     2004.74470        -3.16162        12.19171
     2004.74744        -0.34986        12.02182
     2004.75018        -3.65610        11.99521
     2004.75291        -3.34034        11.89900
     2004.75565        -0.46658        11.96245
     2004.75839         1.87218        12.05252
     2004.76113         0.04193        12.05047
     2004.76387        -0.85431        12.22037
     2004.76660        -0.58555        12.38618
     2004.76934        -2.66579        12.48443
     2004.77208       -13.25203        12.53765
     2004.77482        -6.48027        12.26950
     2004.77755         1.76649        12.29202
     2004.78029         2.92525        12.28178
     2004.78303         6.90900        12.27359
     2004.78577         0.89476        11.85601
     2004.78851         9.82652        12.27155
     2004.79124        -2.83472        11.91537
     2004.79398        -2.30496        12.12212
     2004.79672        -4.89520        12.18967
     2004.79946        12.59056        12.47829
     2004.80220         8.29331        12.19376
     2004.80493        -5.49293        12.15896
     2004.80767        -4.21717        12.29202
     2004.81041        -9.17941        12.09346
     2004.81315        -5.41965        12.43326
     2004.81588         9.10511        12.11393
     2004.81862        -2.44613        12.50285
     2004.82136        -2.82137        12.61134
     2004.82410         1.65438        11.88672
     2004.82684       -11.50786        12.13849
     2004.82957         8.84990        12.58473
     2004.83231       -12.30834        12.05047
     2004.83505        -8.66858        12.34524
     2004.83779        -2.32282        12.09551
     2004.84052       -14.96506        12.43735
     2004.84326        -0.59831        11.91537
     2004.84600         4.24645        11.92356
     2004.84874         2.48621        12.04433
     2004.85148         2.81697        12.01568
     2004.85421         8.10373        13.25204
     2004.85695         3.66749        12.25108
     2004.85969         0.10325        12.10370
     2004.86243       -12.66499        11.95427
     2004.86517        -1.15624        12.00953
     2004.86790        -2.69048        11.83554
     2004.87064       -10.46572        11.94608
     2004.87338         2.49904        11.88672
     2004.87612       -13.32320        12.15692
     2004.87885        -9.00844        12.00749
     2004.88159        -4.84668        12.45373
     2004.88433        -5.98293        12.66866
     2004.88707         2.42683        12.11188
     2004.88981        -7.48841        12.15692
     2004.89254         0.85335        12.15896
     2004.89528         4.18611        12.12826
     2004.89802         4.07587        12.52332
     2004.90076        11.48163        12.25517
     2004.90350         7.02438        12.08323
     2004.90623        -4.38086        12.14668
     2004.90897        -8.14610        11.98702
     2004.91171        -1.07134        11.81098
     2004.91445        -8.39258        11.75571
     2004.91718       -18.93082        12.19786
     2004.91992         2.36694        12.11393
     2004.92266        -1.72930        12.09551
     2004.92540        10.45445        11.92766
     2004.92814         8.13321        11.66360
     2004.93087         7.47497        11.70249
     2004.93361         8.50173        12.12416
     2004.93635         6.05849        12.20195
     2004.93909        -3.13475        12.25926
     2004.94183         4.93101        12.44963
     2004.94456        -8.94824        12.04024
     2004.94730        -2.33448        12.15692
     2004.95004         4.35428        11.98292
     2004.95278       -18.57396        12.10574
     2004.95551       -12.26720        11.90105
     2004.95825        -4.09444        12.08527
     2004.96099        -2.54168        11.78437
     2004.96373        -7.53192        11.68407
     2004.96647         1.86583        11.78232
     2004.96920        -3.09841        11.57967
     2004.97194        -0.59865        11.97678
     2004.97468        -0.15389        12.00339
     2004.97742         1.46387        11.86829
     2004.98016        -1.16337        11.76799
     2004.98289        10.87839        11.60628
     2004.98563         6.19414        11.95017
     2004.98837         1.22590        11.97678
     2004.99111         4.38066        12.21423
     2004.99384        -8.54758        12.07299
     2004.99658       -21.85582        12.12416
     2004.99932       -21.20206        12.08323
     2005.00480       -32.20254        12.05252
     2005.00753       -27.15079        12.04433
     2005.01027         4.39097        12.04638
     2005.01301         0.76773        12.04433
     2005.01575         1.03649        11.97883
     2005.01849         6.22825        12.11802
     2005.02122        -4.88699        12.00749
     2005.02396       -15.12523        12.02386
     2005.02670       -30.14048        12.07504
     2005.02944       -12.30472        12.22651
     2005.03217       -18.64696        11.99725
     2005.03491       -27.67320        12.18762
     2005.03765       -10.87344        12.18148
     2005.04039       -12.85968        12.15692
     2005.04313       -38.54792        12.38618
     2005.04586       -16.80516        12.16920
     2005.04860       -15.68641        12.65842
     2005.05134       -22.40265        12.52332
     2005.05408        -5.12789        12.51513
     2005.05682        -2.66013        12.29816
     2005.05955        -5.40237        12.20400
     2005.06229        -3.50761        12.06276
     2005.06503        -9.64085        12.23061
     2005.06777        -8.87110        12.30225
     2005.07050        -9.05434        12.36775
     2005.07324        -7.93958        12.14259
     2005.07598         1.08718        12.21014
     2005.07872        -6.70206        11.73934
     2005.08146        -9.38730        11.77209
     2005.08419       -16.25854        11.98292
     2005.08693        -3.25578        11.83554
     2005.08967       -10.88503        11.80279
     2005.09241        -3.83827        12.02182
     2005.09515        -0.61551        11.75776
     2005.09788       -13.60575        11.66155
     2005.10062        -8.24199        11.74343
     2005.10336        -9.93723        11.91537
     2005.10610        -7.17947        12.08527
     2005.10880         0.68308        11.94813
     2005.11157        -3.35896        11.67588
     2005.11431         5.31980        11.84782
     2005.11705        -1.13744        11.70249
     2005.11979       -10.58468        11.90105
     2005.12252        -7.86892        11.85806
     2005.12526        -2.44016        11.70863
     2005.12800        -3.01340        11.74752
     2005.13074        -0.29365        12.03205
     2005.13347         1.59611        11.81098
     2005.13621        -5.20113        11.81712
     2005.13895        -7.46237        11.79460
     2005.14169        -5.00661        11.91742
     2005.14443         0.03315        11.80893
     2005.14716        -1.62209        12.09551
     2005.14990         1.51066        11.99521
     2005.15264        -2.48958        11.95427
     2005.15538         4.44318        11.97883
     2005.15812        -3.62906        12.06480
     2005.16085         4.73370        12.00749
     2005.16359        -0.96554        12.05661
     2005.16633         1.81422        12.02182
     2005.16907         2.20198        11.92766
     2005.17180         3.58173        11.94813
     2005.17454         0.24549        12.01772
     2005.17728         1.52625        12.16715
     2005.18002         1.36201        12.11393
     2005.18276         1.35977        12.21423
     2005.18549        -8.67747        12.18148
     2005.18823        -3.28571        12.06276
     2005.19097         5.97904        12.07094
     2005.19371         2.04780        12.35342
     2005.19645        -6.01944        12.16715
     2005.19918        -3.21668        12.01363
     2005.20192         1.76608        12.37799
     2005.20466         5.39984        12.25722
     2005.20740         9.66060        12.31044
     2005.21013        -5.59764        12.15487
     2005.21287        -9.61589        12.44758
     2005.21561        11.46887        12.28997
     2005.21835         5.89763        12.17124
     2005.22109        -0.29061        12.20604
     2005.22382         4.41415        12.28587
     2005.22656        -1.21009        12.05661
     2005.22930        -2.26533        12.08323
     2005.23204         1.57042        12.27564
     2005.23478         6.22418        12.28587
     2005.23751         4.70294        12.07913
     2005.24025        12.99570        12.43940
     2005.24299        11.79146        12.30634
     2005.24573         7.99322        12.59906
     2005.24846        -0.74202        12.27769
     2005.25120        -5.50426        12.18148
     2005.25394         8.20549        12.62158
     2005.25668        -3.41175        12.81194
     2005.25942         6.32101        12.39846
     2005.26215        11.08677        12.48852
     2005.26489        12.41653        12.22856
     2005.26763        11.80729        12.21628
     2005.27037         6.06705        12.30225
     2005.27311         1.76580        12.45782
     2005.27584         1.91356        12.36366
     2005.27858         3.87132        12.29816
     2005.28132         7.57808        12.54175
     2005.28406        -3.27816        12.53560
     2005.28679         5.89060        12.30020
     2005.28953         7.11736        12.16510
     2005.29227        -8.73589        12.16306
     2005.29501         4.88087        12.18967
     2005.29775        -3.61637        12.40050
     2005.30048        11.79139        12.21628
     2005.30322        -4.62985        12.28997
     2005.30596         5.07091        12.12416
     2005.30870        -2.56933        12.24698
     2005.31144         0.39443        12.38208
     2005.31417        -5.93282        12.26541
     2005.31691         6.91494        12.23470
     2005.31965        -0.70930        12.07913
     2005.32239         1.07646        12.51309
     2005.32512         3.98122        12.32067
     2005.32786         5.40298        12.16306
     2005.33060         2.06074        12.13849
     2005.33334         9.31549        12.14463
     2005.33608         5.73425        12.47420
     2005.33881         3.87501        12.34524
     2005.34155         6.03077        12.18148
     2005.34429         4.38253        12.27359
     2005.34703         3.96929        12.28383
     2005.34977         1.96205        12.41688
     2005.35250       -20.82419        12.64409
     2005.35524        -5.01344        12.59497
     2005.35798        -0.83368        13.02688
     2005.36072        -6.50392        12.55403
     2005.36345        -0.32716        12.47420
     2005.36619         8.53060        12.60725
     2005.36893        -0.13864        13.14969
     2005.37167        -0.89888        12.59087
     2005.37441         4.40587        12.69731
     2005.37714         6.83563        12.92657
     2005.37988         7.65439        12.48648
     2005.38262         1.62815        12.52128
     2005.38536        -9.26309        12.35957
     2005.38810        -0.80033        12.53151
     2005.39083         2.92343        12.46396
     2005.39357         1.12019        12.41893
     2005.39631         1.17894        12.31658
     2005.39905        -2.82130        12.30225
     2005.40178         2.20746        12.37594
     2005.40452        10.49622        12.68094
     2005.40726         4.13298        13.01050
     2005.41000        -0.36826        12.40050
     2005.41274         0.41450        12.67275
     2005.41547       -14.52275        12.23675
     2005.41821       -11.71299        12.33091
     2005.42095         0.24277        12.32272
     2005.42369         4.62453        12.20809
     2005.42643         6.23829        12.27564
     2005.42916       -10.51495        12.41483
     2005.43190        -3.25519        12.12212
     2005.43464        -8.54443        12.66047
     2005.43738         5.19432        12.51718
     2005.44011         3.23508        12.57245
     2005.44285         6.68684        12.77101
     2005.44559       -12.09340        12.60315
     2005.44833        -1.31564        12.80376
     2005.45107         5.47612        12.41279
     2005.45380        11.02788        12.10984
     2005.45654         8.56463        12.47829
     2005.45928        -1.19761        12.59292
     2005.46202         5.50015        12.26336
     2005.46475        -1.34209        12.52537
     2005.46749         7.40067        12.15282
     2005.47023         7.62943        12.57450
     2005.47297        -5.48581        12.34114
     2005.47571        -0.42505        12.14054
     2005.47844         4.52770        12.18353
     2005.48118         9.12546        12.55198
     2005.48392         4.94222        12.06071
     2005.48666         6.11498        12.14054
     2005.48940         5.15474        12.28383
     2005.49213        -1.34250        12.07094
     2005.49487         3.84726        12.15487
     2005.49761         5.16901        12.14259
     2005.50035         8.90077        12.06071
     2005.50308         9.37753        12.23265
     2005.50582         5.53429        12.13440
     2005.50856         8.24805        12.31863
     2005.51130         1.99081        12.32681
     2005.51404         2.82957        12.23879
     2005.51677        -0.23467        12.16510
     2005.51951         3.41408        12.50285
     2005.52225         9.43384        12.69527
     2005.52499         5.35660        12.25517
     2005.52773         9.02036        11.98907
     2005.53046         5.27912        12.06276
     2005.53320        13.40088        12.02796
     2005.53594        11.07864        12.23879
     2005.53868         6.29439        12.30634
     2005.54141         4.27015        12.29816
     2005.54415         7.01191        13.15583
     2005.54689         7.73667        13.19268
     2005.54963        12.40443        13.46493
     2005.55237         7.88919        13.46288
     2005.55510        18.29795        13.55090
     2005.55784        12.62971        13.29912
     2005.56058        13.04646        13.76992
     2005.56332         9.38822        13.35030
     2005.56606         5.72198        13.18040
     2005.56879        14.02474        13.13741
     2005.57153        10.98550        13.39124
     2005.57427        10.62326        13.04120
     2005.57701        13.35002        13.20701
     2005.57974        15.13177        13.63073
     2005.58248        10.24653        13.54476
     2005.58522         7.78829        13.44036
     2005.58796        14.90805        12.77919
     2005.59070        18.05781        12.95114
     2005.59343         7.57857        13.39738
     2005.59617        10.40433        13.22543
     2005.59891        15.86109        13.54476
     2005.60165         9.02084        13.40556
     2005.60439        22.36860        13.31959
     2005.60712        13.41336        13.25409
     2005.60986        16.09212        13.76174
     2005.61260        13.75188        13.65120
     2005.61534        12.62064        13.42194
     2005.61807        18.05940        13.15788
     2005.62081        12.95715        13.43832
     2005.62355        12.08691        13.76788
     2005.62629        11.78767        13.49358
     2005.62903         5.64143        13.41170
     2005.63176        10.16919        13.32778
     2005.63450        20.20095        13.40147
     2005.63724        23.11771        13.47721
     2005.63998        14.64747        13.53043
     2005.64272        11.14922        13.40966
     2005.64545        16.38098        12.71983
     2005.64819        15.84374        13.18859
     2005.65067        20.30190        13.90093
     2005.66461        18.01526        13.48540
     2005.66735        18.60402        12.82013
     2005.70117        18.88600        25.82244
     2005.70295        16.95591        13.43422
     2005.70569        13.03667        15.08203
     2005.70924        12.05641        27.95129
     2005.71066        10.98111        18.25482
     2005.71390        14.37895        12.82013
     2005.71745        15.52268        21.20040
     2005.71927        21.96580        13.56523
     2005.72302        15.22878        23.85736
     2005.72485         6.80995        13.56523
     2005.72758        13.64371        14.20797
     2005.73032        18.33547        14.19364
     2005.73306        18.81923        13.22952
     2005.73580        21.24199        13.80472
     2005.73854        18.45275        13.35234
     2005.74127        18.07951        13.15174
     2005.74401        25.31727        13.01255
