# ================= DQRFIT RESULTS ================
# INPUT FILE: series/WIFR.rad
# OUTPUT: LDETRENDED
# FILTER FUNCTION: f(t)
# f(t)=+line(t)+annual(t)+jumps(t)
# line(t)=+P 1+P 2*t
# annual(t)=+P 3*sin(2*pi*t+P 4)
# jumps(t)=+P 5*heav(t-2018.4900  )
# heav(t)=(t<0?0:1)
# TOTAL OBSERVATIONS MTOT= 3295
# INITIAL TIME INTERVAL= 2018.5407 - 2008.8296 =  9.7111
# TOTAL OBSERVATIONS AFTER PREFILTER M= 3189
# TIME-SPAN= 2018.5407 - 2008.8296 =  9.7111
# OBSERVATIONS: USED M=  3189 REJECTED MTOT-M=   106 %USED=   96.7830
# N=  5 PARAMETERS
# MAXSIG= 175.00000
# MAXRES=  51.02375
# SCALE FACTOR FOR LENGTHS: SCL=  10.00000
# SCALE FACTOR FOR SIGMAS: SCLSIG=   1.00000
# CHI^2=   7875.138 DOF=  3184 CHI^2/DOF=   2.47335
# RMS=     10.064 SDEV=     10.065 MEAN=   -0.11991
#  P #       PARAMETER +-    SIGMA %error PARAMETER NAME
# P 1 =     -2487.09487 +-  121.150   4.87 YZERO                              
# P 2 =         3.24155 +-    0.060   1.86 SLOPE                              
# P 3 =         8.76834 +-    0.243   2.77 ANNUAL AMPLITUDE                   
# P 4 =        -3.10783 +-    0.039   1.26 ANNUAL PHASE                       
# P 5 =     -4042.27793 +-    2.766   0.07 OFFSET 2018.4900                   
#       T            LDETRENDED       SIG_OBS
     2008.82957         8.15880         9.40467
     2008.83231        -1.92208         9.75853
     2008.83505         3.19305         9.49746
     2008.83779        -8.88683         9.45343
     2008.84052        -3.50970         9.74909
     2008.84326        -0.49858         9.79942
     2008.84600        15.58355         9.60283
     2008.84874        -1.87333        10.85469
     2008.85148       -12.59520         9.78841
     2008.85421        -2.78508         9.60441
     2008.85695        -7.95595         9.96141
     2008.86150        28.73432        18.71970
     2008.86517       -11.58558        10.91445
     2008.86790         4.00855        10.04633
     2008.87064        -1.22833         9.88906
     2008.87338        -4.05620         9.59182
     2008.87612        -6.79208         9.77583
     2008.87885         0.05305         9.76010
     2008.88159        -1.47883         9.64687
     2008.88374         0.20523        12.75764
     2008.88707         6.26242         9.89378
     2008.88981        -7.00545         9.82930
     2008.89254         2.21567         9.76482
     2008.89528         5.69180         9.90164
     2008.89802        -8.36407        10.10767
     2008.90076        -3.06195         9.57610
     2008.90350        -1.74882         9.72550
     2008.90623         1.93330         9.73494
     2008.90897         3.08743         9.71921
     2008.91171        -9.86845         9.75538
     2008.91445         1.35668         9.66574
     2008.91718         4.36980         9.52420
     2008.91992        11.23493        10.40648
     2008.92266       -21.61795        10.34514
     2008.92540         3.45218         9.60283
     2008.92814         8.92530         9.64844
     2008.93087        -0.01657         9.71921
     2008.93361        -4.33445         9.68461
     2008.93635         1.61768         9.74437
     2008.93909        -1.97620         9.61070
     2008.94183        -6.34907         9.66259
     2008.94456        -3.93595         9.84188
     2008.94730         4.82518         9.65159
     2008.95004         2.72830         9.75224
     2008.95278         2.16643         9.58239
     2008.95551         8.09655         9.40625
     2008.95825        -2.52032         9.54936
     2008.96099         2.04080         9.52420
     2008.96373         3.45393         9.44399
     2008.96647         1.43805         9.98657
     2008.96920         1.10718         9.51948
     2008.97194       -10.91570         9.72078
     2008.97468        -9.74257         9.81200
     2008.97742       -15.12945        10.14856
     2008.98016        -2.11932        10.01959
     2008.98289         3.25280        10.05105
     2008.98563        -0.89307         9.92838
     2008.98837        -3.92095        10.01488
     2008.99111       -13.09382        10.08093
     2008.99384       -23.56170        10.23977
     2008.99658       -13.94357        10.53701
     2008.99932        -2.83444        10.18001
     2009.00480       -14.08419        10.09823
     2009.00753       -10.90907        10.22090
     2009.01027       -14.64694        10.27594
     2009.01301       -16.06082        10.65496
     2009.01575       -28.29669        10.57475
     2009.02670       -42.67619        10.55274
     2009.02944       -26.44907        11.14878
     2009.03217       -21.48794         9.53835
     2009.03491        -6.46982         9.39681
     2009.03765        -6.74269         9.45343
     2009.04039        -8.82757         9.47544
     2009.04313       -13.01144         9.49274
     2009.04586       -10.39132         9.56666
     2009.04860        -8.87319         9.47544
     2009.05134       -10.20707         9.39524
     2009.05408        -3.97094         9.46129
     2009.05682        -4.28882         9.31818
     2009.05955         0.06631         9.55722
     2009.06229        -7.04257         9.46758
     2009.06503       -15.48144         9.32132
     2009.06777        -1.15032         9.17034
     2009.07050        -3.00419         9.51633
     2009.07324         6.79493         9.09328
     2009.07598       -12.07694         9.32604
     2009.07872       -13.78782         9.95354
     2009.08146        -2.36869         9.23011
     2009.08419        -0.69657         9.25370
     2009.08693        -4.57444         9.08227
     2009.08967        -3.44432         9.19708
     2009.09241        -3.18619         9.39209
     2009.09515        -0.82507         9.45185
     2009.09788         2.22706         9.47859
     2009.10062        -0.50282         9.36536
     2009.10336       -11.68869         9.24583
     2009.10610         5.48744         9.20809
     2009.10883        -0.72044         9.13732
     2009.11157        -2.47431         9.21438
     2009.11431         0.71381         9.42512
     2009.11705        -6.30306         9.39052
     2009.11979         3.26106         9.15776
     2009.12252         1.69119         9.22067
     2009.12526        -3.98569         9.06969
     2009.12800        -3.34556         9.20966
     2009.13074         3.81656         9.42984
     2009.13347       -21.23531         9.57138
     2009.13621       -16.98319         9.62170
     2009.13895        -3.26306         9.45972
     2009.14169        -1.60794         9.33076
     2009.14443         0.03219         9.13889
     2009.14716        -6.14669         9.63900
     2009.14990         1.23544         9.56981
     2009.15264         5.79256         9.48960
     2009.15538         2.57669         9.70348
     2009.15812        -5.45919         9.56666
     2009.16085         5.09894         9.43927
     2009.16359        -2.15994         9.57295
     2009.16633        -0.12581         9.52420
     2009.16907         3.91431         9.77897
     2009.17180         0.63444         9.13889
     2009.17454        -7.38144         9.36693
     2009.17728         5.34969         9.51476
     2009.18002        -8.62919         9.29459
     2009.18276        -5.42006         9.27571
     2009.18549       -16.87094         9.17978
     2009.18823       -12.94281         9.32761
     2009.19097        -6.02269         9.88434
     2009.19371        -4.95456         9.39052
     2009.19645        -0.91444         9.53206
     2009.19918         5.63169         9.28358
     2009.20192         7.25081         9.18607
     2009.20466        -9.37706         9.28200
     2009.20740        -0.96793         9.38108
     2009.21013        -7.95681         9.63114
     2009.21287        -2.00468         9.23797
     2009.21561        -4.84156         9.24898
     2009.21835        -5.23943         9.45185
     2009.22109         5.57069         9.21438
     2009.22382         4.16182         9.35278
     2009.22656       -13.09906         9.46286
     2009.22930       -35.78593        12.37391
     2009.23204       -10.49181         9.75381
     2009.23478         6.87132        11.21641
     2009.23751       -11.95056         9.63271
     2009.24025        -3.34043         9.58082
     2009.24299       -13.83031         9.58868
     2009.24573        -6.61218         9.54779
     2009.24846       -12.41206         9.39209
     2009.25120        16.23607         9.96927
     2009.25394        28.54419        10.06835
     2009.25668        25.80032         9.72707
     2009.25942        -9.31756        10.25393
     2009.26215       -10.18143         9.59497
     2009.26489        -7.50331         9.64372
     2009.26763       -12.53718         9.70506
     2009.27037       -16.12806         9.93467
     2009.27311        -6.28093         9.50847
     2009.27584       -14.17581         9.95511
     2009.27858       -14.86168        10.00701
     2009.28132       -29.42956         9.83087
     2009.28406       -18.22343         9.59025
     2009.28679        -0.74531         9.68304
     2009.28953       -37.42418        11.94928
     2009.29227       -19.10106         9.86075
     2009.29501       -13.29993         9.95983
     2009.29775        -6.82881         9.89535
     2009.30048        -6.08868         9.65001
     2009.30322        -8.63056         9.49274
     2009.30596         2.55957         9.46129
     2009.30870        -2.59431         9.63114
     2009.31144        -5.02118         9.43770
     2009.31417        -4.38005         9.45972
     2009.31691        -5.90193         9.26942
     2009.31965        -4.11280         9.40310
     2009.32239        -7.45368         9.68776
     2009.32512       -40.57755        10.58576
     2009.32786        -8.87443        10.97893
     2009.33060        -3.51330         9.55880
     2009.33334       -23.67518         9.78055
     2009.33608        -2.38005        10.11867
     2009.34155       -14.05580        10.75561
     2009.34429       -31.63768        13.31752
     2009.34703       -23.26355        11.04027
     2009.34977       -25.39743        10.64867
     2009.35250       -10.58530         9.42197
     2009.35524        -8.57418         9.55408
     2009.35798       -10.14205         9.97399
     2009.36072        -6.68393         9.70034
     2009.36345       -16.47180         9.63429
     2009.36619        -2.72168        10.12025
     2009.36893        -4.77355         9.53678
     2009.37167        -3.31543         9.80099
     2009.37441       -13.27030         9.52892
     2009.37714       -14.74818         9.73337
     2009.37988       -20.92705        10.47725
     2009.38262       -12.79393         9.52892
     2009.38536        -0.16680         9.51476
     2009.38810       -10.31568         9.61541
     2009.39083       -12.45655         9.63743
     2009.39357        -4.10743         9.52892
     2009.39631       -14.11930         9.47073
     2009.39905        -3.93218         9.51004
     2009.40178       -10.81005         9.48016
     2009.40452        -2.51493         9.73966
     2009.40726        -1.77480        10.01802
     2009.41000        -4.34768         9.56194
     2009.41274        -2.27855         9.89378
     2009.41547        -4.43942         9.80256
     2009.41821        -9.27330         9.84031
     2009.42095       -21.07217         9.78841
     2009.42369       -13.67105        10.15170
     2009.42643       -19.64092         9.66259
     2009.42916        -9.24680         9.83245
     2009.43190        -3.25167         9.43456
     2009.43464        -5.72555         9.58553
     2009.43738         4.42658         9.63743
     2009.44011       -14.67330         9.55251
     2009.44285        -9.50617         9.73494
     2009.44559        -7.03905         9.62485
     2009.44833        -5.52492         9.39838
     2009.45107       -12.18780         9.57610
     2009.45380       -13.40167         9.75853
     2009.45654        -8.88855         9.84817
     2009.45928        -7.64542         9.57138
     2009.46202       -14.21330         9.85132
     2009.46475        -6.46417        10.16743
     2009.46749        -4.29905         9.71764
     2009.47023        -5.17992        10.27594
     2009.47297         8.59320        10.24921
     2009.47571         0.43233         9.76325
     2009.47844        -1.62555         9.56666
     2009.48117        -2.83239         9.50218
     2009.48392        -5.07530         9.52892
     2009.48666        -7.33517         9.68304
     2009.48940         1.41895         9.87648
     2009.49213        -2.12692         9.65945
     2009.49487        -2.80480         9.71135
     2009.49761         2.41333         9.51319
     2009.50035        -4.21555         9.65788
     2009.50308        -7.26342         9.69719
     2009.50582        -3.21730         9.76010
     2009.50856        -2.56117        10.01802
     2009.51130         5.41595         9.45028
     2009.51404         4.13508         9.46129
     2009.51677         6.16120         9.59025
     2009.51951        -8.76767         9.54779
     2009.52225       -12.66054         9.88592
     2009.52499        -1.26342         9.60126
     2009.52773         1.98271         9.52892
     2009.53046        -4.12717         9.78841
     2009.53320       -10.00204         9.70663
     2009.53594        -8.97692        10.17057
     2009.53868        -2.65079         9.70506
     2009.54141         1.74233         9.76796
     2009.54415        -1.38154         9.84345
     2009.54689         1.90358         9.60126
     2009.54963        -0.38429         9.85289
     2009.55237        -4.12817         9.95197
     2009.55510         0.32696         9.70663
     2009.55784         4.14808         9.74437
     2009.56058         4.55521        10.07464
     2009.56332         5.83233         9.82773
     2009.56583         0.48518        10.57318
     2009.56878        -8.98439         9.77111
     2009.57152         6.08574         9.88592
     2009.57426        11.87786         9.82615
     2009.57700         9.73999        10.30425
     2009.57974         3.72911         9.87019
     2009.58247        17.13324        10.15799
     2009.58521         6.45236        10.05419
     2009.58795         9.98149         9.75853
     2009.59069         3.39961         9.96770
     2009.59342         4.38274         9.99443
     2009.59616         4.06986         9.75224
     2009.59890        -5.32201        10.00701
     2009.60164         0.85611         9.84345
     2009.60438        -5.16076        10.01802
     2009.60711         1.23737         9.68461
     2009.60985         5.32949         9.68933
     2009.61259        11.71162         9.76482
     2009.61533         4.95874        10.10452
     2009.61807         8.34387         9.78526
     2009.62080         1.85699         9.83402
     2009.62354         2.88512         9.70191
     2009.62628         8.81624         9.72865
     2009.62902        10.14337         9.79313
     2009.63175        -0.82351         9.99915
     2009.63449         6.56862        10.05262
     2009.63723        -1.72626        10.01959
     2009.63997         1.72487         9.87648
     2009.64271        -0.77001         9.92995
     2009.64544         6.56512        10.13283
     2009.64818         1.50424        10.15485
     2009.65092         6.44737        10.01488
     2009.65366         1.08949         9.81200
     2009.65639        -1.50838        10.04004
     2009.65913         2.72674         9.67203
     2009.66187         8.13387         9.70034
     2009.66461        -0.68401         9.86704
     2009.66735         0.35612        10.26965
     2009.67008         4.82724        10.12654
     2009.67282         4.66337        10.02431
     2009.67556         4.99949         9.76325
     2009.67830         5.16962        10.73202
     2009.68104         2.86874        10.35930
     2009.68377        -4.53413        10.22404
     2009.68651         8.24299         9.91580
     2009.68925         3.80412        10.01488
     2009.69199        -2.59876        10.39075
     2009.69472         3.90237        10.04161
     2009.69746         9.87649         9.92523
     2009.70020         7.16162        10.26179
     2009.70294        14.44574         9.85761
     2009.70568         0.68387        10.28538
     2009.70841        -4.90701        10.19416
     2009.71115         9.10312        10.20203
     2009.71389        11.59525        10.41434
     2009.71663         6.17537        10.26336
     2009.71937        -3.60650        10.08722
     2009.72210         0.22562        10.05577
     2009.72484         3.35175        10.38918
     2009.72758         7.07487        10.25078
     2009.73032         7.72600        10.09351
     2009.73305         9.30112        10.09351
     2009.73579        10.22225         9.83716
     2009.73853        11.52037         9.99286
     2009.74127        16.47750        10.11396
     2009.74401         5.42162        10.36401
     2009.74674        17.47075         9.95354
     2009.74948        33.23687        10.79178
     2009.75222        15.92100         9.94882
     2009.75496         7.41811        10.05419
     2009.75770         7.76822        10.20989
     2009.76044        29.66634        10.48668
     2009.76318        15.16747         9.92052
     2009.76592         7.38159         9.87333
     2009.76866         6.69672         9.93310
     2009.77139         5.46784        10.09666
     2009.77413         4.94397         9.93939
     2009.77687         9.44309         9.97556
     2009.77961         5.42422        10.10924
     2009.78235        18.50634         9.81672
     2009.78508         8.31747        10.31683
     2009.78782        10.14059        10.46624
     2009.79056        12.16772         9.90007
     2009.79330         0.33384        10.13912
     2009.79477       -18.95993        78.65642
     2009.79877         6.05009         9.97871
     2009.80151         8.32122        10.28695
     2009.80425        17.67634        10.19259
     2009.80699        12.14047        10.10295
     2009.80972         3.79459        10.01016
     2009.81246         9.00172        10.07307
     2009.81520         9.69584        10.11396
     2009.81794        -1.92803        10.62036
     2009.82068         6.72809         9.96927
     2009.82341        -9.99678         9.90479
     2009.82615        19.64334        10.91445
     2009.82889        -0.42453        10.54330
     2009.83163         8.22859        10.51185
     2009.83436         4.50972        10.17057
     2009.83710         7.21685        10.37188
     2009.83984         3.12597        10.07936
     2009.84258         8.02510        10.31211
     2009.84532         9.94922        10.46467
     2009.84805         7.87535        10.43164
     2009.85079         1.26847        10.37502
     2009.85353         4.44060        10.63609
     2009.85627         7.85472        10.36401
     2009.85901        -0.65315        10.33571
     2009.86174        -3.13503        10.06678
     2009.86448         7.37410        10.75247
     2009.86722        -7.59478        10.60463
     2009.86996        -4.70065        10.50870
     2009.87269        -3.66053        10.41748
     2009.87543         2.10760        10.40490
     2009.87817         8.08172        10.55588
     2009.88091        11.16385        10.14384
     2009.88365         1.13997        10.19102
     2009.88638         8.49510        10.06678
     2009.88912        11.63022         9.80099
     2009.89194         7.81510        10.48039
     2009.89460         4.75147        10.05419
     2009.89734        -2.70940        10.23663
     2009.90007        -7.03928        10.12025
     2009.90281        -0.91815         9.95197
     2009.90555       -10.11803        10.21304
     2009.90829       -16.82090        10.16900
     2009.91102        -5.29578         9.96770
