# ================= DQRFIT RESULTS ================
# INPUT FILE: series/WILD.rad
# OUTPUT: LDETRENDED
# FILTER FUNCTION: f(t)
# f(t)=+line(t)+annual(t)
# line(t)=+P 1+P 2*t
# annual(t)=+P 3*sin(2*pi*t+P 4)
# heav(t)=(t<0?0:1)
# TOTAL OBSERVATIONS MTOT=  606
# INITIAL TIME INTERVAL= 2013.0757 - 2004.0821 =  8.9936
# TOTAL OBSERVATIONS AFTER PREFILTER M=  605
# TIME-SPAN= 2013.0757 - 2004.0821 =  8.9936
# OBSERVATIONS: USED M=   605 REJECTED MTOT-M=     1 %USED=   99.8350
# N=  4 PARAMETERS
# MAXSIG= 175.00000
# MAXRES=  21.10493
# SCALE FACTOR FOR LENGTHS: SCL=  10.00000
# SCALE FACTOR FOR SIGMAS: SCLSIG=   1.00000
# CHI^2=    651.566 DOF=   601 CHI^2/DOF=   1.08414
# RMS=      5.965 SDEV=      5.970 MEAN=    0.00809
#  P #       PARAMETER +-    SIGMA %error PARAMETER NAME
# P 1 =       554.82814 +-  160.216  28.88 YZERO                              
# P 2 =        -0.27391 +-    0.080  29.14 SLOPE                              
# P 3 =         1.54711 +-    0.350  22.60 ANNUAL AMPLITUDE                   
# P 4 =        -2.21008 +-    0.199   9.00 ANNUAL PHASE                       
#       T            LDETRENDED       SIG_OBS
     2004.08214         0.71532         6.04844
     2004.08488        -2.87693         6.07759
     2004.08762        -3.53918         6.09529
     2004.09035        -2.39443         6.38371
     2004.09309         1.77132         6.21295
     2004.09583         0.73007         6.04844
     2004.09857        -2.30918         6.14527
     2004.10131        -9.23243         6.18484
     2004.10404        -4.68168         6.12237
     2004.10678        -1.77993         6.08800
     2004.10952        -1.11218         6.01512
     2004.11226         1.33257         6.01928
     2004.11499         0.55532         6.20046
     2004.11773         3.57907         6.19004
     2004.12047         3.95282         6.18484
     2004.12321         0.32457         6.37850
     2004.12595        -2.31168         6.20358
     2004.12868        -0.92493         6.24106
     2004.13142        -3.57518         6.19837
     2004.13416         3.26657         6.19942
     2004.13690         1.37332         6.19317
     2004.13964         0.42707         5.95473
     2004.14237         2.87882         6.03803
     2004.14511        -1.73743         6.02970
     2004.14785         4.86932         5.99430
     2004.15059         0.62607         6.04740
     2004.15332         4.31282         6.18067
     2004.15606        -0.82643         6.08905
     2004.15880        -2.00068         6.06510
     2004.16154         1.00407         6.06406
     2004.16428        -3.34118         6.11716
     2004.16701         6.72157         6.20566
     2004.16975        -5.27868         6.28271
     2004.17249        -4.03693         6.31499
     2004.17523         4.10082         6.36393
     2004.17797         2.55957         6.07551
     2004.18070        -5.14868         6.00471
     2004.18344       -10.90693         6.06302
     2004.18618        -9.04418         6.23690
     2004.18892         0.42357         6.16922
     2004.19165        -1.28768         6.04740
     2004.19439         3.22207         6.01928
     2004.19713        -3.85218         6.04427
     2004.19987        -4.70643         6.04948
     2004.20261        -0.13768         6.05573
     2004.30938         3.94656         5.97555
     2004.31212        -1.57369         5.91516
     2004.31486         0.33006         5.94536
     2004.31760        -0.59119         5.96306
     2004.32033         4.86656         6.00367
     2004.32307         8.04831         6.14319
     2004.32581        -0.17394         5.95577
     2004.32855        -1.86419         5.95265
     2004.33128        -1.50544         5.98180
     2004.33402         2.13631         5.94744
     2004.33676         2.45806         6.10571
     2004.33950         7.25281         6.20462
     2004.34224        11.67956         6.18796
     2004.34497         7.43431         6.07759
     2004.34771         4.76806         6.05885
     2004.35045         6.64781         6.08905
     2004.35319        -0.68144         6.23378
     2004.35593         9.22931         6.22753
     2004.35866         6.47306         6.12341
     2004.36140         5.23681         6.06302
     2004.36414         4.79056         6.04115
     2004.36688         7.14131         6.09009
     2004.36961        11.98906         6.15777
     2004.37235         7.75181         6.04531
     2004.37509        12.34756         6.09946
     2004.37783         3.88531         5.95889
     2004.38057        10.42606         6.08280
     2004.38330         1.23581         6.12757
     2004.38604        -0.19444         6.10466
     2004.38878         6.07931         5.92974
     2004.39152         1.59006         5.95056
     2004.39426         5.70281         5.90163
     2004.39699         4.71656         6.17547
     2004.57222         0.63255         5.92766
     2004.57495         4.85530         5.99950
     2004.57769         1.93405         5.83291
     2004.58043         7.00780         5.86623
     2004.58317         0.83455         5.92870
     2004.58590         0.87930         5.93599
     2004.58864         8.39805         6.00679
     2004.59138         5.81680         5.97972
     2004.59412         6.72855         6.00679
     2004.59686         2.91330         6.00263
     2004.59959         6.36605         5.91412
     2004.60233         4.58780         5.94223
     2004.60507         3.15455         5.95161
     2004.60781         0.68730         5.91829
     2004.61055         4.11205         5.88288
     2004.61328         1.39880         5.94119
     2004.61602         7.83155         6.08072
     2004.61876         3.15930         6.02033
     2004.62150        -3.83395         6.05260
     2004.62423         4.52880         6.07343
     2004.62697         7.47755         5.97764
     2004.62971         2.64830         5.94223
     2004.63245         7.62705         6.05156
     2004.63519         7.47980         6.02970
     2004.63792        10.89055         6.15048
     2004.64066        13.53730         6.07655
     2004.64340         4.21805         5.95473
     2004.64614         8.22380         5.92141
     2004.64888         4.13155         6.00158
     2004.65161         9.48830         6.07239
     2004.65435         7.82505         5.92974
     2004.65709         3.82480         6.03074
     2004.65983         2.68655         6.02970
     2004.66256         5.52930         6.10571
     2004.66530         4.25105         6.08905
     2004.66804         6.13680         6.04844
     2004.67078         8.69955         6.05573
     2004.67352        12.44530         5.95994
     2004.67625         7.60805         5.95785
     2004.67899         5.61380         5.98492
     2004.68173         7.35555         5.98388
     2004.86243        -8.05095         5.94328
     2004.86517       -11.85820         5.87143
     2004.86790        -7.80545         5.85685
     2004.87064        -5.34670         5.87247
     2004.87338         2.20305         5.84644
     2004.87612         1.51880         5.89121
     2004.87885        -4.45145         5.86727
     2004.88159         0.93730         6.02866
     2004.88433         2.64205         6.24939
     2004.88707         9.87780         6.00263
     2004.88981        13.91355         5.90371
     2004.89254         5.32030         5.95473
     2004.89528        12.95005         5.98909
     2004.89802        12.39780         6.05469
     2004.90076        14.66455         6.11820
     2004.90350        -3.34470         5.86310
     2004.90623        20.58505         6.08592
     2004.90897         8.10880         5.85998
     2004.91171         0.33855         5.80167
     2004.91445        -0.37370         5.81625
     2004.91718        -2.59595         5.93703
     2004.91992         2.87579         5.93182
     2004.92266        -4.59146         5.85998
     2004.92540        -1.04971         5.88601
     2004.92814         7.52904         5.82249
     2004.93087         2.81779         5.88288
     2005.11157        -6.42771         5.80167
     2005.11431        -6.62396         5.83915
     2005.11705        -8.25021         5.80167
     2005.11979        -5.50446         5.81208
     2005.12252        -5.50471         5.84852
     2005.12526        -6.66296         5.84124
     2005.12800        -6.37421         5.83395
     2005.13074        -4.52046         5.96306
     2005.13347        -6.95171         5.85998
     2005.13621       -13.77296         5.81937
     2005.13895        -7.46721         5.87351
     2005.14169       -17.69346         5.82978
     2005.14443       -14.38071         5.87143
     2005.14990        -9.16021         5.90996
     2005.15264        -7.18746         5.93599
     2005.15538        -7.32771         5.94119
     2005.15812        -2.76596         5.96514
     2005.16085        -4.92221         6.03803
     2005.16359        -4.80446         5.95681
     2005.16633        -2.99471         5.99013
     2005.16907        -1.64296         5.98492
     2005.17180         1.51879         5.94744
     2005.17454        -3.65246         5.97972
     2005.17728        -8.88771         5.98076
     2005.18002        -6.88596         5.96618
     2005.18276        -6.62521         5.94744
     2005.18549        -9.38146         6.07030
     2005.18823        -1.89771         5.93599
     2005.19097        -7.41996         6.00783
     2005.19371        -1.76121         5.96098
     2005.19645        -6.64946         5.96410
     2005.19918        -6.60971         5.96306
     2005.20192        -2.85496         6.06302
     2005.20466        -1.33221         6.08384
     2005.20740        -2.94546         6.06197
     2005.21013        -2.23071         5.99117
     2005.21287        -4.80096         6.01200
     2005.21561        -3.08921         6.00367
     2005.21835        -0.41246         5.99117
     2005.22109        -3.25271         6.00679
     2005.22382        -2.44096         5.99117
     2005.22656        -1.82721         5.97555
     2005.22930         2.71554         5.97972
     2005.23204        -2.81371         5.96202
     2005.23478        -0.69096         6.01720
     2005.23751         7.27179         5.97868
     2005.24025         4.99354         6.19942
     2005.24299         2.80429         6.01928
     2005.24573        -0.67096         6.15048
     2005.24846         0.15479         6.01928
     2005.25120        -2.06046         5.94432
     2005.25394         8.17729         6.24419
     2005.25668         8.89004         6.35664
     2005.25942         0.92179         6.14840
     2005.26215        -0.43046         6.12653
     2005.26489         6.28529         6.10050
     2005.26763         9.60904         6.11820
     2005.27037         7.41779         6.10571
     2005.27311         2.84553         6.09113
     2005.27584         5.95828         6.10466
     2005.27858         4.62103         6.11716
     2005.28132         6.99578         6.13382
     2005.28406         0.48253         6.15568
     2005.28679        -0.16272         6.13486
     2005.28953         3.39403         6.01095
     2005.29227         7.46178         6.03907
     2005.29501         7.30353         6.03907
     2005.29775         2.12328         5.94536
     2005.30048         3.82603         5.97347
     2005.30322         1.65878         5.98597
     2005.30596         1.25053         5.94328
     2005.30870         5.85828         5.98388
     2005.31144         4.55603         5.96514
     2005.31417         2.02178         5.97659
     2005.31691        -0.59547         5.99013
     2005.31965        -4.15572         6.10154
     2005.32239         1.26103         6.14944
     2005.32512         3.51178         5.97972
     2005.32786        -4.50047         5.99742
     2005.33060         3.36728         5.97659
     2005.33334         4.95803         5.97659
     2005.33608         5.06078         6.14319
     2005.33881         0.43353         5.99638
     2005.34155         0.44428         5.95577
     2005.34429        -1.84897         5.92662
     2005.34703         1.92578         5.96826
     2005.34977        -0.51547         5.97659
     2005.35250         2.76128         6.12757
     2005.53868         2.48728         6.02449
     2005.54141         2.83003         5.98805
     2005.54415         0.46578         5.95161
     2005.54689         3.17553         6.04219
     2005.54963        -0.21572         6.05364
     2005.55237         7.75903         6.18692
     2005.55510         4.57078         6.13069
     2005.55784         5.82253         6.25564
     2005.56058         7.79328         6.12549
     2005.56332         2.71603         6.12965
     2005.56606         3.97978         6.22545
     2005.56879         9.74153         6.28480
     2005.57153         6.74928         6.33581
     2005.57427         5.05503         6.21816
     2005.57701         8.42478         6.33165
     2005.57974        -5.66747         6.29625
     2005.58248        10.19528         6.15568
     2005.58522        11.58703         6.16089
     2005.58796         8.80178         5.97139
     2005.59070         4.89853         5.93703
     2005.59343         1.15928         5.99638
     2005.59617         6.83803         6.03074
     2005.59891        -0.99922         6.03594
     2005.60165         4.06953         5.98180
     2005.60439        -0.34872         6.04427
     2005.60710         7.09802         6.06302
     2005.91650         0.47877         6.09113
     2005.91924        -5.12448         6.15048
     2005.92198         1.59627         5.98284
     2005.92471        -5.78998         5.94119
     2005.92745        -6.00323         5.95265
     2005.93019        -3.92748         5.94536
     2005.93293        -0.95773         5.92662
     2005.93567        -5.75298         5.97555
     2005.93840        -0.35323         5.96202
     2005.94114         0.95952         5.94328
     2005.94388         1.16727         5.92037
     2005.94662        -0.12498         5.96931
     2005.94935        -1.25023         5.94328
     2005.95209        -6.19648         6.00158
     2005.95483        -5.29473         6.10466
     2005.95757        -2.96098         5.98388
     2005.96031         4.65777         5.88809
     2005.96304        -0.02948         5.90996
     2005.96578        17.48627         6.65547
     2005.96852        -1.88698         6.43785
     2005.97126         5.79577         6.02033
     2005.97400         2.26152         6.16506
     2005.97947        -6.68399         6.02553
     2005.98221        -5.22924         6.03699
     2005.98495        -0.13349         6.06197
     2005.98768        -6.90774         6.08384
     2005.99590        -1.42949         6.01720
     2006.01233       -12.35499         6.07863
     2006.01506       -25.06524         6.11820
     2006.01780        -1.37349         6.12237
     2006.02054         1.09626         6.15256
     2006.02328       -10.65799         6.17859
     2006.02601        -5.76824         6.16818
     2006.02875        -2.72149         6.10571
     2006.03149        -8.36074         6.14319
     2006.03423        -6.76399         6.01200
     2006.03697        -2.91224         6.03490
     2006.03970        -6.92049         6.01095
     2006.04244        -8.77874         6.03386
     2006.04518        -9.42199         6.17651
     2006.05339       -12.86574         6.04427
     2006.05613        -4.94399         5.84436
     2006.05887        -8.27424         5.87351
     2006.06161        -9.56449         5.87664
     2006.06434        -0.20174         6.01408
     2006.06708        -7.34499         5.75481
     2006.06982       -11.20024         5.71733
     2006.07256       -14.27649         5.74336
     2006.07530       -12.91674         5.76419
     2006.07803       -14.01899         5.77668
     2006.08077        -8.85624         5.78605
     2006.08351        -6.92649         5.81416
     2006.08625        -5.09774         5.81312
     2006.08898         1.14101         5.83603
     2006.09172        -9.84124         5.84124
     2006.09446        -4.83849         5.84228
     2006.09720        -8.06174         5.82249
     2006.09994       -12.36199         5.85269
     2006.10267       -15.57124         5.86623
     2006.10541       -15.00949         5.87976
     2006.10815        -8.95174         5.95785
     2006.11089       -11.16099         6.07030
     2006.11363       -15.89724         5.85790
     2006.11636       -15.40449         5.92245
     2006.11910       -13.63774         5.91204
     2006.12184        -4.15799         5.91620
     2006.12458        -4.00324         5.85373
     2006.12731       -10.23449         5.86206
     2006.13005        -6.67674         5.84852
     2006.13279        -7.14799         5.87039
     2006.13553        -2.64124         5.87560
     2006.13827         0.19051         5.85269
     2006.14100        -2.38774         5.90787
     2006.14374        -2.51199         5.89746
     2006.59001        -7.17575         6.29000
     2006.59275        -5.58700         6.41911
     2006.59549        -5.87825         6.15777
     2006.59823        -5.61250         6.16401
     2006.60096        -5.48575         6.07135
     2006.60370        -5.89200         6.02657
     2006.60644        -9.16925         6.04323
     2006.60918        -2.18850         5.98597
     2006.61191        -5.21675         6.01720
     2006.61465        -2.70900         6.07551
     2006.61739        -2.80025         6.04531
     2006.62013        -0.14550         6.11091
     2006.62287        -2.78775         6.06718
     2006.62560        -5.03800         6.01928
     2006.62834        -0.63425         6.15464
     2006.63108        -4.48250         5.99325
     2006.63382        -3.32675         5.97764
     2006.63656        -6.92900         6.06302
     2006.63929        -5.02925         6.04219
     2006.64203        -4.27150         6.02553
     2006.64477        -0.72975         6.07239
     2006.64751         0.82700         6.19629
     2006.65024        -3.16525         6.28167
     2006.65298        -3.39850         6.30978
     2006.65572        -5.32675         6.31499
     2006.65846        -8.69900         6.44618
     2006.66120         1.64175         6.32644
     2006.66393        -4.06850         6.37538
     2006.66667        -6.97375         6.33269
     2006.66941        -7.32600         6.32957
     2006.67215        -5.34825         6.36913
     2006.67488        -3.81850         6.52428
     2006.67762        -9.83775         6.49720
     2006.68036        -7.28300         6.39829
     2006.68310        -2.82226         6.60237
     2006.68584        -4.55151         6.52115
     2006.68857         1.76624         6.29833
     2006.69131        -2.55901         6.22232
     2006.69405        -0.14226         6.21295
     2006.69679        -4.74251         6.24211
     2006.69953         1.96824         6.14944
     2006.70226         2.94699         6.39308
     2006.70500        -6.95726         6.46076
     2006.70774        -1.67251         6.20670
     2006.71048         2.00324         6.04219
     2006.71321         4.03199         6.04636
     2006.71595        -0.63626         6.13382
     2006.71869        -1.49451         6.09113
     2006.72143         5.87324         6.50137
     2006.72417         7.48399         6.50033
     2006.72690         3.28774         6.20566
     2006.72964         2.92149         6.16089
     2006.73238         2.93624         6.07863
     2006.73512         0.39599         6.02553
     2006.73786         0.32074         6.02970
     2006.74059         1.77349         6.06093
     2006.74333         3.89824         6.09842
     2006.74607         5.30999         6.12132
     2006.74881         4.13174         6.13798
