# ================= DQRFIT RESULTS ================
# INPUT FILE: series/WNTH.rad
# OUTPUT: LDETRENDED
# FILTER FUNCTION: f(t)
# f(t)=+line(t)+annual(t)+jumps(t)
# line(t)=+P 1+P 2*t
# annual(t)=+P 3*sin(2*pi*t+P 4)
# jumps(t)=+P 5*heav(t-2011.3621  )
# heav(t)=(t<0?0:1)
# TOTAL OBSERVATIONS MTOT= 2457
# INITIAL TIME INTERVAL= 2014.7934 - 2007.5975 =  7.1959
# TOTAL OBSERVATIONS AFTER PREFILTER M= 2448
# TIME-SPAN= 2014.7934 - 2007.5975 =  7.1959
# OBSERVATIONS: USED M=  2448 REJECTED MTOT-M=     9 %USED=   99.6337
# N=  5 PARAMETERS
# MAXSIG= 175.00000
# MAXRES=  45.37472
# SCALE FACTOR FOR LENGTHS: SCL=  10.00000
# SCALE FACTOR FOR SIGMAS: SCLSIG=   1.00000
# CHI^2=   3675.904 DOF=  2443 CHI^2/DOF=   1.50467
# RMS=      7.353 SDEV=      7.355 MEAN=   -0.00489
#  P #       PARAMETER +-    SIGMA %error PARAMETER NAME
# P 1 =      1269.44300 +-  287.430  22.64 YZERO                              
# P 2 =        -0.64686 +-    0.143  22.11 SLOPE                              
# P 3 =         4.89387 +-    0.204   4.18 ANNUAL AMPLITUDE                   
# P 4 =        -3.10178 +-    0.059   1.90 ANNUAL PHASE                       
# P 5 =        35.26097 +-    0.586   1.66 OFFSET 2011.3621                   
#       T            LDETRENDED       SIG_OBS
     2007.59753         8.28489         7.06918
     2007.60027         6.92166         7.05078
     2007.60301         6.99543         6.94161
     2007.60574         6.02320         6.99313
     2007.60848        11.27997         6.91217
     2007.61122        10.34274         7.31942
     2007.61396        -3.15249         7.15382
     2007.61670        -2.66072         7.60277
     2007.61943         0.19806         7.66901
     2007.62304         9.45539        13.05032
     2007.62491         1.71360         7.45435
     2007.62769         7.13540         7.47397
     2007.63039        11.53814         7.41509
     2007.63312         2.19691         7.50587
     2007.63586         6.64368         7.12928
     2007.63860         0.94945         7.33659
     2007.64134         7.13022         6.97718
     2007.64407        10.71199         7.38320
     2007.64681        11.75177         7.43963
     2007.64955        12.33554         7.43472
     2007.65229         2.09131         7.45312
     2007.65503         5.84708         7.17712
     2007.65776        12.12085         7.21638
     2007.66050         9.97262         7.24214
     2007.66324        -1.39861         7.28016
     2007.66598         7.96916         7.37339
     2007.66872         4.43093         7.28262
     2007.67145         4.41270         7.40037
     2007.67419         5.14648         7.36603
     2007.67693         9.84525         7.27648
     2007.67967         9.02302         7.41019
     2007.68799         3.08740         7.56475
     2007.69062        10.75710         7.20288
     2007.69336        11.63587         7.18694
     2007.69609         2.32464         7.27894
     2007.69883        14.38341         7.32187
     2007.70157         7.69219         7.25072
     2007.70431        11.00996         7.54267
     2007.70705        14.80973         7.49728
     2007.70978        10.70850         7.34640
     2007.71252         8.52327         7.22251
     2007.71526        10.15004         7.21270
     2007.71800         3.51181         7.26176
     2007.72073         9.30958         7.09739
     2007.72347        12.76835         7.12560
     2007.72621         9.46612         7.01521
     2007.72895         9.97490         7.38443
     2007.73169         1.67567         7.42000
     2007.73442         4.35744         7.17344
     2007.73716        16.46821         7.18694
     2007.73990        11.65198         7.22987
     2007.74264        15.18075         6.99313
     2007.74538         6.34452         7.18939
     2007.74811        11.85629         7.39547
     2007.75085        17.14006         7.50219
     2007.75347        18.70176         7.51200
     2007.75610        13.88146         7.86405
     2007.75906        10.67438         7.30592
     2007.76180         8.88215         7.41755
     2007.76454         6.07892         7.25808
     2007.76810        -3.53378        12.20271
     2007.77002         6.75246         8.12042
     2007.77275         4.80323         7.66042
     2007.77532         9.32589         7.51936
     2007.77800        11.84463         7.82847
     2007.78101        19.43857         7.01398
     2007.78371        12.14732         7.00539
     2007.78644        14.80009         7.04097
     2007.78918        13.73286         7.16854
     2007.79192        14.72663         7.29856
     2007.79466        14.46840         7.22742
     2007.79722        20.80306         7.72053
     2007.79985        25.97376         7.72298
     2007.80287         2.47471         7.12315
     2007.80561         5.12148         7.13419
     2007.80835         4.86025         7.17344
     2007.81108         3.08003         7.24336
     2007.81382         3.08280         7.16240
     2007.81656         2.85757         7.26790
     2007.81907         2.32719         7.64202
     2007.82175        -0.40008         7.93274
     2007.82477         0.97688         7.19307
     2007.82751         1.84865         7.09003
     2007.83025         2.13242         7.16608
     2007.83299         4.78719         7.19798
     2007.83641        -3.14959        10.14194
     2007.83898         1.89607        10.68779
     2007.84097         7.56236         7.79904
     2007.84428       -10.43150        13.83538
     2007.84719         3.93438         9.29309
     2007.84948        -2.04614         7.21024
     2007.85221        10.26863         7.37584
     2007.85495         6.02440         7.59664
     2007.85769         8.76717         7.37829
     2007.86043        12.01694         7.09985
     2007.86287         6.52253         8.02229
     2007.86590        19.43149         7.02257
     2007.86864        -1.58774         7.10843
     2007.87138         6.95103         7.30347
     2007.87412        10.13680         7.17712
     2007.87685         9.48057         7.23478
     2007.87959       -17.31066         7.46293
     2007.88233         0.26311         7.05691
     2007.88478         6.83369         7.79536
     2007.88740        -3.98661         8.33263
     2007.89054        -1.47758         7.15136
     2007.89259        -2.00525        10.34188
     2007.89641        17.07422        19.63252
     2007.89876         0.20674         7.57701
     2007.90235         9.68806        14.34812
     2007.90423         6.39628         7.45312
     2007.90697         0.33105         7.51200
     2007.90971        -3.43318         7.69354
     2007.91245         0.17759         7.41877
     2007.91518         3.32036         7.47765
     2007.91792        -0.23987         7.38443
     2007.92066       -27.72009         7.83093
     2007.92340        -8.26932         7.58315
     2007.92614        15.54545         7.17590
     2007.92887        11.50722         7.26054
     2007.93161         3.59899         7.43349
     2007.93435         3.01676         7.35131
     2007.93709        -2.88347         7.13051
     2007.93982        -2.49170         7.07654
     2007.94256         1.92107         7.09739
     2007.94530         6.35584         7.19552
     2007.94804        -5.10439         7.26790
     2007.95078        -1.11161         7.22128
     2007.95345         2.43112         7.08022
     2007.95619         1.54389         7.12683
     2007.95893         7.22266         7.19920
     2007.96167         4.79143         7.24336
     2007.96440        -6.56580         8.54974
     2007.96714         3.87697         7.14891
     2007.96988        -7.43726         7.11825
     2007.97262        -3.06449         7.17590
     2007.97535        -7.58172         7.16240
     2007.97809         4.44806         7.25072
     2007.98083         3.15383         7.07777
     2007.98357         9.34860         7.02011
     2007.98631         4.84037         7.31819
     2007.98904        10.84514         7.37584
     2007.99178         1.36391         7.32800
     2007.99452         4.41068         7.35989
     2007.99726         5.06345         7.09985
     2008.00085       -12.60422        12.44068
     2008.00273        -2.23401         7.06918
     2008.00547        11.32977         6.93547
     2008.00764        16.28017         9.29309
     2008.01095        13.79631         7.70704
     2008.01368        17.57208         7.57824
     2008.01642         3.66985         7.52549
     2008.01916        16.82562         7.13296
     2008.02190        13.09439         7.29488
     2008.02464        11.54016         7.09494
     2008.02737       -26.14407         7.22619
     2008.03011       -23.13730         7.35008
     2008.03285       -26.61052         7.10230
     2008.03559       -24.90975         7.13296
     2008.03833       -22.11498         7.27158
     2008.05201       -28.03913         7.07286
     2008.05475       -22.86736         7.08022
     2008.05663       -36.88814        12.62467
     2008.06023       -24.44581         7.08758
     2008.06297       -21.48004         7.20043
     2008.09673       -27.66220        12.21375
     2008.09856        -1.95902         7.19552
     2008.10130         2.16175         7.25931
     2008.10403        -8.11348         8.31055
     2008.10677        -7.88171         6.87782
     2008.12976        -1.95784        14.61920
     2008.13141        -4.42577         6.84470
     2008.13415        -3.35500         6.84348
     2008.13689         2.02577         6.91707
     2008.13877         7.96899        11.38330
     2008.14236         0.39332         6.92443
     2008.14510         5.94109         6.87292
     2008.14784         1.99186         6.82017
     2008.15058         2.49963         6.89867
     2008.15331       -10.72060         6.81649
     2008.15697        -2.65823        11.66175
     2008.15879         1.80394         6.90113
     2008.16153        -6.57729         6.95510
     2008.16427        -5.06552         6.93179
     2008.16700        -8.20575         6.79564
     2008.16974       -11.17597         6.78705
     2008.17248        -3.72120         6.78828
     2008.17522        -3.60543         6.96737
     2008.17796        -4.74866         6.85574
     2008.18069        -7.71489         6.81281
     2008.18343         0.03288         6.77601
     2008.18611         1.62161         7.14032
     2008.18891        -1.70758         6.86188
     2008.19164        -9.16881         6.84102
     2008.19438        -3.65704         6.77969
     2008.19712         7.83174         8.40132
     2008.19986         4.80551         6.90603
     2008.20260         3.87028         6.80300
     2008.20459         5.04457        12.96936
     2008.20807        -3.08618         7.22128
     2008.21081         5.45859         7.02502
     2008.21355        -2.28364         7.54512
     2008.21629         3.10813         6.98209
     2008.21902         0.78190         7.06182
     2008.22176       -13.15433         7.01521
     2008.22450         1.52945         7.03361
     2008.22724         2.90622         7.09126
     2008.22997        -1.47101         7.09985
     2008.23271         3.61676         7.20411
     2008.23544        -2.56848        10.15420
     2008.23819         5.10130         7.14646
     2008.24093        13.01807         6.99558
     2008.24366        -0.27716         7.05569
     2008.24640         1.73961         7.18448
     2008.24857         6.14002        10.95520
     2008.25188         0.80216         7.16731
     2008.25462         4.35493         6.98699
     2008.25735         2.40670         7.04710
     2008.26009         4.33147         7.05569
     2008.26283         3.41824         7.02993
     2008.26557        -3.99899         7.07163
     2008.26830        -3.51822         6.81036
     2008.27104        -2.30345         6.99190
     2008.27310        -5.11812         9.87207
     2008.27652        -5.79291         7.03483
     2008.27926        -4.31813         7.16363
     2008.28199        -1.12836         6.97105
     2008.28473         1.56541         6.92443
     2008.28747         5.30318         6.98699
     2008.29021         5.10695         7.05814
     2008.29295         3.94672         7.01643
     2008.29568         2.64849         7.05814
     2008.29842        -3.68074         6.85084
     2008.30116        -3.23697         6.81404
     2008.30390        -0.61620         7.59051
     2008.30663        -1.94642         7.29488
     2008.30937         2.72235         7.16731
     2008.31211        -3.57288         7.52181
     2008.31485        -4.24511         6.92689
     2008.31759        -6.80734         6.95019
     2008.32032        -2.04257         6.86065
     2008.32306        -6.43480         7.01521
     2008.32580        -4.63103         7.43963
     2008.32854        -1.75726         6.74657
     2008.33128        -7.04249         7.44208
     2008.33401        -4.54372         6.89745
     2008.33675        -5.82694         6.83121
     2008.33949         0.34283         7.04342
     2008.34217       -10.28944         7.03238
     2008.34496       -10.50163         7.07899
     2008.34770         1.69114         6.87292
     2008.35044        -8.24209         6.91094
     2008.35318        -5.50832         7.14891
     2008.35592        -4.68655         6.82630
     2008.35865         5.79822         7.35131
     2008.36139         3.64499         7.26054
     2008.36407         0.32373         7.02625
     2008.36670        -9.50357         7.59418
     2008.36961       -12.26469         6.96123
     2008.37234       -11.35892         6.88150
     2008.37508         5.52185         9.52616
     2008.37782        -4.98938         6.86065
     2008.37947       -27.36531        14.70752
     2008.38329         5.43716         6.98945
     2008.38592        -2.14914         7.27771
     2008.38854        -1.19544         7.69354
     2008.39151        11.98948         7.02257
     2008.39425        -3.46975         6.95633
     2008.39698        -4.25498         7.02011
     2008.39972         5.45879         7.11457
     2008.40246         5.45856        10.69883
     2008.40520        -0.53667         7.25931
     2008.40782        -1.37897         7.46784
     2008.41044        -7.46427         7.75610
     2008.41341        -5.58536         6.93179
     2008.41676         6.61881         9.33725
     2008.41891         4.50020         6.93425
     2008.42162        -2.45304         7.11211
     2008.42413         7.82758         7.70581
     2008.42710        -3.85850         7.05569
     2008.42967         4.30916         7.70090
     2008.43229        -0.69114         8.10079
     2008.43531        -2.09419         7.10107
     2008.43805        -3.13142         7.14400
     2008.44079        -7.26565         7.06918
     2008.44353         1.24512         7.14400
     2008.44626        -1.60610         6.96982
     2008.44900         5.85667         6.96369
     2008.45174        -2.22456         6.98454
     2008.45448        -8.54379         7.06918
     2008.45722        -6.85602         6.94283
     2008.45995       -11.86625         7.26544
     2008.46269       -11.31348        11.19195
     2008.46543        -2.48771         6.95019
     2008.46817        -9.40994         6.86801
     2008.47091       -15.02617         6.98699
     2008.47364       -13.49839         7.07654
     2008.47638        -1.33162         6.87782
     2008.47912        -7.84285         6.98209
     2008.48186         0.89592         6.89131
     2008.48459        -0.02931         7.38320
     2008.48733        -6.38254         7.03238
     2008.49007        -4.72677         6.91707
     2008.49281        -2.14400         6.85084
     2008.49555        -8.54523         7.01766
     2008.49828        -8.83446         7.54267
     2008.50102        -6.14368        10.51484
     2008.50376        -2.14891         7.15136
     2008.50650        -4.06414         7.32064
     2008.50924        -6.10737         7.09249
     2008.51197        -1.23260         6.94406
     2008.51471        -9.10683         6.89867
     2008.51745        -1.55206         6.98209
     2008.52019         8.68571         7.08635
     2008.52292        -0.73752         7.31819
     2008.52566         0.94825         7.21147
     2008.52840        -4.16097         7.05078
     2008.53114        -2.36120         6.95019
     2008.53388         6.45757         7.06059
     2008.53661         0.78334         7.22864
     2008.53935         1.79511         7.31206
     2008.54209        -1.78312         6.91462
     2008.54483         3.30565         7.33536
     2008.54757        -3.75558         7.12315
     2008.55030         8.38519         6.87660
     2008.55304         3.57896         7.04833
     2008.55578         1.55974         6.91585
     2008.55852         3.61951         7.08513
     2008.56125        -4.11672         7.11702
     2008.56399         3.80905         6.77969
     2008.56673         2.55582         6.94283
     2008.56947         4.92159         6.96123
     2008.57221         7.53336         7.14400
     2008.57494         6.17613         7.03483
     2008.57768        12.92690         8.57060
     2008.58042        11.14867         7.04219
     2008.58316        11.63245         6.94651
     2008.58590         7.02822         6.89254
     2008.58863         7.09999         7.09985
     2008.59137        -3.15724         8.23327
     2008.59411         6.20453         6.79196
     2008.59685         3.61030         6.90358
     2008.59958         5.52007         7.39915
     2008.60232        -0.69316         7.47029
     2008.60506        -2.13439         7.28752
     2008.60780        -1.52762         7.03851
     2008.61054        -1.62784         7.03483
     2008.61327         2.21193         7.02870
     2008.61601         7.69570         6.95755
     2008.61875         1.64347         6.96982
     2008.62155         6.88828         7.11947
     2008.62423         7.76501         6.92934
     2008.62696         2.94178         7.14400
     2008.62970         8.14955         7.25440
     2008.63244        12.74532         7.33659
     2008.63518         0.50209         7.22864
     2008.63791         9.45287         7.16486
     2008.64065         9.20364         6.99558
     2008.64339         6.93041         6.99558
     2008.64613        16.17018         7.19062
     2008.64887        10.76895         7.07409
     2008.65160        12.32972         7.02502
     2008.65434        18.33349         7.02625
     2008.65708         1.53526         7.35499
     2008.65982         3.93003         7.27158
     2008.66256         1.61680         7.16363
     2008.66529         5.94458         7.04342
     2008.66803         5.32635         7.03115
     2008.67077         2.74612         7.11947
     2008.67351         2.64589         7.08145
     2008.67624        -0.57334         7.94746
     2008.67898         9.46043         6.98945
     2008.68172         0.82620         7.10107
     2008.68446         1.94497         7.00294
     2008.68720         3.38974         7.09003
     2008.68993         2.96851         7.15504
     2008.69267         0.95529         7.41387
     2008.69541         2.86806         7.04097
     2008.69815        14.99683         7.11702
     2008.70089         2.64860         7.28262
     2008.70362         4.62737         6.98699
     2008.70636         7.35814         7.05937
     2008.70910         2.20791         7.09862
     2008.71184         9.81168         7.09985
     2008.71457         2.46045         7.10843
     2008.71731         1.36522         6.89499
     2008.72005         6.08100         6.93793
     2008.72279         1.65077         7.02134
     2008.72553         9.29554         6.95387
     2008.72826         0.03331         7.00294
