# ================= DQRFIT RESULTS ================
# INPUT FILE: series/WOSB.rad
# OUTPUT: LDETRENDED
# FILTER FUNCTION: f(t)
# f(t)=+line(t)+annual(t)
# line(t)=+P 1+P 2*t
# annual(t)=+P 3*sin(2*pi*t+P 4)
# heav(t)=(t<0?0:1)
# TOTAL OBSERVATIONS MTOT= 1703
# INITIAL TIME INTERVAL= 2022.7488 - 2017.5715 =  5.1773
# TOTAL OBSERVATIONS AFTER PREFILTER M= 1671
# TIME-SPAN= 2022.7488 - 2017.5715 =  5.1773
# OBSERVATIONS: USED M=  1671 REJECTED MTOT-M=    32 %USED=   98.1210
# N=  4 PARAMETERS
# MAXSIG= 175.00000
# MAXRES=  21.99012
# SCALE FACTOR FOR LENGTHS: SCL=  10.00000
# SCALE FACTOR FOR SIGMAS: SCLSIG=   1.00000
# CHI^2=   2913.500 DOF=  1667 CHI^2/DOF=   1.74775
# RMS=      6.978 SDEV=      6.980 MEAN=    0.02975
#  P #       PARAMETER +-    SIGMA %error PARAMETER NAME
# P 1 =     -7235.54741 +-  231.416   3.20 YZERO                              
# P 2 =         3.59530 +-    0.115   3.19 SLOPE                              
# P 3 =         6.72883 +-    0.242   3.59 ANNUAL AMPLITUDE                   
# P 4 =        -2.66401 +-    0.045   1.68 ANNUAL PHASE                       
#       T            LDETRENDED       SIG_OBS
     2017.57152         2.07289         6.89965
     2017.57426        -4.00196         6.99484
     2017.57700         3.05520         6.95253
     2017.57974        -5.29564         6.97500
     2017.58247        -7.80349         6.87056
     2017.58521        -5.44633         6.89965
     2017.58795        -9.16717         6.94724
     2017.59069        -5.15802         7.04904
     2017.59342        -4.37186         6.91023
     2017.59616        -5.16170         6.89568
     2017.59890        -1.93855         6.90097
     2017.60164        -0.98739         6.85602
     2017.60438        -5.81123         6.88907
     2017.60711        -4.16208         6.92873
     2017.60985        -2.50492         7.07944
     2017.61259        -2.86377         7.13497
     2017.61533         8.48839         6.96311
     2017.61807         5.80255         7.04904
     2017.62080        -0.96630         6.91816
     2017.62354         9.57786         7.12043
     2017.62628        -0.28798         7.10060
     2017.62902         6.63117         7.22222
     2017.63175        -0.31467         6.89040
     2017.63449        -1.57751         6.95914
     2017.63723         0.55764         6.91155
     2017.63997        -7.65620         7.10192
     2017.64271         2.36896         6.96178
     2017.64544         4.98011         6.89436
     2017.64818         0.03227         7.01334
     2017.65092        -0.15957         6.90890
     2017.65366        -0.45042         6.90758
     2017.65639        -3.51626         6.86792
     2017.65913        -0.70210         6.88114
     2017.66187         3.62505         7.23677
     2017.66461         6.22721         7.03846
     2017.66735         4.70837         7.01863
     2017.67008         7.06752         6.90626
     2017.67282         4.08668         7.11117
     2017.67556         0.45784         6.85338
     2017.67830         3.77299         6.90229
     2017.68104        -3.13685         6.92477
     2017.68377         3.98931         7.23016
     2017.68651         9.80646         7.33327
     2017.68925         7.68762         6.98690
     2017.69199         5.97978         6.95385
     2017.69472         7.46893         7.09531
     2017.69746         6.57109         6.94989
     2017.70020         8.97725         6.87717
     2017.70294         3.21140         6.97236
     2017.70568        -2.34444         6.82826
     2017.70841         4.57972         6.90097
     2017.71389        10.54103         6.85602
     2017.71663        10.99719         6.89965
     2017.71937         6.33234         6.89568
     2017.72210         0.18950         6.90097
     2017.72484         0.17466         6.92080
     2017.72758         5.40481         6.91023
     2017.73032        -0.05603         6.92741
     2017.73305         9.04213         6.92741
     2017.73579         8.65028         6.87717
     2017.73853         6.51044         6.87982
     2017.74127         2.73460         6.89304
     2017.74401         8.04675         6.99748
     2017.74674         4.12491         6.97236
     2017.74948        -3.60393         6.88643
     2017.75222        -0.31078         6.89568
     2017.75496         1.23738         6.87717
     2017.75770         2.01954         7.01995
     2017.76043         0.09069         6.91948
     2017.76317         6.94985         7.15744
     2017.76591         9.74401         6.86528
     2017.76865         9.37116         6.87850
     2017.77138         7.27732         6.85602
     2017.77412         0.95148         6.94592
     2017.77686        -1.24237         6.86792
     2017.77960         2.77379         6.86528
     2017.78234        -1.25206         6.86263
     2017.78507         8.88810         6.84941
     2017.78781         8.88526         6.98690
     2017.79055         7.64541         6.98161
     2017.79329         5.94357         7.03450
     2017.79603         8.52373         6.97500
     2017.79876        12.02488         7.34253
     2017.80150         3.13004         7.26849
     2017.80424         9.54520         7.03978
     2017.80698         4.93235         7.21429
     2017.80971         6.62151         7.01334
     2017.81245         1.51567         7.03450
     2017.81519         9.38482         7.15877
     2017.81793         0.31598         6.89701
     2017.82067         1.22614         6.99616
     2017.82340         3.16029         6.84941
     2017.82614         0.08645         6.81636
     2017.82888         0.97061         6.86660
     2017.83162         4.56576         7.11250
     2017.83436         5.58892         6.91287
     2017.83709         5.20408         7.06622
     2017.83983        -6.15277         6.80711
     2017.84257        -0.11161         6.94328
     2017.84531        -1.93845         6.98558
     2017.84804        -5.97630         6.91023
     2017.85078         5.61786         6.91023
     2017.85352         4.79502         6.86660
     2017.85626         8.06517         6.99351
     2017.85900         2.53833         7.16538
     2017.86173        10.86549         7.14290
     2017.86447        10.88364         6.95253
     2017.86721         9.11080         6.88378
     2017.86995        -4.39004         6.98426
     2017.87269       -15.85289         6.98161
     2017.87542       -25.45973         6.87585
     2017.87816         6.88243         6.85999
     2017.88090       -12.14642         6.96311
     2017.88364         5.52374         6.88114
     2017.88637         4.38590         6.82694
     2017.88911        10.23605         6.94592
     2017.89185         1.22921         7.15083
     2017.89459         8.59637         7.00806
     2017.89733        -2.30848         7.01070
     2017.90006         8.57368         7.00012
     2017.90280       -10.35616         7.02524
     2017.90554        -4.69101         6.93931
     2017.90828       -13.33485         7.04375
     2017.91102       -22.27369         7.15216
     2017.91375         1.79146         7.16802
     2017.91649       -27.33738         6.97236
     2017.92744         1.87725         6.98029
     2017.93018        -3.27960         6.94724
     2017.93292        -2.08244         6.98690
     2017.93566        -2.06828         6.98822
     2017.93839         5.81087         7.03714
     2017.94113        -0.84397         7.08209
     2017.94387         5.30219         6.95253
     2017.94661        12.01634         7.11514
     2017.94935         2.80750         6.97368
     2017.95208         1.91965         7.12572
     2017.95482         5.32981         7.01731
     2017.95756         0.69497         6.96046
     2017.96030         8.46012         6.98294
     2017.96303         3.27028         6.97368
     2017.96577         7.84244         7.08738
     2017.96851         4.11859         6.90362
     2017.97125        -0.27925         6.91948
     2017.97399         1.94691         6.93006
     2017.97672        -0.40994         6.95385
     2017.97946        -0.21778         6.96178
     2017.98220        -6.01662         6.91551
     2017.98494       -12.76447         6.89965
     2017.98767       -23.10831         6.93534
     2017.99041       -19.32215         7.03714
     2017.99315        -1.52500         6.98161
     2017.99589       -19.91984         6.93006
     2017.99863       -19.37768         6.91816
     2018.00136        -8.28153         6.99219
     2018.00410        -9.30737         6.96707
     2018.00684        -2.62821         6.98558
     2018.00958        -1.42406         6.92212
     2018.01232         0.50310         6.94856
     2018.01505       -19.26674         6.99748
     2018.01779        -5.63959         7.00145
     2018.02053         5.78057         6.99880
     2018.02327        -8.04727         6.99087
     2018.02600       -12.53412         6.94195
     2018.02874       -12.32996         6.88907
     2018.03148       -20.95480         6.93138
     2018.03422        -5.54065         7.07151
     2018.03696        -2.65449         6.99484
     2018.03969        -3.39833         7.03714
     2018.04243        -5.22418         7.00673
     2018.04791       -11.46086         7.00673
     2018.05065       -22.98271         6.98029
     2018.05338       -30.28355         7.01599
     2018.05612       -29.99639         6.96707
     2018.06707        -9.98777         7.11778
     2018.06981       -34.11861         7.11911
     2018.07255       -13.40145         7.05565
     2018.07529       -13.14330         7.09002
     2018.07802        -7.71514         7.15612
     2018.08076        -5.66398         7.10721
     2018.08350       -20.58083         7.03317
     2018.08624       -24.36967         7.07019
     2018.08898        -4.49151         7.26849
     2018.09171        -3.01436         7.22090
     2018.09445        -1.97620         7.16405
     2018.09719         3.53496         7.37426
     2018.09993         5.46411         7.12968
     2018.10266        -6.49773         7.14422
     2018.10540        -5.01757         7.34782
     2018.10814        -5.81542         7.07416
     2018.11088        -8.36026         7.09531
     2018.11362        -6.39810         7.12968
     2018.11635        -9.37495         7.06094
     2018.11909        -7.80279         7.18785
     2018.12183       -20.52964         7.21694
     2018.12457       -14.35848         7.06622
     2018.12731       -22.64332         7.10456
     2018.13004        -4.49417         7.10985
     2018.13278        -0.89801         7.02260
     2018.13552        -5.13185         7.02392
     2018.13826        -8.00570         7.08605
     2018.14099        -8.19754         7.12572
     2018.14373       -10.55038         7.11778
     2018.14647        -3.51123         7.40466
     2018.14921        -5.19207         7.15216
     2018.15195        -6.34991         7.09002
     2018.15468        -9.53976         7.11646
     2018.15742        -1.39260         7.11911
     2018.16016         0.41456         7.08473
     2018.16290       -22.42829         7.18521
     2018.16564       -10.18613         7.15877
     2018.16837        -9.21497         7.05036
     2018.17111        -3.20382         7.07283
     2018.17385        -5.00066         7.11117
     2018.17659        -4.89350         7.09134
     2018.17932        -5.51735         7.06226
     2018.18206        -5.73919         7.11514
     2018.18480        -7.25703         7.11117
     2018.18754        -4.71788         7.03185
     2018.19028        -4.55472         7.04904
     2018.19301        -5.19556         7.00541
     2018.19575         2.74659         6.94592
     2018.19849         1.51675         6.98955
     2018.20123         6.11991         7.10060
     2018.20397        -0.65694         6.99616
     2018.20670        -1.67978         7.00806
     2018.20944        -5.20162         6.96443
     2018.21218        -5.05447         6.91551
     2018.21492       -15.63831         6.94460
     2018.21765        -2.88815         6.98690
     2018.22039       -12.31500         7.00673
     2018.22313        -3.39584         6.98426
     2018.22587       -10.16768         6.93534
     2018.22861        -8.56753         6.91551
     2018.23134       -15.00037         6.91816
     2018.23408        -5.03821         7.04375
     2018.23682        -6.24306         6.97368
     2018.23956        -0.59390         6.98029
     2018.24230        -2.39274         6.94328
     2018.24503        -8.40859         6.94856
     2018.24777        -7.23743         6.94592
     2018.25051        -3.70827         6.96839
     2018.25325        -9.22412         6.97633
     2018.25598        -5.20596         6.91155
     2018.25872       -11.02280         7.17463
     2018.26146        -2.06165         7.21826
     2018.26420        -2.13749         7.10456
     2018.26694        -3.60233         6.94460
     2018.26967        -6.42618         6.97633
     2018.27241       -10.80202         6.93931
     2018.27515       -13.62386         7.09002
     2018.27789         2.97029         7.14026
     2018.28062        -7.81055         7.23677
     2018.28336        -4.16439         7.03978
     2018.28610        -2.85424         6.90890
     2018.28884        -3.33208         6.91023
     2018.29158        -2.41993         7.09002
     2018.29431        -7.29377         7.04111
     2018.29705        -5.48861         6.92080
     2018.29979        -1.90946         6.97368
     2018.30253       -16.53530         7.00277
     2018.30527       -11.17414         6.89965
     2018.30800        -8.83699         6.88907
     2018.31074        -9.33683         6.88775
     2018.31348       -10.00567         6.88246
     2018.31622        -8.38052         6.90890
     2018.31895        -1.95036         7.10853
     2018.32169        -1.90420         6.91684
     2018.32443        -5.76805         6.91287
     2018.32717       -11.67289         6.93931
     2018.32991        -3.90173         7.15083
     2018.33264        -6.51958         6.93534
     2018.33538        -4.91742         7.12704
     2018.33812         1.39174         7.25131
     2018.34086         5.28789         6.94592
     2018.34360        -3.96695         6.92609
     2018.34633        -5.78279         6.92212
     2018.34907        -1.14464         6.96839
     2018.35181         8.23952         6.93006
     2018.35455         2.59968         6.90626
     2018.36550        -4.13470         6.91419
     2018.36824        -1.33354         6.96311
     2018.37097        -3.58638         6.89701
     2018.37371        -2.79623         6.89701
     2018.37645        -6.16107         7.03582
     2018.37919        -2.43891         6.91023
     2018.38193         6.28524         6.93006
     2018.38466        11.84140         6.87982
     2018.38740         1.31456         6.96046
     2018.39014         4.50671         6.89304
     2018.39288         2.95187         6.96443
     2018.39561        -1.28997         6.92477
     2018.39835         6.04918         6.89436
     2018.40109        12.96034         6.95121
     2018.40383        13.36850         7.01995
     2018.40657         1.32065         6.93931
     2018.40930        12.08681         7.06622
     2018.41204         3.17797         6.85338
     2018.41478         1.81812         6.90229
     2018.42299         2.67259         6.90626
     2018.42573         8.93975         6.87321
     2018.42847        13.26891         6.87321
     2018.43121        13.78706         6.93931
     2018.43668         2.02238         6.89701
     2018.43942         6.17053         6.90494
     2018.44216         6.59169         6.85734
     2018.44490         2.21885         6.91419
     2018.44763         4.55100         7.11250
     2018.45311         5.89331         6.90758
     2018.45585         1.29047         6.91551
     2018.45859         1.07463         6.90362
     2018.46132        -4.23722         6.92345
     2018.46406         2.41494         6.94460
     2018.46680         4.80810         6.95782
     2018.46954         3.16925         7.05300
     2018.47227         5.22941         7.03450
     2018.47501        10.57957         6.92212
     2018.47775        10.10172         7.03978
     2018.48049         3.12488         6.91948
     2018.48323         6.09104         6.90626
     2018.48596        -0.90281         6.91419
     2018.48870         3.74135         6.86924
     2018.49144         4.99551         6.86395
     2018.49418        11.13266         7.09531
     2018.49692        10.37282         7.02128
     2018.49965         9.22198         6.99219
     2018.50239         3.12413         6.90758
     2018.50513        -4.24371         6.90362
     2018.51334         4.72776         6.94063
     2018.51608         4.05092         6.91684
     2018.51882         5.26207         6.99351
     2018.52156         4.63323         6.93270
     2018.52429         2.01339         6.89701
     2018.52703         2.18354         6.93402
     2018.52977         3.12170         6.94328
     2018.53251         1.01486         6.92609
     2018.53525         2.55301         6.88907
     2018.53798         0.05117         6.90362
     2018.54072         6.90233         6.91023
     2018.54346         8.58648         6.96046
     2018.54620         5.98064         6.90229
     2018.54893         7.20580         6.90097
     2018.55167        -1.73005         6.98029
     2018.55441         2.38811         6.86792
     2018.55715         3.85527         6.91684
     2018.55989         0.84842         7.14687
     2018.56262         8.27058         6.94195
     2018.56536         0.58474         6.90097
     2018.56810         1.94689         6.96443
     2018.57084         0.45105         6.90494
     2018.57357         7.93221         7.14687
     2018.57631        -0.01764         7.20107
     2018.57905         9.66452         7.34253
     2018.58179         8.72568         7.08605
     2018.58453        11.60483         7.05565
     2018.58726         9.40999         6.95914
     2018.59000         9.01515         6.89701
     2018.59274         5.10330         6.86924
     2018.59548         8.72646         6.96311
     2018.59822         4.36262         6.91816
     2018.60095         6.18177         6.91816
     2018.60369         9.85393         6.91816
     2018.60643         9.20409         6.96575
     2018.60917        12.20524         7.05036
     2018.61190        10.70640         6.89304
     2018.61464        10.21656         6.91155
     2018.61738         7.88571         6.84941
     2018.62012        12.97687         6.96046
     2018.62286         7.34902         7.17595
     2018.62559         3.71118         7.06622
     2018.62833         1.79834         6.90362
     2018.63107         5.16249         6.86528
     2018.63381         6.04465         7.07151
     2018.63655         4.36281         6.86660
     2018.63928         4.10196         7.22751
     2018.64202         4.80812         7.25660
     2018.64476        11.51428         6.86660
     2018.64750         8.20043         6.91816
     2018.65023         8.56059         7.42317
     2018.65297        15.55475         6.95650
     2018.65571         5.23590         6.94989
     2018.65845        17.73706         7.01334
     2018.66119        15.65222         6.91023
     2018.66392        15.38037         6.96178
     2018.66666         8.82153         6.90362
     2018.66940         4.90969         6.89436
     2018.67214        14.10984         6.92609
     2018.67488         7.11000         6.96707
     2018.67761         4.03016         6.96707
     2018.68035         8.67831         7.04243
     2018.68309         4.88947         7.35707
     2018.68583         9.83463         7.05829
     2018.68856        14.24878         7.12043
