# ================= DQRFIT RESULTS ================
# INPUT FILE: series/WOST.rad
# OUTPUT: LDETRENDED
# FILTER FUNCTION: f(t)
# f(t)=+line(t)+annual(t)
# line(t)=+P 1+P 2*t
# annual(t)=+P 3*sin(2*pi*t+P 4)
# heav(t)=(t<0?0:1)
# TOTAL OBSERVATIONS MTOT= 3718
# INITIAL TIME INTERVAL= 2017.1225 - 2005.0732 = 12.0493
# TOTAL OBSERVATIONS AFTER PREFILTER M= 3698
# TIME-SPAN= 2017.1225 - 2005.0732 = 12.0493
# OBSERVATIONS: USED M=  3698 REJECTED MTOT-M=    20 %USED=   99.4621
# N=  4 PARAMETERS
# MAXSIG= 175.00000
# MAXRES=  33.73071
# SCALE FACTOR FOR LENGTHS: SCL=  10.00000
# SCALE FACTOR FOR SIGMAS: SCLSIG=   1.00000
# CHI^2=   8439.533 DOF=  3694 CHI^2/DOF=   2.28466
# RMS=      8.946 SDEV=      8.947 MEAN=    0.04234
#  P #       PARAMETER +-    SIGMA %error PARAMETER NAME
# P 1 =     -2582.53485 +-   87.062   3.37 YZERO                              
# P 2 =         1.28320 +-    0.043   3.37 SLOPE                              
# P 3 =         6.48475 +-    0.207   3.20 ANNUAL AMPLITUDE                   
# P 4 =        -3.13342 +-    0.045   1.44 ANNUAL PHASE                       
#       T            LDETRENDED       SIG_OBS
     2005.07324         1.52891         8.82117
     2005.07598         5.70040         8.98441
     2005.07871         2.89789         8.67002
     2005.08145         4.10237         8.69118
     2005.08419        -5.29914         8.73350
     2005.08693         0.88935         8.60956
     2005.08966         0.65383         8.56723
     2005.09240         3.18032         8.82117
     2005.09514        -1.07319         8.60653
     2005.09788        -7.23971         8.53852
     2005.10062        -0.50022         8.94360
     2005.10335        -3.23073         8.51433
     2005.10609        -1.42525         8.65944
     2005.10883         2.35724         8.70478
     2005.11157         2.16573         8.53549
     2005.11431         2.62521         8.57328
     2005.11704         7.86270         8.54456
     2005.11978         1.34619         8.46899
     2005.12252        -3.61233         8.63072
     2005.12526        -0.40284         8.51282
     2005.12799        -5.28135         8.40701
     2005.13073         0.04913         8.58688
     2005.13347        -1.39838         8.53700
     2005.13621         2.43711         8.58084
     2005.13895         1.46259         8.52642
     2005.14168        -0.87192         8.42817
     2005.14442         0.55057         8.44178
     2005.14716        -1.32594         8.80152
     2005.14990         0.07054         8.73955
     2005.15264        -0.98297         8.83779
     2005.15537         5.56252         8.71083
     2005.15811        11.11400         8.72594
     2005.16085         4.53549         8.62316
     2005.16359         1.35998         8.54456
     2005.16632        -3.18154         8.69722
     2005.16906        -1.19105         8.71990
     2005.17180        -1.57956         8.79245
     2005.17454         0.60492         8.70629
     2005.17728         0.33741         8.69420
     2005.18001        -2.29210         8.72745
     2005.18275         3.90738         8.85895
     2005.18549        -2.87513         8.99801
     2005.18823         2.46536         8.77431
     2005.19097         1.86784         8.78036
     2005.19370        -1.37367         8.70629
     2005.19644        -3.36918         8.55212
     2005.19918        -0.82170         8.71385
     2005.20192         3.04179         8.83477
     2005.20465         6.26228         8.86651
     2005.20739         2.66176         8.63223
     2005.21013         3.43425         8.77885
     2005.21287         6.29074         8.69420
     2005.21561         9.15922         8.70478
     2005.21834         6.57071         8.81966
     2005.22108         3.05520         8.73199
     2005.22382         4.77468         8.60956
     2005.22656         4.49917         8.57328
     2005.22930         9.38866         8.75164
     2005.23203         9.35815         8.87709
     2005.23477         3.38963         8.76222
     2005.23751        11.84012         8.73501
     2005.24025         9.42461         8.93000
     2005.24298         1.22909         8.64130
     2005.24572         6.04658         8.84837
     2005.24846         5.84707         8.78036
     2005.25120         2.28655         8.64432
     2005.25394        11.88804         8.91639
     2005.25667        -0.14347         9.11440
     2005.25941         5.71401         8.73199
     2005.26215         0.13650         8.83326
     2005.26489        11.89399         8.79547
     2005.26762         6.53547         8.90430
     2005.27036        -0.76104         8.70327
     2005.27310         3.06445         8.74257
     2005.27584         6.43893         8.88465
     2005.27858         4.10842         8.74408
     2005.28131         8.22691         9.00406
     2005.28405        -2.91061         9.01917
     2005.28679        -2.82812         8.83326
     2005.28953         4.18137         8.67455
     2005.29227         6.40585         8.66850
     2005.29500        -0.46766         8.66246
     2005.29774         3.57283         8.69874
     2005.30048        -1.44169         8.75768
     2005.30322        -0.73120         8.71990
     2005.30595        -0.02271         8.71234
     2005.30869         4.47778         8.91790
     2005.31143         7.90526         8.81966
     2005.31417         3.13775         8.78640
     2005.31691         4.39024         8.59142
     2005.31964        -3.51128         8.64281
     2005.32238         6.93721         8.87558
     2005.32512         9.15670         8.84989
     2005.32786         0.05518         8.58386
     2005.33060         5.42467         8.65944
     2005.33333        -0.79084         8.85895
     2005.33607         8.65564         8.98441
     2005.33881         4.14013         8.86954
     2005.34155         3.54962         8.74408
     2005.34428         6.94810         8.79094
     2005.34702         9.24759         8.70327
     2005.34976         8.38408         9.00104
     2005.35250        10.02656         8.82117
     2005.35524         9.25705         8.96174
     2005.35797         3.28254         9.10684
     2005.36071         5.20802         8.96930
     2005.36345         5.78751         8.99499
     2005.36619        10.28800         9.13707
     2005.36893         4.98548         9.77946
     2005.37159         3.43507         9.47112
     2006.17936         4.59253         8.79698
     2006.18207         6.38906         8.63979
     2006.18480         9.54454         8.84989
     2006.18754         7.86503         8.45841
     2006.19028         1.18652         8.68060
     2006.19302        -0.87700         8.73501
     2006.19576        -0.21551         8.85442
     2006.19849         6.17198         8.84837
     2006.20123        24.43746         9.12952
     2006.20397         0.11395         9.13405
     2006.20671        -2.18756         9.03882
     2006.20945        -4.43708         8.84384
     2006.21218        -7.21659         8.83024
     2006.21492        -7.16610         8.82117
     2006.21766        -0.06862         8.86349
     2006.22040        -7.20113         9.21567
     2006.22313        -6.86664         9.14916
     2006.22587        -5.23315         9.05092
     2006.22861         0.80933         9.00557
     2006.23135        -0.60718         8.98441
     2006.23409         2.09731         9.04638
     2006.23682        -1.79421         8.61711
     2006.23956        -1.82272         8.58688
     2006.24230        -3.56323         8.59142
     2006.24504         0.81025         8.55968
     2006.24778         1.03674         8.82268
     2006.25051        -0.22277         8.71083
     2006.25325        -0.72029         8.76222
     2006.25599        -2.71580         8.68060
     2006.25873         0.50669         8.76071
     2006.26146        -2.28783         8.90430
     2006.26420        -4.70734         9.12347
     2006.26694         3.77515         8.90430
     2006.26968        -3.39437         8.81210
     2006.27242         2.82212         8.63676
     2006.27515         0.03961         9.06452
     2006.27789         4.34209         9.09626
     2006.28063         3.72758         8.85140
     2006.28337         8.15407         8.77885
     2006.28611        -8.42145         9.07208
     2006.28884         1.66104         8.87105
     2006.29158         5.58953         8.59293
     2006.29432         9.08701         8.64734
     2006.29706         1.94250         8.71234
     2006.29979         4.37799         8.81210
     2006.30253         0.78247         8.72443
     2006.30527        -0.63104         8.75315
     2006.30801         3.75045         8.78036
     2006.31075         3.57494         8.76675
     2006.31348         2.53842         9.21114
     2006.31622         5.24291         8.83175
     2006.32170         1.65688         8.88012
     2006.32444        -3.20463         8.86500
     2006.32717        -1.15714         8.74257
     2006.32991        -4.34166         8.66850
     2006.33265        -6.06017         8.72897
     2006.33539        -0.68868         8.75617
     2006.33812         3.00980         8.82570
     2006.34086         3.20029         9.08115
     2006.34360         7.11578         8.79698
     2006.34634         6.69626         8.70478
     2006.34908        -0.04625         8.85140
     2006.35181         2.13424         9.11440
     2006.35455         1.83172         8.91337
     2006.35729         5.28621         8.78640
     2006.36003         0.62370         8.83779
     2006.36277        -4.63182         8.80152
     2006.36550        -7.74733         8.83477
     2006.36824        -5.03984         9.18091
     2006.37098         5.05364         9.25346
     2006.37372         4.30813         9.14312
     2006.37645         5.49762         9.12800
     2006.37919         0.08910         9.20963
     2006.38193         3.53459         9.31090
     2006.38467         6.00508         9.42124
     2006.38741        15.15056         9.38043
     2006.39014        10.84405         9.22927
     2006.39288         7.08154         9.28822
     2006.39562         0.67803         9.23834
     2006.39836        -2.32049         9.27462
     2006.40110         0.16500         9.25950
     2006.40383        -0.83451         9.32450
     2006.40657         1.38397         9.13707
     2006.40931         4.89446         9.05394
     2006.41205         1.85895         9.18998
     2006.41478         0.22343         9.48170
     2006.41752        -2.25608         9.57843
     2006.42026         6.57641         9.51042
     2006.42300         6.39789         9.50286
     2006.42574         1.58438         9.47716
     2006.42847         2.87187         9.53007
     2006.43121        -0.22065         9.50286
     2006.43395         0.50284         9.29427
     2006.43669        -4.15167         9.11440
     2006.43943         0.52281         9.22021
     2006.44216         2.43530         9.34717
     2006.44490         1.87679         9.49681
     2006.44764         4.62527         9.38496
     2006.45038         7.60576         9.27764
     2006.45311         6.97025         9.26102
     2006.45585         9.23273         9.44693
     2006.45859         5.68822         9.25195
     2006.46133         3.02771         9.34566
     2006.46407         2.04619         9.51344
     2006.46680         4.96268         9.42124
     2006.46954         8.30517         9.28067
     2006.47228         3.05865         9.48019
     2006.47502         4.48614         9.49530
     2006.47775         5.51263         9.29276
     2006.48049        -7.67388         9.38496
     2006.48323         3.21260         9.44996
     2006.48597         9.80609         9.38496
     2006.48871         4.75158         9.41368
     2006.49144         9.02206         9.30787
     2006.49418        -1.97845         9.22776
     2006.49692         4.70004         9.21416
     2006.49966        -2.31448         9.22021
     2006.50240         8.98101         9.47112
     2006.50513         9.84750         9.39705
     2006.50787        -1.90602         9.28218
     2006.51061        -0.02453         9.26102
     2006.51335        -2.44004         9.33961
     2006.51608         7.79044         9.39554
     2006.51882        10.13993         9.68122
     2006.52156         3.39742         9.37136
     2006.52430         7.67990         9.12196
     2006.52704        12.17339         9.46658
     2006.52977         4.48988         9.15521
     2006.53251        12.63936         9.33810
     2006.53525        10.50985         9.53762
     2006.53799         7.50134         9.24892
     2006.54073        12.10682         9.19300
     2006.54346         8.31231         8.94965
     2006.54620         6.70280         9.10684
     2006.54894         2.30828         9.01162
     2006.55168         3.81077         9.11440
     2006.55441         5.42526         9.05394
     2006.55715         1.40375         9.20056
     2006.55989         7.46423         9.07208
     2006.56263        11.50372         9.21567
     2006.56537         6.07321         9.03731
     2006.56810         8.27369         8.94965
     2006.57084         7.58418         8.80152
     2006.57358         8.15767         8.90279
     2006.57632        10.40615         8.91186
     2006.57906        10.69264         8.93000
     2006.58179         7.58713         8.95267
     2006.58453         5.60161         8.97383
     2006.58727        11.41110         9.01615
     2006.59001        11.31459         9.35624
     2006.59274        12.82107         9.32299
     2006.59548         8.94656         9.21718
     2006.59822         4.01505         9.21869
     2006.60096         7.94653         9.21265
     2006.60370        11.54602         8.84233
     2006.60643         8.29751         8.86500
     2006.60917        10.87499         8.84837
     2006.61191         6.82348         8.89674
     2006.61465        12.93397         9.00557
     2006.61739        13.08545         9.22474
     2006.62012         8.50594         9.05545
     2006.62286         7.03643         8.89825
     2006.62560         8.46291         8.86198
     2006.62834        10.62940         9.06603
     2006.63107        10.05889         8.93302
     2006.63381        15.95037         8.86500
     2006.63655        10.43086         9.05696
     2006.63929        15.69635         8.98139
     2006.64203        15.71884         8.93604
     2006.64476         9.85132         9.18695
     2006.64750        16.05581         9.15068
     2006.65024        18.41630         9.33508
     2006.65298        14.69778         9.42728
     2006.65572        12.15627         9.51495
     2006.65845        16.35376         9.48472
     2006.66119        18.18424         9.34113
     2006.66393        18.47273         9.53158
     2006.66667        14.98222         9.32752
     2006.66940        15.47470         9.49983
     2006.67214        23.81419         9.70087
     2006.67488         8.59668         9.71749
     2006.67762        11.13216         9.62982
     2006.68036        11.03665         9.36078
     2006.68309        20.39614         9.81725
     2006.68583         7.75362        10.12711
     2006.68857        24.38811         9.26857
     2006.69155        19.32929        11.01286
     2006.69405        20.86608         9.48472
     2006.69678        13.50257         9.23532
     2006.69952        22.21406         9.47414
     2006.70226        22.85054         9.54669
     2006.70500        15.86203         9.30636
     2006.70773        16.41852         8.98290
     2006.71047        17.44700         9.19753
     2006.71321        20.90449         8.96023
     2006.71595        15.04098         9.03429
     2006.71869        17.14646         8.97232
     2006.72142        19.59895         9.54518
     2006.72416        18.92944         9.42879
     2006.72690        18.70793         9.13405
     2006.72964        15.53741         9.10987
     2006.73238        11.52790         9.10533
     2006.73511        16.26039         9.09475
     2006.73785         8.53487         9.17939
     2006.74059        14.94436         8.88012
     2006.74333        19.40685         9.40914
     2006.74606        19.91333         9.38647
     2006.74880        10.76982         9.00557
     2006.75154        12.06131         9.27613
     2006.75428         7.99579         9.29276
     2006.75702        15.99828         8.92546
     2006.75975        11.77077         9.19602
     2006.76249        17.87125         9.23834
     2006.76523        13.79074         9.39554
     2006.76797        12.83823         9.11591
     2006.77070        13.78471         8.99197
     2006.77344         5.74620         8.98441
     2006.77618        15.99169         9.03731
     2006.77892        18.41817         9.16881
     2006.78166        17.50066         8.91790
     2006.78439        17.48315         8.90581
     2006.78737        16.50232        10.69997
     2006.78987        21.52512         8.87105
     2006.79261        16.03661         8.78943
     2006.79535        12.14709         9.08417
     2006.79808        12.95158         9.13556
     2006.80082        11.11807         9.17184
     2006.80356        11.62555         8.78489
     2006.80630        11.67104         8.87256
     2006.80903        15.81853         8.90732
     2006.81177        12.85502         9.25950
     2006.81451        10.00950         9.12045
     2006.81725        15.16999         9.06905
     2006.81999        13.95548         8.94360
     2006.82272        21.53096         8.92848
     2006.82546         9.79845         8.84233
     2006.82820        13.15994         8.72594
     2006.83094        14.85342         8.72745
     2006.83368        12.22191         8.66548
     2006.83641        12.16640         8.85442
     2006.83915        14.64188         8.82721
     2006.84189        11.83637         9.23834
     2006.84463        11.75686         8.74861
     2006.84736        -1.82266         9.44089
     2006.85010        19.90283         9.12498
     2006.85284        15.90532         9.15521
     2006.85558        15.12380         9.14463
     2006.85832        13.46229         9.10835
     2006.86105        15.42778         9.16126
     2006.86412         4.75184        11.87744
     2006.86653        11.26575         9.69935
     2006.86927        15.13424         8.69118
     2006.87201        13.98072         8.65037
     2006.87474        11.05321         8.61711
     2006.87748        15.21170         8.83779
     2006.88022         7.71418         8.88919
     2006.88296        15.90067         9.07964
     2006.88569         9.00716         8.83477
     2006.88843        11.52664         8.77885
     2006.89117         7.42013         8.74559
     2006.89391       -11.01838        10.16036
     2006.89665         1.49911         9.01011
     2006.89938         4.14459         8.62014
     2006.90212         5.06408         8.67002
     2006.90486         9.35657         8.75768
     2006.90760        10.85005         8.57630
     2006.91034         8.61454         8.56119
     2006.91307        -3.87897         8.67909
     2006.91581         4.18451         8.75920
     2006.91855         3.29500         8.73652
     2006.92129         3.07749         8.85744
     2006.92402        -0.38803         8.85593
     2006.92676         5.66346         8.76222
     2006.92950         8.70295         8.94058
     2006.93224        13.20843         8.87256
     2006.93498        10.20192         9.04941
     2006.93771         4.33541         8.93302
     2006.94045         7.43589         8.87256
     2006.94319        11.47938         9.00255
     2006.94593         6.99887         8.95569
     2006.94867        10.58335         8.83175
     2006.95140        17.34284         8.89674
