# ================= DQRFIT RESULTS ================
# INPUT FILE: series/WSLB.rad
# OUTPUT: LDETRENDED
# FILTER FUNCTION: f(t)
# f(t)=+line(t)+annual(t)+jumps(t)
# line(t)=+P 1+P 2*t
# annual(t)=+P 3*sin(2*pi*t+P 4)
# jumps(t)=+P 5*heav(t-2017.5448  )
# heav(t)=(t<0?0:1)
# TOTAL OBSERVATIONS MTOT= 2132
# INITIAL TIME INTERVAL= 2022.7488 - 2016.9007 =  5.8480
# TOTAL OBSERVATIONS AFTER PREFILTER M= 2000
# TIME-SPAN= 2022.7488 - 2016.9007 =  5.8480
# OBSERVATIONS: USED M=  2000 REJECTED MTOT-M=   132 %USED=   93.8086
# N=  5 PARAMETERS
# MAXSIG= 175.00000
# MAXRES=  30.08643
# SCALE FACTOR FOR LENGTHS: SCL=  10.00000
# SCALE FACTOR FOR SIGMAS: SCLSIG=   1.00000
# CHI^2=   4939.245 DOF=  1995 CHI^2/DOF=   2.47581
# RMS=     10.709 SDEV=     10.712 MEAN=   -0.02098
#  P #       PARAMETER +-    SIGMA %error PARAMETER NAME
# P 1 =     -8666.91302 +-  342.024   3.95 YZERO                              
# P 2 =         4.29409 +-    0.170   3.95 SLOPE                              
# P 3 =        10.18591 +-    0.339   3.33 ANNUAL AMPLITUDE                   
# P 4 =        -2.71277 +-    0.043   1.57 ANNUAL PHASE                       
# P 5 =        30.15288 +-    0.884   2.93 OFFSET 2017.5448                   
#       T            LDETRENDED       SIG_OBS
     2016.90075         9.11098        11.04262
     2016.90349        -8.47977        10.56114
     2016.90622         5.77647        10.84279
     2016.90896         6.22371        10.99856
     2016.91170         5.66196        11.18423
     2016.91444         9.84220        10.29522
     2016.91718         5.34944        10.71377
     2016.91991       -10.16131        10.54383
     2016.92265        22.88193        10.31253
     2016.92539         2.98817        10.20553
     2016.92813         2.12842        10.02459
     2016.93086         3.52766         9.89713
     2016.93360        -2.43410         9.88927
     2016.93634        -0.82385         9.97423
     2016.93908         2.13839         9.95535
     2016.94182         5.76963         9.94749
     2016.94455        -6.96912         9.83892
     2016.94729       -13.31988        10.01514
     2016.95003        -7.08164        10.18351
     2016.95277       -12.25739        10.20553
     2016.95551        -8.37815         9.90028
     2016.95824         1.24109         9.90500
     2016.96098         9.81434         9.95850
     2016.96372         5.37058        10.02616
     2016.96646        -2.63118        10.13788
     2016.96919        -1.13393        10.28736
     2016.97193       -11.17569        10.22914
     2016.97467        -0.33945        10.21026
     2016.97741         0.21280        10.63195
     2016.98015         5.23604        10.11899
     2016.98288         1.55328        10.05763
     2016.98562        11.34053         9.99154
     2016.98836       -11.92323        10.22756
     2016.99110       -19.47599        10.33141
     2016.99384       -32.03774        10.64296
     2016.99931         9.02074        10.09697
     2017.00205         0.38399        10.16620
     2017.00479        -4.69577        10.08123
     2017.00752        -7.99353        10.13788
     2017.01026         4.69972         9.91444
     2017.01300         6.88696         9.81374
     2017.01574        -1.87279         9.87668
     2017.01848        -1.06455         9.90500
     2017.02121        -1.96131         9.98682
     2017.02395       -19.81706        10.13473
     2017.02669       -27.67882        10.37390
     2017.02943       -26.33258        10.01829
     2017.03216       -25.16333         9.89556
     2017.03490       -17.32909         9.98210
     2017.03764       -12.70285        10.10169
     2017.04038         2.38840        10.01514
     2017.04312         7.13564        10.16148
     2017.04585        -4.55712        11.29438
     2017.04859        11.38713        11.12130
     2017.05133        11.51337        10.58789
     2017.05407        13.68661        10.42267
     2017.05681        22.87886        10.23543
     2017.05954         5.98210        10.11742
     2017.06228         9.38934        10.14574
     2017.06502         3.66859        10.09225
     2017.06776         0.43683        10.23858
     2017.07049        -4.03293        10.19295
     2017.07323        -2.54468        10.10798
     2017.07597        -7.16144        10.17879
     2017.07871         3.61080        10.26533
     2017.08145        -5.07695        10.18980
     2017.08418        -5.82171         9.91130
     2017.08692         0.94653         9.71304
     2017.08966        -8.16422         9.80115
     2017.09240        -3.46498         9.67528
     2017.09514       -10.97874        10.02773
     2017.09787        -4.64249        10.01042
     2017.10061        -6.86625         9.65954
     2017.10335       -15.91701         9.73349
     2017.10609       -10.46676         9.70674
     2017.10882       -39.56552        10.16148
     2017.11430        -5.84203        10.20396
     2017.11704        -6.75079        10.26061
     2017.11978        -3.74454        10.18665
     2017.12251        -9.47530        10.20868
     2017.12525        -9.96506        10.32669
     2017.12799         6.81619        10.43841
     2017.13073        14.60143        10.26218
     2017.13347         6.09767        10.15833
     2017.13620        -0.76808        10.17564
     2017.13894        -0.55284        10.28578
     2017.14168        -5.99860        10.15361
     2017.14442         1.81365         9.79801
     2017.14715        -4.61311         9.85465
     2017.14989        -2.79587         9.83892
     2017.15263         3.36238         9.96165
     2017.15537         3.73662         9.75238
     2017.15811         3.84386         9.83577
     2017.16084         4.38311         9.70989
     2017.16358       -13.52865        10.34557
     2017.16632        -5.15041        10.19609
     2017.16906        -7.54816        10.36760
     2017.17180        -3.65692        10.34715
     2017.17453        -0.44868        10.26375
     2017.17727       -12.42943        10.49348
     2017.18001        -9.86219        10.52495
     2017.18275        -8.71995        10.67600
     2017.18548       -14.51070        10.15204
     2017.18822       -27.37046        10.47932
     2017.19096        -6.59422        10.35974
     2017.19370        -4.44997        10.69331
     2017.19644       -18.73973        10.61936
     2017.19917         3.01851        10.30466
     2017.20191        -3.15224        10.33928
     2017.20465       -11.94200        10.54855
     2017.20739        -6.59276        10.26847
     2017.21013        -4.68351        10.39120
     2017.21286       -11.44827        10.09067
     2017.21560       -13.70503         9.99469
     2017.21834        -3.73578        10.05606
     2017.22108        -2.03354        10.31725
     2017.22381        -2.82430        10.47303
     2017.22655         4.20795        10.67600
     2017.22929        -4.74981        10.38019
     2017.23203         3.59544        10.15676
     2017.23477        -9.78732        10.38648
     2017.23750         0.05692        10.45257
     2017.24024       -12.82483        10.43211
     2017.24298        -4.54759        10.49663
     2017.24572       -11.68135        10.23071
     2017.24846       -13.86410        10.57845
     2017.25119       -15.24086        10.47145
     2017.25393       -16.08362         9.90500
     2017.25667        -6.96937        10.31096
     2017.25941       -17.76013        10.84594
     2017.26214        -7.21189        10.29050
     2017.26488        -2.71764        10.38963
     2017.26762         0.69560        10.55642
     2017.27036        -0.25516        10.26061
     2017.27310        -7.10891        10.27791
     2017.27583       -15.37167        10.16148
     2017.27857       -10.90043        10.10955
     2017.28131       -10.68418        10.33928
     2017.28405        -7.89394        10.36131
     2017.28679       -15.91370        10.19137
     2017.28952        -4.73445        10.08438
     2017.29226        -4.99321        10.17249
     2017.29500       -10.79997        10.38963
     2017.29774        -9.86972        10.34715
     2017.30047       -16.02748        10.26061
     2017.30321        -7.08924        10.21340
     2017.30595        -9.50799        10.15204
     2017.30869        -6.80975        10.26375
     2017.31143        -7.33651        10.01987
     2017.31416        -8.74526        10.18036
     2017.31690        -0.15902        10.17879
     2017.31964        -0.55278        10.35659
     2017.32238       -11.96253        10.28736
     2017.32512       -20.28129        10.27005
     2017.32785       -11.63505        10.34243
     2017.33059       -17.33680        10.18980
     2017.33333       -13.23856        10.02773
     2017.33607       -15.36232        10.35974
     2017.33880       -13.16207        10.41638
     2017.34154        -9.37983        10.70275
     2017.34428        -9.85558        10.11742
     2017.34702        -4.14634        10.07022
     2017.34976        -7.02710        10.14102
     2017.35249       -16.77285        10.04819
     2017.35523       -21.26161        10.03717
     2017.35797        -9.31937        10.22442
     2017.36071        -4.33912        10.20711
     2017.36344        -4.20088        10.03717
     2017.36618        -7.92764        10.05920
     2017.36892        -7.94939        10.24330
     2017.37166        -3.03015        10.15361
     2017.37440        -7.64691        10.09067
     2017.37713        -4.21266        10.24645
     2017.37987       -16.79342        10.34085
     2017.38261       -16.02918        10.03088
     2017.38535       -15.44693        10.04819
     2017.38809        -8.07069        10.05448
     2017.39082        -9.30145        10.27634
     2017.39356        -5.54520        10.16305
     2017.39630        -1.12696        10.08280
     2017.39904        -2.85772        10.18508
     2017.40177       -12.12847         9.83577
     2017.40451        -8.43723        10.66184
     2017.40725        -6.15199        10.14574
     2017.40999        -4.00274        10.34557
     2017.41273        -0.71450        10.28578
     2017.41546        -2.15826        10.14260
     2017.41820         2.97299        10.37390
     2017.42094        -2.78277        10.43998
     2017.42368        -9.53653        10.12843
     2017.42642       -13.61728        10.28578
     2017.42915        -0.96104        10.30624
     2017.43189         9.26620        10.20396
     2017.43463         1.54145        10.43211
     2017.43737         2.29769        10.22914
     2017.44010        -2.22407        10.26533
     2017.44284        -6.47282        10.13788
     2017.44558         3.82942        10.09854
     2017.44832         2.84966        10.27319
     2017.45106        12.25991        10.16305
     2017.45379         3.56415        10.55170
     2017.45653         7.10240        10.61464
     2017.45927        -7.68336        10.28736
     2017.46201         1.77988        10.15204
     2017.46475         1.91113        10.18508
     2017.46748         1.87137        10.32984
     2017.47022         0.18761        10.34400
     2017.47296        -8.50114        10.59104
     2017.47570        -3.97490        10.15833
     2017.47843        -5.29966        10.26218
     2017.48117         0.33259        10.33456
     2017.48391         3.40583        10.67915
     2017.48665         1.19707        10.29522
     2017.48939        -8.53768        10.20081
     2017.49212        -7.81444        10.24645
     2017.49486         4.65880        10.31882
     2017.49760        -5.30295        10.37232
     2017.50034        -0.67771        10.45886
     2017.50308        -7.48447        10.45572
     2017.50581       -10.36822        10.29365
     2017.50855        -4.26598        10.55170
     2017.51129        -1.90674        10.53911
     2017.51403         6.68551        10.49977
     2017.51676        -5.12425        10.74681
     2017.51950        -0.76601        10.32827
     2017.52224        -0.91076        10.25746
     2017.52498         0.81548        10.26375
     2017.52772         5.12472        10.83492
     2017.53045         0.15097        10.63195
     2017.53319       -13.43279        10.34557
     2017.53593         3.67645        10.72950
     2017.53867         5.23770        10.39750
     2017.54141         7.99694        10.40537
     2017.54407         5.68049        11.64054
     2017.54688        29.89943        10.38334
     2017.54962        37.77767        10.62250
     2017.55236        30.89991        10.26690
     2017.55509        42.31616        10.39592
     2017.55783        42.33040        10.16148
     2017.56057        31.21264        10.07336
     2017.56331        25.93589        10.08123
     2017.56605        27.56313        10.16462
     2017.56878        30.45238        10.33299
     2017.57152        30.28762        10.27634
     2017.57426        33.08086        10.16462
     2017.57700        23.50411        10.08910
     2017.57974        29.06635         9.98368
     2017.58247        24.88359         9.98368
     2017.58521        26.63684        10.11427
     2017.58795        23.55808        10.25274
     2017.59069        28.34132        10.30309
     2017.59342        33.08057        10.13316
     2017.59616        30.77581        10.05133
     2017.59890        32.66905        10.08595
     2017.60164        32.24330        10.10955
     2017.60438        31.07154        10.11585
     2017.60711        32.19178        10.01042
     2017.60985        34.16103        10.42267
     2017.61259        35.11127        10.02301
     2017.61533        45.49451        10.49820
     2017.61807        38.93776        10.20553
     2017.62080        33.34100         9.93018
     2017.62354        36.80624        10.21970
     2017.62628        35.05349        10.14732
     2017.62902        38.31173        10.36603
     2017.63175        39.78597        10.07494
     2017.63449        32.76622        10.24330
     2017.63723        34.22146         9.92860
     2017.63997        36.03170        10.33771
     2017.64271        41.59195        10.15676
     2017.64544        40.80819        10.32669
     2017.64818        37.60343        10.10798
     2017.65092        36.85368         9.94906
     2017.65366        32.24892         9.99626
     2017.65639        35.51016        10.20081
     2017.65913        44.22441         9.98525
     2017.66187        32.50265         9.88612
     2017.66461        48.81689        10.33299
     2017.66735        31.32614        10.26847
     2017.67008        42.04538        10.13945
     2017.67282        48.21063        10.28893
     2017.67556        39.83687         9.95850
     2017.67830        31.43911        10.01829
     2017.68104        28.24736        10.13473
     2017.68377        42.16360        10.35816
     2017.68651        45.47184        10.47303
     2017.68925        60.47009        10.22284
     2017.69199        47.29933        10.18665
     2017.69472        36.31957        10.03875
     2017.69746        40.60882        10.15518
     2017.70020        37.95406        10.10483
     2017.70294        39.34830        10.07651
     2017.70568        36.57555        10.02301
     2017.70841        40.05379         9.84993
     2017.71389        57.52328        10.15204
     2017.71663        56.92452        10.07336
     2017.71937        51.53476        10.18980
     2017.72210        42.26401        10.01829
     2017.72484        36.53925        10.13630
     2017.72758        38.06049        10.01829
     2017.73032        41.69474        10.17092
     2017.73305        43.72798        10.10169
     2017.73579        50.26722        10.15518
     2017.73853        43.74447         9.89556
     2017.74127        38.29271        10.01829
     2017.74401        41.49395        10.14102
     2017.74674        38.17420        10.24487
     2017.74948        39.87844         9.99784
     2017.75222        42.85368         9.89713
     2017.75496        34.35493        10.17879
     2017.75770        34.27917        10.28578
     2017.76043        34.42041         9.96951
     2017.76317        41.20966        10.01200
     2017.76591        51.80590         9.94277
     2017.76865        45.99014        10.18823
     2017.77138        38.06539        10.09382
     2017.77412        34.42463         9.78857
     2017.77686        45.27787        10.11899
     2017.77960        42.27812        10.06707
     2017.78234        26.85136        10.08910
     2017.78507        45.21161        10.06550
     2017.78781        43.11685        10.06550
     2017.79055        40.31109        10.27634
     2017.79329        48.62034        10.53754
     2017.79603        30.77658        10.25589
     2017.79876        34.67082        11.00801
     2017.80150        54.66607        10.69488
     2017.80424        40.95631        10.43684
     2017.80698        22.12855        10.41638
     2017.80971        39.49080        10.50135
     2017.81245        41.87204        10.21812
     2017.81519        40.24328        10.33771
     2017.81793        38.52853        10.00728
     2017.82067        26.59877        10.05606
     2017.82340        40.05601        10.00098
     2017.82614        34.70226        10.16148
     2017.82888        25.69250         9.90028
     2017.83162        36.21974        10.17249
     2017.83436        40.29299         9.93804
     2017.83709        22.65223        10.42897
     2017.83983        -3.38753         9.63751
     2017.84257         4.13572         9.68000
     2017.85078        -6.77555         9.65639
     2017.85352        10.53069         9.95378
     2017.85626        40.87993        10.10955
     2017.85900        41.56718        10.46673
     2017.86173        37.11742        10.33613
     2017.86721        -9.38909        11.01902
     2017.86995        19.40415        10.59890
     2017.87269        -7.94061        10.80188
     2017.87542         5.26464        10.75782
     2017.89459        45.81834        10.29994
     2017.89733        36.97759        10.25746
     2017.90006        38.34783        10.53754
     2017.90280        14.25207        10.45729
     2017.90554        30.98532         9.97266
     2017.90828        25.21456        10.12529
     2017.91102         8.15580        10.48719
     2017.91375         3.78305        10.60520
     2017.91649        16.86129        10.66814
     2017.91923        14.87453        10.65555
     2017.92197         9.45378        10.81604
     2017.92470         6.27502        10.18980
     2017.92744         7.17526        10.47932
     2017.93018        24.35251        10.44313
     2017.93292        21.73875         9.85622
     2017.93566        23.68799        10.00570
     2017.93839        22.35724         9.84206
     2017.94113        20.11548        10.03088
     2017.94387        38.87172        10.11113
     2017.94661        34.61597        10.02616
     2017.94935        27.29221        10.04976
     2017.95208        24.29645        10.31882
     2017.95482        31.50170        10.02773
     2017.95756        24.19694        10.04976
     2017.96030        19.20318        10.11899
     2017.96303        10.21943        10.40537
     2017.96577        21.28767        10.51551
     2017.96851        12.27391        10.12843
     2017.97125         8.82216         9.87983
     2017.97399        12.18840         9.99941
     2017.97672         6.32964         9.90028
     2017.97946         9.76289         9.82003
     2017.98220         4.75613         9.76968
     2017.98494         3.45737         9.78699
     2017.98767         3.85862        10.00728
     2017.99041        -8.11614        10.01672
     2018.01505        11.80205        10.32040
     2018.01779        22.85730        10.29522
     2018.02053         7.66354        10.69016
