# ================= DQRFIT RESULTS ================
# INPUT FILE: series/XANE.rad
# OUTPUT: LDETRENDED
# FILTER FUNCTION: f(t)
# f(t)=+line(t)+annual(t)+jumps(t)
# line(t)=+P 1+P 2*t
# annual(t)=+P 3*sin(2*pi*t+P 4)
# jumps(t)=+P 5*heav(t-2019.5832  )
# heav(t)=(t<0?0:1)
# TOTAL OBSERVATIONS MTOT= 3078
# INITIAL TIME INTERVAL= 2021.8590 - 2012.1314 =  9.7276
# TOTAL OBSERVATIONS AFTER PREFILTER M= 2911
# TIME-SPAN= 2021.8590 - 2012.1314 =  9.7276
# OBSERVATIONS: USED M=  2911 REJECTED MTOT-M=   167 %USED=   94.5744
# N=  5 PARAMETERS
# MAXSIG= 175.00000
# MAXRES= 100.19932
# SCALE FACTOR FOR LENGTHS: SCL=  10.00000
# SCALE FACTOR FOR SIGMAS: SCLSIG=   1.00000
# CHI^2=  50790.755 DOF=  2906 CHI^2/DOF=  17.47789
# RMS=     28.794 SDEV=     28.798 MEAN=   -0.31293
#  P #       PARAMETER +-    SIGMA %error PARAMETER NAME
# P 1 =      5022.62692 +-  505.402  10.06 YZERO                              
# P 2 =        -2.49648 +-    0.251  10.04 SLOPE                              
# P 3 =         8.30116 +-    0.648   7.81 ANNUAL AMPLITUDE                   
# P 4 =         2.89668 +-    0.107   3.69 ANNUAL PHASE                       
# P 5 =        10.63400 +-    1.681  15.81 OFFSET 2019.5832                   
#       T            LDETRENDED       SIG_OBS
     2012.13141       -19.33527        22.61317
     2012.13415        -8.48742        22.62990
     2012.13689        -4.48460        22.94345
     2012.13963        -4.04876        23.06886
     2012.14236       -10.06293        23.59981
     2012.14510        -7.42609        22.67170
     2012.14784        -6.78526        22.31217
     2012.15058        -7.46042        22.17002
     2012.15332        -3.94458        22.60063
     2012.15605       -12.11375        22.63826
     2012.15879        -6.15392        22.72187
     2012.16153        -6.52408        22.45013
     2012.16427        -6.30725        22.64662
     2012.16700        -9.25641        22.52538
     2012.16974        -9.14058        22.39996
     2012.17248       -14.28873        22.38742
     2012.17522        -0.16991        22.70097
     2012.17796        -7.01207        22.73023
     2012.18069        -9.98624        22.61317
     2012.18343       -12.06840        22.25364
     2012.18617       -10.93257        22.65080
     2012.18891        -7.08073        22.59645
     2012.19164         1.55410        22.98943
     2012.19438        -5.41806        22.37488
     2012.19712        -2.33223        22.10731
     2012.19986        -6.19139        22.29126
     2012.20260       -10.49256        25.40167
     2012.20533        -7.63072        22.50448
     2012.20807        -7.57489        22.51702
     2012.21081        -3.44005        22.00698
     2012.21355        -5.83222        22.07805
     2012.21629        -0.62038        22.13240
     2012.21902       -13.71855        22.51702
     2012.22176       -13.30271        22.54628
     2012.22450       -12.11588        22.05297
     2012.22724       -12.81304        22.20765
     2012.22997        -6.44621        22.30380
     2012.23271        -5.22637        22.28290
     2012.23545        -3.67454        22.17838
     2012.23819        -5.56970        22.16584
     2012.24093        -6.15987        22.18675
     2012.24366        -8.49603        23.12321
     2012.24640       -13.39620        22.43759
     2012.24914       -10.43236        22.40832
     2012.25188        -8.62453        21.94427
     2012.25462       -13.56269        21.93591
     2012.25735       -11.53386        22.08641
     2012.26009       -11.01302        22.07805
     2012.26283       -15.19019        22.37488
     2012.26557       -14.85435        21.92336
     2012.26831       -11.32451        21.91918
     2012.27104        -9.49668        22.60899
     2012.27378        -6.51385        22.05297
     2012.27652        -5.18401        21.99862
     2012.27926        -6.58518        22.55046
     2012.28199       -10.63934        22.01116
     2012.28473       -10.25651        22.32053
     2012.28747        -9.47367        22.14076
     2012.29021       -10.90084        22.01534
     2012.29295       -15.44700        22.12822
     2012.29568       -18.39617        22.01116
     2012.29842       -11.90133        22.97689
     2012.30116       -23.12250        22.64662
     2012.30390       -19.51666        22.27454
     2012.30664       -14.68682        21.96099
     2012.30937        -5.05399        22.23691
     2012.31211        -7.45116        23.41168
     2012.31485        -9.34432        22.81384
     2012.31759       -12.13149        22.11986
     2012.32032       -10.30665        22.34561
     2012.32306       -14.96982        22.23273
     2012.32580       -17.66997        22.02788
     2012.32854        -9.49615        22.28708
     2012.33128        -4.95531        22.56301
     2012.33401       -12.69548        22.55046
     2012.33675       -11.41364        22.51702
     2012.33949       -13.89281        21.96935
     2012.34223       -19.34497        22.11986
     2012.34497       -21.44813        21.93173
     2012.34770       -14.39930        22.37070
     2012.35044       -13.47647        22.12404
     2012.35318       -23.02663        22.17838
     2012.35592       -19.40680        21.99444
     2012.35865       -13.40296        21.99862
     2012.36139       -12.14613        21.86902
     2012.36413       -12.67228        24.80384
     2012.36687       -11.20846        21.98189
     2012.36961       -12.53362        22.20765
     2012.37234        -5.08979        22.04878
     2012.37508       -11.57395        21.94009
     2012.37782       -10.62112        22.49193
     2012.38056       -13.90728        22.56719
     2012.38330        -6.19144        22.46685
     2012.38603        -9.41561        22.59645
     2012.38877       -17.05778        22.78458
     2012.39151        -8.36894        22.50866
     2012.39425        -7.62411        22.13240
     2012.39698        -3.40827        22.67170
     2012.39972        -6.70044        22.02788
     2012.40246       -13.72360        22.65498
     2012.40520       -12.70277        22.03624
     2012.40794       -18.66093        22.06133
     2012.41067       -15.80410        22.11568
     2012.41341       -15.46426        22.07387
     2012.41615        -3.37243        22.20347
     2012.41889        -5.95959        22.89746
     2012.42162       -10.05376        22.05715
     2012.42436        -8.02192        21.90664
     2012.42710       -11.10509        21.95681
     2012.42984       -12.87425        22.00280
     2012.43258        -6.73742        22.11149
     2012.43531       -12.04158        21.88992
     2012.43805       -10.34175        21.94427
     2012.44079       -26.36590        22.27454
     2012.44353       -20.32608        22.05715
     2012.44626        -9.91724        22.26618
     2012.44900       -20.36241        22.36651
     2012.45174       -19.51757        22.09477
     2012.45448       -10.74274        22.26618
     2012.45722       -16.18890        22.27036
     2012.45995         3.06793        23.01452
     2012.46228       -15.12227        27.62160
     2012.47091       -11.71573        22.13658
     2012.47364        -7.97189        22.31635
     2012.47638       -15.94906        25.29297
     2012.47912        -2.45022        22.44177
     2012.48186        -9.15739        21.96099
     2012.48459        -9.77855        22.03624
     2012.48733       -12.15472        22.01116
     2012.49007       -11.74488        21.96517
     2012.49281        -5.05305        22.39996
     2012.49555        -6.72221        22.12404
     2012.49833       -12.45826        22.28290
     2012.50102        -7.52754        22.39578
     2012.50376       -13.63571        22.18257
     2012.50650        -3.26687        21.86902
     2012.50924        -6.27004        22.59227
     2012.51197        -4.22120        22.33725
     2012.51471        -9.57137        22.17420
     2012.51745       -12.82052        22.14912
     2012.52019        -0.29770        22.98107
     2012.52292       -14.39486        22.80966
     2012.52566       -11.49203        22.28708
     2012.52840        -3.84719        22.01116
     2012.53114        -6.29536        22.68843
     2012.53388       -16.02152        23.03960
     2012.53661       -15.91969        22.95181
     2012.53935        -2.51485        23.38241
     2012.54209         3.12298        22.68006
     2012.54483       -16.40718        22.34561
     2012.54757        -5.84235        22.32053
     2012.55030        -4.67751        22.82221
     2012.55304        -0.47468        22.00280
     2012.55578        -3.60283        22.17838
     2012.55852       -10.31201        22.09895
     2012.56125         0.84983        23.31134
     2012.56399        -5.10234        22.43759
     2012.56673        -2.21850        22.32889
     2012.56947        -0.06467        22.86401
     2012.58590        -2.62166        22.50866
     2012.58858         1.30303        22.14912
     2012.59138         0.61104        22.27454
     2012.59411         1.36486        22.01952
     2012.59685         0.25368        22.55882
     2012.59958         2.54752        22.17838
     2012.60232       -19.31065        23.59981
     2012.60506        -4.14481        22.75532
     2012.60780        -4.67198        22.45849
     2012.61054        -4.16914        22.51284
     2012.61328         1.68870        22.04460
     2012.61601        -0.78047        22.34561
     2012.61875        -8.49264        22.54210
     2012.62423         5.24603        22.17420
     2012.64613      -727.83129     24917.49607
     2012.64887         5.23455        21.99026
     2012.65161         9.26739        22.23691
     2012.65434         6.19422        23.02288
     2012.65606         1.62251        48.66285
     2012.68720         6.05724        22.07387
     2012.68993         8.20307        22.85983
     2012.69267         5.33491        23.37405
     2012.69541        -0.88126        22.42086
     2012.75290         5.89628        22.71769
     2012.75564         2.10611        22.05715
     2012.75838         1.66595        22.13240
     2012.76112         2.95978        22.19511
     2012.76386         1.34862        22.22855
     2012.76659         6.68945        22.35815
     2012.76933         6.16129        22.38324
     2012.77207         6.43712        22.55046
     2012.77754         2.93379        22.19093
     2012.78028         1.65463        23.19428
     2012.78302        -6.24954        22.74277
     2012.78576         3.01531        22.51702
     2012.78850         3.82113        23.07305
     2012.79414         8.06523        24.75367
     2012.79671         1.21264        22.47103
     2012.82683        -7.88118        23.14830
     2012.82956         4.02566        23.06050
     2012.83230         2.51649        22.32471
     2012.83379        12.47122        83.69257
     2012.85694        -1.65299        22.73023
     2012.93360        -0.54461        28.22361
     2012.93634        -9.21778        23.96353
     2012.93908        -1.41794        24.18928
     2012.94182        -5.23911        27.71357
     2012.95277         3.41823        24.97106
     2012.95551         1.68807        24.16420
     2012.95824         0.67290        28.23198
     2012.96098         3.03374        23.04378
     2012.96372        -2.73443        22.41250
     2012.96646        -0.21559        22.15748
     2012.96919        -7.98276        22.76368
     2012.97193        -4.61292        24.80802
     2012.97467        -2.08108        22.94763
     2012.97741        -3.44725        22.77204
     2012.98014        -7.62843        23.80048
     2012.98285       -16.32767        86.35147
     2012.99150        21.67892       113.51320
     2013.07721         8.47989        95.52383
     2013.07871        -3.40636        22.52120
     2013.08145        -3.05452        22.69261
     2013.08418        -7.37769        22.30799
     2013.08692       -11.77385        22.73441
     2013.08966       -13.23702        22.72605
     2013.09240        -8.61117        22.51284
     2013.09514        -4.43435        22.24109
     2013.09787        -0.84351        23.53292
     2013.10061        -6.49068        23.71269
     2013.10335        -8.71184        22.58391
     2013.10594        -5.25737        24.22691
     2013.11720       -16.50127        24.72441
     2013.11978       -13.47283        23.51620
     2013.12251       -12.84800        22.87237
     2013.12525       -15.20416        22.60481
     2013.12799        -7.56033        22.65498
     2013.13073       -12.18949        22.58809
     2013.13347        -7.40666        22.83893
     2013.13618        -3.88688        22.73859
     2013.13894        -3.23599        22.63408
     2013.14168         0.09985        22.78876
     2013.14442        -3.29932        23.28626
     2013.14715        -3.73148        23.28626
     2013.14990       -17.59464        22.45013
     2013.15263       -10.14381        22.75950
     2013.15537       -19.08598        22.61735
     2013.15811       -12.76114        22.69261
     2013.16084       -13.79531        22.35397
     2013.16358       -15.18147        23.07723
     2013.16632       -12.44664        22.60063
     2013.16906        -4.91580        22.81803
     2013.17180       -10.73997        22.55046
     2013.17453        -9.08913        22.27036
     2013.17727       -17.89430        22.79294
     2013.18001        -8.97346        23.22773
     2013.18275        -9.10863        22.58809
     2013.18548        -9.96079        22.55464
     2013.18823       -14.47595        22.46685
     2013.19096        -9.45312        22.76368
     2013.19370       -13.56829        22.76786
     2013.19644       -13.96845        22.73859
     2013.19917       -12.63562        22.68006
     2013.20191        -9.67478        22.61735
     2013.20465        -8.61895        22.73023
     2013.20739        -6.64011        23.16920
     2013.21013        -6.96028        22.44595
     2013.21286        -8.33344        22.38324
     2013.21560        -8.86261        22.74695
     2013.21834        -2.52077        22.70097
     2013.22108       -17.47094        22.52956
     2013.22381       -10.80210        22.60481
     2013.22655       -12.53127        22.38324
     2013.22929       -12.10943        22.18257
     2013.23203       -12.36460        22.29126
     2013.23477        -9.86876        22.19511
     2013.23750       -15.39193        22.92254
     2013.24024       -13.90609        23.05214
     2013.24298        -9.60826        22.84311
     2013.24572        -6.69541        23.06886
     2013.24846        -5.27059        22.73441
     2013.25119       -13.10075        23.10649
     2013.25393        -9.23192        22.92254
     2013.25667        -6.96008        23.53710
     2013.25941        -3.38825        23.00616
     2013.26214        -0.97341        23.02706
     2013.26488        -3.65658        22.81803
     2013.26762        -6.82474        22.83475
     2013.27036       -12.79191        22.76786
     2013.27310       -11.65807        23.27790
     2013.27583        -7.29524        23.57054
     2013.27857        -9.26440        23.08141
     2013.28131        -7.81557        23.19847
     2013.28405       -18.94073        23.19428
     2013.28679        -8.91190        22.61317
     2013.28952       -10.56006        23.82138
     2013.29226       -12.51123        22.51284
     2013.29500       -13.13639        22.78458
     2013.29765       -18.95077        23.92172
     2013.31690        -8.01671        23.00616
     2013.31964       -13.21188        22.65916
     2013.32238        -8.69904        22.52538
     2013.32512        -1.91521        22.99779
     2013.32785       -15.18537        22.75113
     2013.33059       -15.40054        22.65498
     2013.33333       -15.06270        22.55464
     2013.33607       -16.17087        22.57555
     2013.33880        -8.39603        22.80548
     2013.34155         1.85781        22.92254
     2013.34428        -5.77836        22.89746
     2013.34702        -5.35553        22.64244
     2013.34976        -9.66069        23.28208
     2013.35249        -6.13886        22.67588
     2013.35523        -5.39902        23.21937
     2013.35797        -6.12819        22.59227
     2013.36071        -9.77334        23.19010
     2013.36344       -14.55952        23.07305
     2013.36618        -8.99068        22.68006
     2013.36892        -5.74885        22.77204
     2013.37166       -10.97901        22.79294
     2013.37440        -4.26518        22.60481
     2013.37713       -10.71334        22.60481
     2013.37987       -14.34751        22.50448
     2013.38261       -12.10867        22.67588
     2013.38535        -6.82884        22.60063
     2013.38809        -7.56500        22.49193
     2013.39082        -4.22417        22.50030
     2013.39236       -32.24532       109.45796
     2013.39907        -4.94558        26.66005
     2013.40177        -6.55483        22.57137
     2013.40451        -7.45799        22.59645
     2013.40725         0.20884        23.23191
     2013.40999        -3.87232        23.34061
     2013.41273        -8.77549        22.68006
     2013.41546        -8.29265        23.22355
     2013.41821       -13.66081        22.90164
     2013.42094        -6.40698        22.62990
     2013.42368       -12.61015        22.65498
     2013.42642        -1.43131        22.77204
     2013.42915        -5.59348        22.80130
     2013.43190       -15.05063        23.15666
     2013.43463        -3.84281        23.12739
     2013.43737       -22.07996        22.77204
     2013.44010        -9.48914        22.88074
     2013.44284        -9.19530        22.94345
     2013.44558       -11.91247        23.27372
     2013.44832       -13.86663        22.65080
     2013.45106       -10.59380        22.52538
     2013.45379        -2.19496        22.53374
     2013.45654        -4.88112        22.67170
     2013.45927        -9.28229        28.58315
     2013.46201        -5.84646        23.35733
     2013.46475        -5.68962        22.89746
     2013.46748        -2.34979        22.37070
     2013.47022        -4.96195        22.53374
     2013.47296        -5.02712        22.60063
     2013.47570        -4.89927        22.38324
     2013.47763         2.29054        38.23211
     2013.48121        -4.15253        31.32148
     2013.48391         7.43922        24.43176
     2013.48665        -6.75494        29.56979
     2013.48939        -5.18711        24.13075
     2013.49212        -6.80527        27.98950
     2013.49486        -5.10644        27.76374
     2013.49760        -3.90160        24.50701
     2013.50034        -5.48077        22.33307
     2013.50308       -18.00993        22.83475
     2013.50581       -15.43210        22.51702
     2013.50855       -12.71926        22.59227
     2013.51129        -7.40743        22.31217
     2013.51403        -3.77158        22.47521
     2013.51676        -6.32876        23.32807
     2013.51950        -1.29492        22.52120
     2013.52224        -2.85909        23.07305
     2013.52498        -0.77125        23.27372
     2013.52772        -0.99442        22.57555
     2013.53023        -7.48615        24.09313
     2013.56149        -5.99011        43.34505
     2013.56331       -11.65056        23.18174
     2013.56605       -10.58473        22.50866
     2013.56878         0.73011        22.80966
     2013.57152        -4.46706        22.64662
     2013.57426         2.51178        22.64662
     2013.57700         1.62861        22.52120
     2013.57974        -2.79955        22.85983
     2013.58247         0.58028        22.32471
     2013.58521        -0.59388        22.64244
     2013.58795         2.02395        22.58809
     2013.59069         6.57979        22.83893
     2013.59342         1.75462        23.34479
     2013.59616        -2.34154        22.70515
