# ================= DQRFIT RESULTS ================
# INPUT FILE: series/YAKS.rad
# OUTPUT: LDETRENDED
# FILTER FUNCTION: f(t)
# f(t)=+line(t)+annual(t)+jumps(t)
# line(t)=+P 1+P 2*t
# annual(t)=+P 3*sin(2*pi*t+P 4)
# jumps(t)=+P 5*heav(t-2020.3060  )
# heav(t)=(t<0?0:1)
# TOTAL OBSERVATIONS MTOT=  895
# INITIAL TIME INTERVAL= 2022.7488 - 2020.1725 =  2.5763
# TOTAL OBSERVATIONS AFTER PREFILTER M=  875
# TIME-SPAN= 2022.7488 - 2020.1725 =  2.5763
# OBSERVATIONS: USED M=   875 REJECTED MTOT-M=    20 %USED=   97.7654
# N=  5 PARAMETERS
# MAXSIG= 175.00000
# MAXRES=  31.32432
# SCALE FACTOR FOR LENGTHS: SCL=  10.00000
# SCALE FACTOR FOR SIGMAS: SCLSIG=   1.00000
# CHI^2=    824.399 DOF=   870 CHI^2/DOF=   0.94759
# RMS=      5.712 SDEV=      5.715 MEAN=    0.00781
#  P #       PARAMETER +-    SIGMA %error PARAMETER NAME
# P 1 =      5408.16512 +-  541.946  10.02 YZERO                              
# P 2 =        -2.73907 +-    0.268   9.79 SLOPE                              
# P 3 =         3.19593 +-    0.274   8.59 ANNUAL AMPLITUDE                   
# P 4 =         2.25031 +-    0.077   3.44 ANNUAL PHASE                       
# P 5 =       130.60052 +-    0.944   0.72 OFFSET 2020.3060                   
#       T            LDETRENDED       SIG_OBS
     2020.17248        -9.29104         5.66737
     2020.17519        -5.31062         5.48436
     2020.17796        -3.52703         5.49994
     2020.18070        -8.39553         5.57002
     2020.18344        -4.80103         5.32082
     2020.18617        -4.03755         5.46002
     2020.18891        -4.98904         5.45418
     2020.19165        -5.21954         5.54277
     2020.19439       -10.04404         5.56224
     2020.19713        -5.62354         5.52135
     2020.19986        -4.50604         5.58949
     2020.20260        -3.73455         5.42887
     2020.20533        -0.32605         5.39967
     2020.20807        -2.42155         5.35100
     2020.21081        -5.26606         5.39091
     2020.21355        -2.65456         5.88055
     2020.21629        -4.47606         5.69852
     2020.21900        -8.51962         5.74232
     2020.22176         0.23494         5.56029
     2020.22450         1.77344         5.37047
     2020.22724        -4.65805         5.55737
     2020.22998         0.10845         5.33834
     2020.23271         3.14394         5.52622
     2020.23546        -0.64655         5.66347
     2020.23819        -1.23605         5.65861
     2020.24093        -6.84555         5.65763
     2020.24367        -7.24305         5.72285
     2020.24641        -4.12855         5.48533
     2020.24914        -6.78805         5.61675
     2020.25094         8.18887        10.34475
     2020.25569         6.12489        12.55446
     2020.25735        -2.16357         5.65082
     2020.26009         8.47993         5.33445
     2020.26283         1.43543         5.34419
     2020.26557        -5.88807         5.51259
     2020.26830         3.27643         5.31206
     2020.27104         2.55693         5.27118
     2020.27378         1.54243         5.36268
     2020.27652        -5.86808         5.51746
     2020.27929         0.30851         5.40065
     2020.28199        22.93091         9.42387
     2020.28474         3.88545         7.84787
     2020.28747         8.26292         8.40663
     2020.29021        -3.94758         5.30330
     2020.29295        -2.07708         5.26339
     2020.29568         5.47342         5.43472
     2020.29842         5.91992         5.23516
     2020.30116         6.17242         5.24879
     2020.30390         1.74992         5.32374
     2020.33401       129.73241         5.29162
     2020.33675       127.13491         5.19914
     2020.33949       127.57941         5.13684
     2020.34223       128.83390         5.30038
     2020.34496       121.39140         5.41038
     2020.34770       124.16790         5.19136
     2020.35044       125.53040         5.23127
     2020.35318       124.58090         5.22835
     2020.35592       128.04940         5.20790
     2020.35865       131.09990         5.17091
     2020.36139       132.07240         5.20012
     2020.36413       129.20290         5.48241
     2020.36687       127.37240         5.19914
     2020.36961       124.24790         5.16994
     2020.37234       128.44439         5.09304
     2020.37508       127.66089         5.20790
     2020.37782       133.40939         5.24684
     2020.38056       129.42189         5.48241
     2020.38329       129.92339         5.24587
     2020.38603       133.67989         5.16021
     2020.38877       129.18239         5.23224
     2020.39151       128.76089         5.18941
     2020.39425       127.41139         5.15923
     2020.39698       123.76789         5.17870
     2020.39972       128.96739         5.17675
     2020.40246       125.92189         5.20985
     2020.40520       126.38238         5.23029
     2020.40794       126.87688         5.21277
     2020.41067       127.01738         5.16897
     2020.41341       124.75988         5.31109
     2020.41615       129.09738         5.13295
     2020.41889       127.35688         5.17383
     2020.42162       122.72938         5.32666
     2020.42436       126.24188         5.48533
     2020.42710       129.61938         5.46392
     2020.42984       132.06688         5.29551
     2020.43258       131.95938         5.25658
     2020.43531       131.43888         5.31304
     2020.43805       125.00337         5.24197
     2020.44079       125.33787         5.40357
     2020.44353       133.84637         5.54763
     2020.44626       125.62387         5.19622
     2020.44900       131.27137         5.21180
     2020.45174       133.43587         5.19914
     2020.45448       126.23337         5.11153
     2020.45722       130.29987         5.22543
     2020.45995       124.77637         5.12419
     2020.46269       129.74987         5.14852
     2020.46543       128.25237         5.14755
     2020.46817       129.24487         5.27215
     2020.47091       129.92136         5.26047
     2020.47364       124.31986         5.13392
     2020.47638       131.73336         5.22835
     2020.47912       132.11186         5.37047
     2020.48186       124.52336         5.31206
     2020.48459       119.59086         5.31888
     2020.48733       126.40436         5.52135
     2020.49007       131.47486         5.36852
     2020.49281       133.14136         5.28967
     2020.49555       135.64386         5.33056
     2020.49828       131.69936         5.09596
     2020.50102       120.67086         5.10861
     2020.50376       123.64135         5.19330
     2020.50650       121.71785         5.13782
     2020.50924       122.96435         5.07746
     2020.51197       126.00485         5.10959
     2020.51471       128.25035         5.13782
     2020.51745       126.32385         5.18259
     2020.52019       133.65435         5.26047
     2020.52292       133.39485         5.22737
     2020.52566       121.72935         5.30719
     2020.52840       127.61185         5.42401
     2020.53114       129.28635         5.27604
     2020.53388       128.88685         5.22251
     2020.53661       125.75834         5.31012
     2020.53935       130.40984         5.22737
     2020.54209       124.96834         5.56126
     2020.54483       128.06184         5.27604
     2020.54757       126.55034         5.22153
     2020.55030       131.16384         5.22640
     2020.55304       131.01634         5.27507
     2020.55578       133.20384         5.27410
     2020.55852       132.33134         5.41233
     2020.56125       137.67684         5.38507
     2020.56399       127.83534         5.22153
     2020.56673       126.63384         5.17091
     2020.56947       134.02733         5.29065
     2020.57221       132.70883         5.43180
     2020.57494       128.55233         5.29065
     2020.57768       131.24283         5.28189
     2020.58042       131.26133         5.49799
     2020.58316       131.91783         5.37047
     2020.58590       132.62133         5.22835
     2020.58863       127.34183         5.35100
     2020.59137       125.59233         5.38507
     2020.59411       131.45983         5.20985
     2020.59685       130.09933         5.74914
     2020.59958       128.65282         5.29357
     2020.60232       130.17332         5.24976
     2020.60506       125.65382         5.40259
     2020.60780       129.12332         5.18941
     2020.60965       134.18440         9.25936
     2020.61958       126.76260         8.19929
     2020.62149       124.60682         5.30427
     2020.62423       130.79832         5.42401
     2020.62696       123.63582         5.36268
     2020.62970       140.81032         5.72285
     2020.63244       131.58181         5.33542
     2020.63518       130.86631         5.38410
     2020.63791       126.03681         5.54277
     2020.64065       132.56531         5.33445
     2020.64339       128.22981         5.27897
     2020.64613       133.01031         5.28578
     2020.64887       133.16781         5.29454
     2020.65160       132.37631         5.26339
     2020.65434       131.21381         5.20498
     2020.65708       134.48431         5.31985
     2020.65982       135.28681         5.33640
     2020.66256       128.20231         5.32666
     2020.66529       133.34680         5.26923
     2020.66803       130.62330         5.24100
     2020.67077       129.10280         5.28675
     2020.67351       136.78830         5.30622
     2020.67624       130.19680         5.30817
     2020.67898       125.31230         5.29162
     2020.68172       124.61080         5.27410
     2020.68446       125.43530         5.41719
     2020.68720       124.55280         5.26728
     2020.68993       132.19430         5.31012
     2020.69267       130.36780         5.37144
     2020.69541       131.56930         5.48631
     2020.69815       130.92979         5.28675
     2020.70089       133.12129         5.19330
     2020.70362       134.36779         5.47073
     2020.70636       129.92929         5.75303
     2020.70910       125.81079         5.47657
     2020.71184       131.76329         5.31304
     2020.71457       129.93079         5.34224
     2020.71731       132.17229         5.39772
     2020.72008       131.39088         5.44834
     2020.72279       132.50429         5.24879
     2020.72553       133.41779         5.34905
     2020.72826       134.11529         5.57781
     2020.73100       141.45378         5.43666
     2020.73374       141.59728         5.52038
     2020.73648       128.52578         5.30233
     2020.73921       130.21128         5.25852
     2020.74195       131.89478         5.24003
     2020.74469       129.83128         5.22153
     2020.74743       132.59978         5.28286
     2020.75017       129.90928         5.26144
     2020.75290       125.18178         5.28189
     2020.75564       128.16428         5.17481
     2020.75838       130.50878         5.29065
     2020.76112       135.13528         5.31012
     2020.76386       133.86377         5.21374
     2020.76659       135.34727         5.18065
     2020.76933       136.00677         5.32666
     2020.77207       134.67827         5.20693
     2020.87611       139.77024         5.42498
     2020.87885       143.00874         5.36171
     2020.88158       141.55924         5.37631
     2020.88432       142.28974         5.28773
     2020.88706       136.85224         5.54569
     2020.88980       138.68974         5.38507
     2020.89253       136.20623         5.31596
     2020.89527       135.89773         5.45126
     2020.89801       143.16223         5.41817
     2020.90075       146.38173         5.27702
     2020.90349       140.56623         5.24684
     2020.90622       138.71673         5.26728
     2020.90896       142.01923         5.54763
     2020.91170       138.30473         5.54471
     2020.91444       144.82823         5.34711
     2020.91718       135.27273         5.27312
     2020.91991       132.42723         5.24489
     2020.92265       134.43873         5.31012
     2020.92539       128.93722         5.29746
     2020.92813       130.46472         5.22932
     2020.93086       135.50622         5.28189
     2020.93360       138.72472         5.30330
     2020.93634       141.35922         5.41330
     2020.93908       136.18972         5.33348
     2020.94182       133.11422         5.23711
     2020.94455       133.70072         5.24879
     2020.94729       129.01522         5.21959
     2020.95003       128.15972         5.29454
     2020.95277       123.80722         5.22932
     2020.95551       127.87772         5.29259
     2020.95824       132.96521         5.52525
     2020.96098       130.94271         5.84843
     2020.96372       134.87421         5.36365
     2020.96646       134.18871         5.38896
     2020.96919       134.47121         5.33348
     2020.97193       127.08171         5.21764
     2020.97467       130.49321         5.33153
     2020.97741       127.88971         5.32277
     2020.98015       129.27921         5.43180
     2020.98288       130.99671         5.36949
     2020.98562       138.52321         5.23321
     2020.98836       132.40571         5.29649
     2020.99657       144.96620         5.21277
     2020.99931       146.46770         5.18551
     2021.00205       130.58020         5.19136
     2021.00479       143.66370         5.28481
     2021.00752       141.11820         5.23419
     2021.01026       136.58270         5.20401
     2021.01300       136.20420         5.22640
     2021.01574       135.31270         5.40649
     2021.01848       135.36620         5.16994
     2021.02121       134.72370         5.23808
     2021.02395       131.16319         5.18162
     2021.02669       128.29069         5.32764
     2021.02943       133.73119         5.19136
     2021.03216       132.68469         5.23321
     2021.03490       146.24219         5.38896
     2021.03764       129.87069         5.22153
     2021.04038       129.24419         5.31985
     2021.04312       133.12769         5.20693
     2021.04585       134.51019         5.30233
     2021.04859       130.85769         5.21569
     2021.05133       130.43619         5.22348
     2021.05407       134.44769         5.51940
     2021.05681       132.68918         5.37534
     2021.05954       126.11268         5.19525
     2021.06228       128.62918         5.21861
     2021.06502       130.91968         5.31012
     2021.06776       135.03218         5.23127
     2021.07049       134.65768         5.18746
     2021.07871       130.30818         5.25852
     2021.08145       130.39668         5.19330
     2021.08418       119.67118         5.23905
     2021.08692       129.58167         5.22153
     2021.08966       133.28817         5.22932
     2021.09240       128.74267         5.20596
     2021.09514       128.18117         5.33640
     2021.09787       133.59767         5.40551
     2021.10061       137.56217         5.30330
     2021.10336       138.27171         5.40259
     2021.10609       128.64117         5.19817
     2021.10882       131.25267         5.18259
     2021.11156       127.74517         5.19038
     2021.11430       125.65967         5.20596
     2021.11704       131.58817         5.18844
     2021.11978       132.94466         5.19136
     2021.12251       135.75016         5.23808
     2021.13073       121.61366         5.16799
     2021.13347       122.59016         5.28870
     2021.13620       129.10466         5.25755
     2021.13894       129.76416         5.16313
     2021.14168       125.90366         5.25366
     2021.14442       131.67316         5.24781
     2021.14715       132.69566         5.17870
     2021.14989       125.05716         5.21959
     2021.15262       121.62763         5.32180
     2021.15539       136.76522         5.39383
     2021.15811       126.51965         5.46100
     2021.16084       132.46415         5.54763
     2021.16358       126.74865         5.50286
     2021.16632       128.82815         5.45905
     2021.16849       129.37109         7.10709
     2021.17180       129.57615         5.53011
     2021.17453       122.98465         5.49507
     2021.17727       126.63515         5.33932
     2021.18001       127.40565         5.44542
     2021.18275       123.88915         5.49702
     2021.18548       126.94364         5.15729
     2021.18822       127.13014         5.25463
     2021.19096       128.19564         5.50188
     2021.19370       125.31914         5.31888
     2021.19644       121.07864         5.19233
     2021.19917       123.63214         5.32666
     2021.20191       128.11864         5.27702
     2021.20465       129.38214         5.15339
     2021.20739       126.26264         5.30719
     2021.21013       129.79614         5.65763
     2021.21286       130.95764         5.38215
     2021.21560       135.43214         5.30817
     2021.21834       128.83763         5.28773
     2021.22108       124.30213         5.37631
     2021.22381       122.42963         5.27118
     2021.22572       124.93184         8.84662
     2021.22929       135.34463         5.55542
     2021.23203       132.76513         5.12906
     2021.23477       131.67763         5.34613
     2021.23750       123.05613         5.35489
     2021.24024       129.30963         5.47463
     2021.24298       131.35713         5.26242
     2021.24572       123.29663         5.18259
     2021.24846       130.06413         5.44250
     2021.25119       129.87062         5.34808
     2021.25393       124.66312         5.46197
     2021.25667       128.35362         5.27897
     2021.25941       130.15812         5.17967
     2021.26214       132.14262         5.45126
     2021.26488       134.43212         5.35197
     2021.26762       131.06162         5.30135
     2021.26954       132.50788         8.18858
     2021.27310       133.52362         5.47755
     2021.27583       126.20312         5.13976
     2021.27857       127.67662         5.30525
     2021.28131       133.34112         5.40551
     2021.28405       136.02161         5.42206
     2021.28679       129.78111         5.35003
     2021.28952       123.54061         5.88542
     2021.29226       127.53611         5.30525
     2021.29500       131.54561         5.44348
     2021.29774       130.36211         5.58463
     2021.30047       128.98761         5.37436
     2021.30321       132.50611         5.38702
     2021.30595       132.66961         5.60215
     2021.30869       142.47111         5.55445
     2021.31143       136.67361         5.20109
     2021.31416       141.23910         5.22251
     2021.31690       135.78860         5.48533
     2021.32021       133.42767         7.46434
     2021.32295       133.96316         7.20151
     2021.32569       130.93969         7.50620
     2021.32843       121.88118         7.29983
     2021.33117       132.30668         6.81700
     2021.33390       134.17616         6.87541
     2021.33664       132.72266         6.88806
     2021.33937       131.45116         7.21416
     2021.34211       131.96966         7.07594
     2021.34485       132.70816         8.78238
     2021.34759       131.38566         7.26868
     2021.35033       124.16316         7.04479
     2021.35306       122.69366         6.78682
     2021.35580       126.45215         7.12558
     2021.35854       128.25565         6.97664
     2021.36133       123.13631         7.51301
     2021.36402       128.29165         8.39495
     2021.36653       124.44553         6.91240
     2021.36891       126.02205         5.19525
     2021.37172       129.07676         5.46489
     2021.37438       128.56603         5.42011
     2021.37770       123.54615         7.03602
     2021.38044       131.65265         7.45363
     2021.38318       132.21415         7.89460
     2021.38592       132.03965         7.33682
     2021.38866       127.05714         7.67265
