# ================= DQRFIT RESULTS ================
# INPUT FILE: series/YAWA.rad
# OUTPUT: LDETRENDED
# FILTER FUNCTION: f(t)
# f(t)=+line(t)+annual(t)
# line(t)=+P 1+P 2*t
# annual(t)=+P 3*sin(2*pi*t+P 4)
# heav(t)=(t<0?0:1)
# TOTAL OBSERVATIONS MTOT= 2021
# INITIAL TIME INTERVAL= 2008.6321 - 2001.1225 =  7.5096
# TOTAL OBSERVATIONS AFTER PREFILTER M= 2005
# TIME-SPAN= 2008.6321 - 2001.1225 =  7.5096
# OBSERVATIONS: USED M=  2005 REJECTED MTOT-M=    16 %USED=   99.2083
# N=  4 PARAMETERS
# MAXSIG= 175.00000
# MAXRES=  20.45626
# SCALE FACTOR FOR LENGTHS: SCL=  10.00000
# SCALE FACTOR FOR SIGMAS: SCLSIG=   1.00000
# CHI^2=   1632.392 DOF=  2001 CHI^2/DOF=   0.81579
# RMS=      5.477 SDEV=      5.478 MEAN=    0.03532
#  P #       PARAMETER +-    SIGMA %error PARAMETER NAME
# P 1 =      6219.76127 +-  139.802   2.25 YZERO                              
# P 2 =        -3.08522 +-    0.070   2.26 SLOPE                              
# P 3 =         5.47633 +-    0.173   3.15 ANNUAL AMPLITUDE                   
# P 4 =        -2.29871 +-    0.030   1.31 ANNUAL PHASE                       
#       T            LDETRENDED       SIG_OBS
     2001.12252        -3.10615         5.75887
     2001.12526        -4.58270         5.89435
     2001.12800        -8.03725         5.68390
     2001.13074        -6.42880         5.70648
     2001.13347         2.13764         5.69655
     2001.13621        -5.64291         5.57642
     2001.13895        -5.21446         5.95667
     2001.14169         0.40998         5.74713
     2001.14443       -10.47557         5.55293
     2001.14716         0.11688         5.66042
     2001.14990         4.22532         5.75435
     2001.15264        -8.80323         5.91512
     2001.15538         6.16422         5.67667
     2001.15812        -6.09334         5.79409
     2001.16085         1.68411         5.73990
     2001.16359         2.85456         5.86093
     2001.16633        -0.55100         6.13099
     2001.16907       -14.46455         5.85912
     2001.17180         2.16790         5.82661
     2001.17454       -23.88265         5.91603
     2001.17728       -11.42421         5.78416
     2001.18002        -5.70576         5.68571
     2001.18276        -8.82431         5.72906
     2001.18549         2.05913         6.06054
     2001.18823        -5.56042         5.99189
     2001.19097         3.56403         5.90248
     2001.19371        -9.70353         5.86274
     2001.19645         4.31192         5.77061
     2001.19918         4.66837         5.76519
     2001.20192         0.24581         5.66403
     2001.20466         3.75126         5.95848
     2001.20740        -6.01429         5.93951
     2001.21013        -3.13785         6.44531
     2001.21287        -9.70640         6.41008
     2001.21561        -4.74995         6.05422
     2001.21835        -0.84850         5.80583
     2001.22109        -1.54706         6.08131
     2001.22382        -0.37061         5.75977
     2001.22656         2.13384         5.81577
     2001.94662        -5.50364         5.67216
     2001.94935         9.27581         5.63784
     2001.95209        17.63026         5.74893
     2001.95757        -8.17885         5.70016
     2001.96031        -2.71740         5.60171
     2001.97126        -5.66962         5.52042
     2001.98221        -9.08483         5.52042
     2001.98495       -14.74738         5.50597
     2001.98768         0.20306         5.52132
     2001.99042        -4.46049         5.50597
     2001.99316        -2.29504         5.56919
     2001.99590         1.35041         5.65680
     2001.99864        -0.25415         5.74442
     2002.00405         5.13257         5.65409
     2002.88022         5.99274         5.67216
     2002.88296        -2.79181         5.72184
     2002.88570        -5.97636         5.69293
     2002.88844         4.95108         5.90790
     2002.89118        -4.07647         5.74622
     2002.89391        -3.77702         5.70377
     2002.89665        -2.21357         5.71009
     2002.89939        -4.24313         5.72906
     2002.90213        -4.87568         5.85912
     2002.90486        -0.64623         5.70919
     2002.90760        -2.44679         6.02893
     2002.91034        -3.67034         5.75706
     2002.91308        -2.76189         5.68571
     2002.91582         2.90855         5.74351
     2002.91855         2.14900         5.86003
     2002.92129        -0.45555         5.88261
     2002.92403        -9.24211         5.96119
     2002.92677        -6.31166         5.85822
     2002.92951         1.06879         5.86816
     2002.93224        -4.28877         5.68661
     2002.93498        -2.40132         5.83654
     2002.93772         0.57513         5.72364
     2002.94046         4.65857         5.89345
     2002.94319         1.80302         5.68571
     2002.94593         6.88047         5.68390
     2002.94867         4.31292         5.67848
     2002.95141         9.63136         5.68209
     2002.95415         4.09481         5.89615
     2002.95688         8.50926         6.40286
     2002.95962        10.14570         5.87448
     2002.96236        -0.64985         5.89254
     2002.96510        -7.38640         6.12647
     2002.96784         1.85304         6.09847
     2002.97057        -4.19551         5.80854
     2002.97331        -5.50606         5.71822
     2002.97605        -7.23162         5.76248
     2002.97879        -1.21817         5.96570
     2002.98152        -5.79372         6.10751
     2002.98426        -4.00028         5.88261
     2002.98974        -1.64138         5.90699
     2002.99248         1.55807         5.81035
     2002.99521       -11.18149         5.92325
     2002.99795        -4.66804         5.82932
     2003.05014        -6.77302         6.37666
     2003.05271       -10.44910         5.58816
     2003.05545       -10.53366         5.85732
     2003.05818       -22.60621         5.78777
     2003.06092       -31.19176         6.23757
     2003.06366       -11.34432         5.69745
     2003.06640       -17.49187         5.78867
     2003.06914        -3.26542         5.99370
     2003.07187        -2.19098         5.83293
     2003.07461        -5.90653         5.82570
     2003.07735        -9.10808         5.64145
     2003.08009       -10.42163         5.79319
     2003.08282       -16.15619         5.89254
     2003.08556        -4.69074         5.78506
     2003.08830        -3.54229         5.78867
     2003.09104        -6.25485         5.76700
     2003.09378        -6.89140         5.79680
     2003.09651        -3.68995         5.64687
     2003.09925        -5.86851         5.77512
     2003.10199       -10.26506         5.72635
     2003.10473       -12.17261         5.58726
     2003.10747        -4.58417         5.80583
     2003.11020         0.94428         5.89886
     2003.11294       -12.32527         5.95848
     2003.11568        -1.51083         5.83022
     2003.11842        -3.86438         5.89796
     2003.12115       -12.63893         5.69564
     2003.12389        -9.93448         5.86906
     2003.12663        -2.91104         5.74261
     2003.12937        -6.07059         5.91241
     2003.13211       -11.22814         6.07589
     2003.13484        -7.43870         5.90609
     2003.13758        -4.78025         5.63242
     2003.14032         7.64020         5.65861
     2003.14306        -1.19636         5.71822
     2003.14580       -11.45891         5.62609
     2003.14853        -7.94046         5.69293
     2003.15127       -10.70402         5.65590
     2003.15401        -1.54957         5.60081
     2003.15675        -8.79412         5.94944
     2003.15937        -6.18603         5.87628
     2003.16222        -3.78623         5.75706
     2003.16496        -0.54178         5.78506
     2003.16770         4.83666         5.68571
     2003.17044         5.09411         5.83564
     2003.17317        10.74156         5.71190
     2003.17563        11.54213         6.22944
     2003.17808         2.31169         7.28800
     2003.18139         1.53590         6.00906
     2003.18337        -2.59097         8.30411
     2003.18675        -1.16456         5.91422
     2003.18960        -7.37776         5.59900
     2003.19234         3.78769         5.72003
     2003.19508         5.95313         5.85732
     2003.19781         9.59758         5.83203
     2003.20055         2.20603         5.73358
     2003.20329        -1.66253         5.73629
     2003.20603        -3.10508         5.78054
     2003.20837        -5.81286         6.52569
     2003.21150        -5.54119         5.61797
     2003.21424         2.44826         5.84196
     2003.21698         4.55771         5.72274
     2003.21972        -2.27884         5.91332
     2003.22246        -8.84240         5.61616
     2003.22519        -2.16495         5.60803
     2003.22793        -1.38550         5.91061
     2003.23067        -3.91406         5.70106
     2003.23341        -6.30661         5.92867
     2003.23614       -10.43916         5.72816
     2003.23888       -11.47772         5.86635
     2003.24162        -8.25227         5.67848
     2003.24436        -0.89082         5.71009
     2003.24710         7.05862         5.93861
     2003.24949         8.17302         6.57176
     2003.25257         3.91952         5.62609
     2003.25497        -2.39809         6.58079
     2003.25805        -4.93659         5.61164
     2003.26079        -4.32114         5.58545
     2003.26290        -7.42463         7.45961
     2003.26626        -6.97125         5.67035
     2003.26900        -4.03780         6.17705
     2003.27174        -5.04435         5.77151
     2003.27447         3.03109         5.63964
     2003.27721        -2.38746         5.70377
     2003.27995         0.22899         5.68300
     2003.28223         0.56603         6.91859
     2003.28543        -0.48512         5.54661
     2003.28816         3.58333         5.66222
     2003.29056         0.75772         6.41369
     2003.29364         1.74322         5.70287
     2003.29638        -3.33633         5.52042
     2003.29911        -0.39489         5.52765
     2003.30185         3.71356         5.58816
     2003.30459        -1.72199         5.64687
     2003.30733        -0.74454         5.53758
     2003.31007         0.44490         5.47526
     2003.31280        -1.41365         5.57100
     2003.31554        -4.55620         5.65048
     2003.31828         2.34224         5.50236
     2003.32102         0.78369         5.61616
     2003.32376         4.50714         5.53306
     2003.32649       -12.45442         5.58003
     2003.32923        -0.31197         5.68571
     2003.33197        -1.27252         5.69022
     2003.33471        -5.01808         5.45900
     2003.33744        -1.41463         5.48339
     2003.34018        -2.29418         5.49152
     2003.34292        -0.86474         5.49242
     2003.34566         5.64871         5.52945
     2003.34840         6.76816         5.62158
     2003.35113        -2.25239         5.74351
     2003.35387         5.47505         5.49694
     2003.35661         6.50750         5.45990
     2003.35935         4.84995         5.49242
     2003.36209         3.71439         5.54752
     2003.36482         4.32384         5.49965
     2003.36756         1.44629         5.63693
     2003.37030         2.08073         5.51229
     2003.37304        -4.24482         5.61255
     2003.37577        -9.87437         5.52674
     2003.37851       -12.51293         5.55655
     2003.38125        -5.24248         5.51410
     2003.38399        -5.44403         5.50416
     2003.38673         0.55641         5.60893
     2003.38946         2.22986         5.43190
     2003.39220        -2.74869         5.52132
     2003.39494         5.58276         5.65229
     2003.39768         1.63220         5.49513
     2003.40042        -5.02035         5.83835
     2003.40315        -0.14890         5.85370
     2003.40589        11.21454         5.90970
     2003.40863         7.78799         5.63332
     2003.41137         1.47044         5.56106
     2003.41410         4.54888         5.49061
     2003.41684         3.04333         5.74803
     2003.41958         5.39678         5.71822
     2003.42232         0.29622         5.49242
     2003.42506         3.29967         5.54661
     2003.42779         2.02812         5.63784
     2003.43053         4.01756         5.50506
     2003.43327         4.86501         5.68842
     2003.43601        11.40446         5.70377
     2003.43875         7.12690         5.67487
     2003.44148         8.70935         5.51229
     2003.44422         5.63280         5.59448
     2003.44696         6.79325         5.95396
     2003.44970        -2.28331         5.55745
     2003.45243         0.67714         5.53939
     2003.45517         2.49759         5.51319
     2003.45791        -2.62197         5.61526
     2003.46065         3.93848         5.50868
     2003.46339         7.60593         5.62519
     2003.46612         7.08237         5.49242
     2003.46886         2.03482         5.62519
     2003.47160         5.76727         5.52765
     2003.47434        10.27271         5.53126
     2003.47708         8.09016         5.60622
     2003.47981         6.32661         5.73177
     2003.48255         3.13305         5.72093
     2003.48529         9.56950         5.60442
     2003.48803         4.86695         5.55293
     2003.49076         8.57740         5.58726
     2003.49350         8.17984         5.61526
     2003.49624         7.81129         5.46171
     2003.49898         1.17174         5.58997
     2003.50172        -1.85182         5.70106
     2003.50445        -0.44837         5.74080
     2003.50719         7.87908         5.62971
     2003.50993         2.52352         5.70467
     2003.51267         5.78497         5.55384
     2003.51541         4.30542         5.70377
     2003.51814         6.41086         5.54390
     2003.52088         4.68731         5.49603
     2003.52362         7.11476         5.67216
     2003.52909         2.63965         5.64416
     2003.53183         0.02610         5.53668
     2003.53457         1.29655         5.74983
     2003.54005        -0.00056         5.56016
     2003.54278        -2.86711         5.42107
     2003.54552        -5.19067         5.60984
     2003.54826         6.67078         5.71913
     2003.55100         4.45723         5.72364
     2003.55374        -4.16433         5.47526
     2003.55647         1.06612         5.65319
     2003.55921         2.18157         5.49423
     2003.56195         4.82601         5.72093
     2003.56469         0.36446         5.53216
     2003.56742         3.19191         5.57371
     2003.57016         5.25535         5.56106
     2003.57290         4.36080         5.63242
     2003.57564         3.37625         5.50145
     2003.57838         9.65670         5.64055
     2003.58111         6.03714         5.70919
     2003.58385         5.58859         5.55564
     2003.58659         6.67304         5.70287
     2003.58933        -2.17952         5.52313
     2003.59206         9.01993         5.61526
     2003.59480         3.14338         5.67487
     2003.59754         8.53682         5.67306
     2003.60028         1.03827         5.64506
     2003.60302         5.21772         5.51319
     2003.60575         5.12616         5.46713
     2003.60849         3.94661         5.62790
     2003.61123         2.43906         5.53939
     2003.61397         6.62250         5.50597
     2003.61671        -1.99905         5.45358
     2003.61944         0.54740         5.58184
     2003.62218         2.40885         5.67035
     2003.62492         9.03729         5.49513
     2003.62766         6.65474         5.57822
     2003.63039         1.52319         5.58274
     2003.63313         8.48363         5.44003
     2003.63587         7.59108         5.43552
     2003.63861        11.84053         5.68209
     2003.64408         6.50142         5.49694
     2003.64682         3.63087         5.45810
     2003.64956         6.51531         5.59087
     2003.65230         0.63376         5.49152
     2003.65504         1.27621         5.51139
     2003.65777        -6.74535         5.51139
     2003.66051         2.76110         5.42287
     2003.66325         6.03755         5.47436
     2003.66599         6.79899         5.52765
     2003.67146         3.91389         5.35965
     2003.67420         6.79534         5.63784
     2003.67694         5.91078         5.46352
     2003.67968         1.39023         5.51861
     2003.68241         3.32268         5.75525
     2003.68515        -0.08588         5.53126
     2003.68789         4.11457         5.55835
     2003.73170        -3.49528         5.79138
     2003.73401       -10.04212         7.39639
     2003.75360         9.26229         5.56648
     2003.75634        -0.00026         5.55745
     2003.75907         4.44219         5.60893
     2003.76181         1.92464         5.80493
     2003.76455        16.09608         5.97744
     2003.76729         9.46753         6.01899
     2003.77003         6.54898         5.59358
     2003.77276         5.73342         5.47887
     2003.77550         4.00187         5.61616
     2003.77824         1.03832         5.55113
     2003.78098         2.45476         5.51319
     2003.78371         7.37821         5.65771
     2003.78645         4.71966         5.54752
     2003.78919         8.37910         5.46171
     2003.79193         7.07655         5.79770
     2003.79467         4.45900         5.45178
     2003.79740         7.96544         5.55655
     2003.80014         5.31389         5.60803
     2003.80288         4.07834         5.64687
     2003.80519         6.74747         7.34219
     2003.80835        -7.11480         5.87628
     2003.81108        -0.39335         5.68390
     2003.81382        -9.52290         5.46442
     2003.81656        -6.11444         5.66042
     2003.81930        11.07399         5.66584
     2003.82250        16.13586         6.65846
     2003.82477         3.39488         7.14078
     2003.82751        -7.26267         6.56363
     2003.83025       -11.42422         5.83745
     2003.83344        -1.19537         6.41640
     2003.83572         2.28467         5.40932
     2003.83846         0.43712         5.41655
     2003.84120        -1.28443         5.48881
     2003.84394        -7.66399         5.43552
     2003.84668        -9.04354         5.43732
     2003.84941        -4.36309         5.53216
     2003.85216        -1.85563         5.42920
     2003.85496         7.49000         5.47436
     2003.85763         5.90825         5.62519
     2003.86036         7.72369         5.53577
     2003.86310         5.71714         5.39668
     2003.86584         3.40759         5.56648
     2003.86858         6.84803         5.71822
     2003.87132         7.91848         5.48700
     2003.87405         5.08093         5.44455
     2003.87679        13.63337         5.60803
     2003.87953         6.74482         5.55926
     2003.88227        -1.02773         5.47074
     2003.88501         6.14971         6.08312
     2003.88774         3.93616         5.51319
     2003.89048        -5.23039         5.42829
     2003.89322        -3.96694         5.45990
     2003.89596         1.22750         5.66855
     2003.89869         0.51795         5.81758
     2003.90143        -2.38860         5.62068
     2003.90417       -10.08616         5.53577
     2003.90691       -10.46271         5.57732
     2003.90965         0.23074         5.69835
     2003.92334        -6.85403         5.56739
     2003.92607        10.21242         5.65319
     2003.92881         5.43186         5.44365
     2003.93155         1.71231         5.31900
     2003.93429         0.63176         5.40842
     2003.93702         3.01321         5.31810
