# ================= DQRFIT RESULTS ================
# INPUT FILE: series/YOCR.rad
# OUTPUT: LDETRENDED
# FILTER FUNCTION: f(t)
# f(t)=+line(t)
# line(t)=+P 1+P 2*t
# heav(t)=(t<0?0:1)
# TOTAL OBSERVATIONS MTOT=  696
# INITIAL TIME INTERVAL= 2022.7488 - 2020.7529 =  1.9959
# TOTAL OBSERVATIONS AFTER PREFILTER M=  694
# TIME-SPAN= 2022.7488 - 2020.7529 =  1.9959
# OBSERVATIONS: USED M=   694 REJECTED MTOT-M=     2 %USED=   99.7126
# N=  2 PARAMETERS
# MAXSIG= 175.00000
# MAXRES=  41.75510
# SCALE FACTOR FOR LENGTHS: SCL=  10.00000
# SCALE FACTOR FOR SIGMAS: SCLSIG=   1.00000
# CHI^2=   1744.166 DOF=   692 CHI^2/DOF=   2.52047
# RMS=      9.601 SDEV=      9.607 MEAN=    0.14675
#  P #       PARAMETER +-    SIGMA %error PARAMETER NAME
# P 1 =      3470.89076 +- 1230.297  35.45 YZERO                              
# P 2 =        -1.69509 +-    0.609  35.90 SLOPE                              
#       T            LDETRENDED       SIG_OBS
     2020.75290         3.73796         9.40970
     2020.75564         4.46360         9.07789
     2020.75838         9.81924         9.17474
     2020.76112         3.90889         9.11441
     2020.76386        -1.72947         9.18902
     2020.76659         6.67217         9.18426
     2020.76933        10.64881         9.30651
     2020.77207         9.80045         9.05884
     2020.77481         7.98509         9.24300
     2020.77754         8.07073         9.41446
     2020.78028        17.96337         9.52083
     2020.78302         9.29801         9.50972
     2020.78576         4.60365         9.35572
     2020.78850        -5.22971         9.19855
     2020.79123        -1.94306         9.10806
     2020.79397        -7.30942         9.23983
     2020.79671        -0.98378         9.33032
     2020.79945       -10.33314         9.29222
     2020.80219         0.66150         9.36207
     2020.80492        -0.72786         9.18109
     2020.80766        -8.27022         9.35731
     2020.81040         6.62042         9.30492
     2020.81314         0.33406         9.25412
     2020.81587        -5.66730         9.08583
     2020.81861         2.21034         9.22236
     2020.82135         1.99099         9.25570
     2020.82409        -1.39537         9.23030
     2020.82683         2.43027         9.27158
     2020.82956         3.20591         9.34461
     2020.83230         4.48855         9.33032
     2020.83504         3.52019         9.40811
     2020.83778         3.74283         9.18585
     2020.84052        15.65547         9.29381
     2020.84325        11.87611         9.65737
     2020.84599        16.91575         9.49067
     2020.84873        -4.66861         9.20331
     2020.85147        -3.63496         9.21284
     2020.85420        -8.19832         9.19537
     2020.85694         1.17432         9.38906
     2020.85968         4.28096         9.45574
     2020.86242        -1.89140         9.90344
     2020.86516       -11.31876         9.62879
     2020.86789         9.11488         9.67800
     2020.87063         9.08452         9.63355
     2020.87337        13.66916        10.15111
     2020.87611         8.83080        10.18604
     2020.87885        10.96344         9.32556
     2020.88158        11.14609         9.56211
     2020.88432        11.46473         9.71769
     2020.88706         7.43137        10.45434
     2020.88980         5.45901         9.48908
     2020.89253         2.92765         9.22871
     2020.89527        14.93429         9.61133
     2020.89801        20.41693        10.07490
     2020.90075        30.49557        10.33051
     2020.90349         8.60021        10.39719
     2020.90622         9.16785         9.73833
     2020.90896         4.80749         9.74627
     2020.91170         4.44614         9.53830
     2020.91444        14.84478         9.56687
     2020.91718         5.35242         9.48114
     2020.91991        -2.50794         9.57005
     2020.92265        -5.08030         9.36842
     2020.92539        -8.04966         9.36842
     2020.92813        -7.73902         9.35890
     2020.93086       -14.08738         9.34302
     2020.93360        -4.75874         9.57322
     2020.93634        -4.35010         9.38906
     2020.93908       -18.11446         9.32238
     2020.94182        -3.48181         9.09536
     2020.94455        -2.36117         9.18902
     2020.94729       -10.40053         9.20331
     2020.95003        -4.33589         9.39859
     2020.95277       -12.65325         9.51607
     2020.95551       -11.01661         9.97489
     2020.95824        17.89703         9.91932
     2020.96098        34.52667        10.05903
     2020.96372        25.98631        10.01616
     2020.96919        21.88259         9.98600
     2020.97193        -2.10976         9.80660
     2020.97467        -5.74812         9.52560
     2020.97741       -22.80948         9.58592
     2020.98015        -2.00984         9.80978
     2020.98288         1.40980         9.66689
     2020.98562         2.03544         9.37954
     2020.98836        -1.73892         9.36684
     2020.99110         4.62472         9.29857
     2020.99384         4.57436         9.11599
     2020.99657         3.20500         9.32556
     2020.99931        14.51864        10.11777
     2021.00205         6.51329         9.89233
     2021.00479        20.47793         9.70182
     2021.00752        31.60457         9.42399
     2021.01026        29.63921         9.46209
     2021.01300        22.16185         9.95742
     2021.01574        13.88249         9.29857
     2021.01848        -4.47487         9.24459
     2021.02121        -2.75023         9.48432
     2021.02395       -20.03659         9.34778
     2021.02669        -3.19695         9.38747
     2021.02943        -3.72331         9.49067
     2021.03216        13.17834         9.92885
     2021.03490         3.43198         9.83200
     2021.03764        -4.16938         9.48908
     2021.04038       -11.19574         9.73516
     2021.04312        -2.89810         9.21284
     2021.04585        -5.40546         9.36048
     2021.04859        -7.28482         9.29222
     2021.05133        -3.72118         9.31127
     2021.05407        -2.43454         9.84153
     2021.05681       -10.31990         9.73357
     2021.05954        -4.64126         9.22871
     2021.06228        -2.98961         9.18585
     2021.06502         0.05103         9.21601
     2021.06776       -11.45333         9.28746
     2021.07049       -16.83369         9.44939
     2021.07323        -6.99205         9.28904
     2021.07597       -17.61441         9.26840
     2021.07871        -5.23877         9.13505
     2021.08145        -5.74013         9.18426
     2021.08418       -14.78749         9.42081
     2021.08692         3.35515         9.39541
     2021.08966        -4.20721         9.37477
     2021.09240       -18.30256         9.67642
     2021.09514        -9.44192        10.39242
     2021.09787        -9.39428        10.80679
     2021.10061        -6.73964         9.66689
     2021.10335        -4.17000         9.65895
     2021.10609         3.59064         9.57322
     2021.10882         0.27528         9.47955
     2021.11156       -10.35708         9.40970
     2021.11430       -10.58044         9.37636
     2021.11704        -1.23780         9.23189
     2021.11978        -9.79816         9.45892
     2021.12251        -4.88451         9.35572
     2021.12525         6.69813         9.76691
     2021.12799        -3.80123        10.43053
     2021.13073         5.49241        11.02588
     2021.13347       -15.11395        10.23843
     2021.13620        -6.84731        10.20191
     2021.13894        -6.67167        10.00981
     2021.14168        -3.73303        10.26542
     2021.14715         9.06525        10.27335
     2021.14989         4.05389        10.16857
     2021.15263        25.85454        10.46069
     2021.15537        22.31018        10.24637
     2021.15811        31.45682        10.73376
     2021.16084        15.13446        10.78139
     2021.16358        41.75510        10.87188
     2021.16632        -0.06126         9.67800
     2021.16906        -3.98562         9.18902
     2021.17180        -3.89898         9.18902
     2021.17453        -3.54134         9.54147
     2021.17727        -1.77370         9.44463
     2021.18001        -4.96905         9.65578
     2021.18275       -11.53341         9.63514
     2021.18548        -6.34877         9.22871
     2021.18822        -9.09413         9.14298
     2021.19096       -11.36649         9.14933
     2021.19370        -8.23685         9.49067
     2021.19644        -9.66621         9.28269
     2021.19917        -4.49357         9.52242
     2021.20191       -10.19893         9.16680
     2021.20465       -11.02229         9.08742
     2021.20739       -10.75665         9.14933
     2021.21013         4.80299         9.54147
     2021.21286        -5.19536         9.52401
     2021.21560        -0.92472         9.34778
     2021.21834        -1.73508         9.20014
     2021.22108        -2.07944         9.26682
     2021.22381       -12.81280         9.14457
     2021.22655        -6.95316         9.17791
     2021.22929       -17.94452         9.07630
     2021.23203       -13.53288         9.08583
     2021.23477       -13.29924         9.29698
     2021.23750        -0.39460         9.19537
     2021.24024        -8.45495         9.15727
     2021.24298       -13.20531         9.10647
     2021.24572       -12.66167         9.11758
     2021.24846        -5.41303         9.28269
     2021.25119         0.32061         9.22395
     2021.25393        -5.41875         9.26682
     2021.25667        -9.97511         9.39224
     2021.25941        -3.72247         9.07948
     2021.26214        -4.77783         9.42399
     2021.26488        -5.14119         9.12393
     2021.33159        -3.52810        19.14645
     2021.33333         3.10184         9.26682
     2021.33607        -2.67652         9.33508
     2021.33880       -11.53488         9.33985
     2021.34154        -1.97124         9.24618
     2021.34428         0.73840         9.35890
     2021.34702        -5.60496         9.21125
     2021.34976        -4.73832         9.11282
     2021.35249       -10.06268         9.28904
     2021.35523       -12.90304         9.30174
     2021.35797       -10.78240         9.44145
     2021.36071       -12.18275         9.42875
     2021.36344       -15.76811         9.53512
     2021.36618       -21.04447         9.42716
     2021.36892       -11.99483         9.58751
     2021.37166       -10.80119         9.67324
     2021.37440       -10.26155         9.67642
     2021.37713        -1.94491         9.26047
     2021.37987       -13.68427         9.56211
     2021.38261       -21.83863         9.79072
     2021.38535       -14.28199         9.84153
     2021.38809       -16.33535         9.61450
     2021.39082       -17.25170         9.93361
     2021.39356       -11.00506         9.91138
     2021.39630       -13.92242         9.63038
     2021.39904        -7.69578         9.76374
     2021.40177        -8.92314         9.68118
     2021.40451       -10.00150         9.69388
     2021.40725        -9.85086         9.50654
     2021.40999        -7.44222         9.63673
     2021.41273        -7.32158         9.37636
     2021.41546        -6.74994         9.32397
     2021.41820       -14.65630         9.13981
     2021.42094       -10.05165         9.27793
     2021.42368        -2.80501         9.39859
     2021.42642        -4.11637         9.30809
     2021.42915         0.12427         9.53830
     2021.43189         3.23691         9.47003
     2021.43463        -6.08045         9.50496
     2021.43737        -4.62781         9.26523
     2021.44010        -3.44517         9.41923
     2021.44284       -12.79953         9.44463
     2021.44558        -6.99089         9.48749
     2021.44832        -9.12025         9.55576
     2021.45106         0.82040         9.89392
     2021.45379         0.10504         9.67324
     2021.45653        -9.28432         9.55576
     2021.45927        -3.05768         9.03661
     2021.46201        -0.83904         9.08424
     2021.46475        -2.44640         9.39065
     2021.46748        -1.85976         9.34302
     2021.48391       -16.77591         9.22395
     2021.48665       -11.33027         9.27317
     2021.48939       -15.10263         9.84629
     2021.49212         9.89901         9.32080
     2021.49486        -1.30835         9.18109
     2021.49760        -1.86471         9.28587
     2021.50034        -3.68707         9.24459
     2021.50308        -1.22143         9.16045
     2021.50581         0.05621         9.13505
     2021.50855         0.93685         9.13028
     2021.51129        -0.09850         9.15886
     2021.51403         1.22114         9.23983
     2021.51676         4.20278         9.16204
     2021.51950         0.04942         9.21443
     2021.52224         1.34606         9.15251
     2021.52498         4.65870         9.09853
     2021.52772         2.02734         9.06995
     2021.53045         1.89398         9.10964
     2021.53319         8.19462         9.07313
     2021.53593         1.08526         9.33508
     2021.53867         3.51890         9.70976
     2021.54141        -2.14945         9.34302
     2021.54414        -9.49181         9.45257
     2021.54688        -4.18617         9.37477
     2021.54962         0.87247         9.30016
     2021.55236        -0.98289         9.19537
     2021.55509         1.45775         9.36366
     2021.55783         0.23839         9.28269
     2021.56057         3.43803         9.33350
     2021.56331         8.31667         9.14457
     2021.56605        -1.40569         9.27634
     2021.56878         3.78795         9.25888
     2021.57152         0.02860         9.13028
     2021.57426        -1.98276         9.44304
     2021.57700         5.13088         9.42716
     2021.57974        -3.75848         9.25888
     2021.58247        -4.52284         9.18902
     2021.58521         5.86980         9.21760
     2021.58795         2.01544         9.42558
     2021.59069        -1.24792         9.41446
     2021.59342        -6.47128         9.26364
     2021.59616        -1.03864         9.72087
     2021.59890         3.77400         9.28269
     2021.60164        -1.74635         9.42716
     2021.60438         0.75729         9.19379
     2021.60711         2.21293         9.24142
     2021.60985        -0.32643         9.38112
     2021.61259         0.71021         9.20966
     2021.61533        -1.17015         9.15410
     2021.61807         3.84149         9.09377
     2021.62080        -1.34387         9.21919
     2021.62354         1.06877         9.19379
     2021.62628         0.64941         9.49543
     2021.62902        -6.18695         9.36525
     2021.63175         2.66270         9.09377
     2021.63449        -2.76766         9.17156
     2021.63723         1.22098         9.60815
     2021.63997         2.84662         9.33032
     2021.64271         1.33626         9.37954
     2021.64544         2.16890         9.08107
     2021.64818        -0.43046         9.20014
     2021.65092         4.52418         9.23665
     2021.65366        -0.21218         9.26364
     2021.65639        -1.93454         9.18585
     2021.65913         1.86810         9.05408
     2021.66187        13.90375         9.17950
     2021.66461         7.21139         9.07789
     2021.66735         7.07803         9.15410
     2021.67008         5.11267         9.22236
     2021.67282         3.98831         9.42716
     2021.68925         4.73715         9.44939
     2021.69199         3.40880         9.22713
     2021.69472        13.53644         9.36048
     2021.69746         1.17708         9.25729
     2021.70020         6.75172         9.13981
     2021.70294         3.08236         9.14616
     2021.70568         8.37000         9.32556
     2021.70841         8.03464         9.08901
     2021.71115         3.87428         9.07154
     2021.71389        18.42392         9.61291
     2021.71663        10.60756         9.40653
     2021.71937         6.09220         9.27158
     2021.72210         5.93485         9.12076
     2021.72484         2.34649         9.26840
     2021.72758        -2.09387         9.16521
     2021.73032        -2.41423         9.53353
     2021.73305         6.62641         9.13028
     2021.73579        24.40505         9.55100
     2021.73853        13.73169         9.82089
     2021.74127        12.37333         9.31127
     2021.74401        -0.49503         9.59704
     2021.74674         7.62561         9.21760
     2021.74948         5.72725         9.33032
     2021.75222         9.65890         9.08424
     2021.75496        10.94754         9.16045
     2021.75770         9.51618         9.38589
     2021.76043         3.33282         9.47638
     2021.76317         9.52046         9.32873
     2021.76591         4.77610         9.24142
     2021.76865         2.70374         9.24459
     2021.77138        10.64438         9.12076
     2021.77412        13.98202         9.58592
     2021.77686       -11.86034         9.41129
     2021.77960        10.25730         9.32873
     2021.78234         3.42295         9.20014
     2021.78507         7.46059         9.83041
     2021.78781         9.01923         9.29857
     2021.79055        11.76587         9.16839
     2021.79329         9.30751         9.16997
     2021.79603         5.93915         9.05884
     2021.79876         3.97879         9.14457
     2021.80150         9.68243         9.60815
     2021.80424         6.14307         9.60339
     2021.80698         8.91371         9.41288
     2021.80971         5.38135         9.51131
     2021.81245        10.16000         9.56687
     2021.81519        16.54864         9.21125
     2021.81793        19.76028         9.70658
     2021.82067        13.54192         9.82089
     2021.82340        16.64956         9.81771
     2021.82614        23.83320         9.55735
     2021.82888         4.44484         9.36366
     2021.83162        -0.29852         9.30651
     2021.83436         0.75312         9.49067
     2021.83709         1.83276         9.43986
     2021.83983         0.28640         9.57957
     2021.84257         9.31305         9.74310
     2021.84531         8.63469         9.77167
     2021.84804         7.02633         9.50337
     2021.85078         0.38197        10.37020
     2021.85352         0.92361         9.64784
     2021.85626        16.40625         9.99394
     2021.85900         9.73189         9.83994
     2021.86173        10.92453         9.92408
     2021.86447        11.81717         9.68118
     2021.86721         4.98881         9.55258
     2021.86995         2.58845         9.66530
     2021.87269         4.82410         9.48273
     2021.87542        -3.98226         9.57164
     2021.88090        -2.38798         9.35255
     2021.88364         2.50866         9.35096
     2021.88637        -8.89070         9.40811
     2021.88911        -3.72106         9.22395
     2021.89185        -9.06642         9.32873
     2021.89459        -1.95478         9.27634
     2021.89733       -31.18914         9.41764
     2021.90006        -1.96450         9.26999
     2021.90280        -1.17185         9.88122
     2021.90554        -4.53321         9.41129
     2021.90828        -1.11557         9.58434
     2021.91102        -4.00093         9.57640
     2021.91375         5.95671         9.20808
     2021.91649        -3.10865         9.34937
     2021.91923         9.58199         9.53195
     2021.92197        -6.04837         9.84470
     2021.92470        -1.28973         9.49702
     2021.92744         1.84291         9.42081
     2021.93018         0.08655         9.68753
     2021.93292         7.16220         9.91297
